# 2020-05-14_15.29.53
# shape = Gauss
# FWHM_ps = 0.1
# carrier_nm = 1550
# frep_MHz = 100
# pow_mW = 150
# GDD = 0.0
# propa_len = 0.15
# untap_len = 0.005
# taper_len = 0.08
# waist_len = 0.04
# uptap_len = 0.08
# untap_scale = 1.0
# waist_scale = 0.2
# workingDir = NL_20110305_12 (Spirou)
# axis = slow
# window_ps = 10.0
# steps = 200
# points = 11000
# 
# wavelength [nm]	 power spectral density [dB]
403.318464	-52.260299
403.372731	-52.704234
403.427012	-51.596949
403.481308	-52.072815
403.535619	-51.972748
403.589944	-51.293010
403.644284	-50.462188
403.698638	-50.294809
403.753007	-51.172162
403.807391	-51.835188
403.861790	-50.936915
403.916203	-49.687828
403.970630	-49.393889
404.025073	-49.982902
404.079530	-50.593467
404.134002	-50.444352
404.188488	-49.457231
404.242989	-48.573320
404.297505	-48.391802
404.352036	-48.956279
404.406581	-49.768274
404.461141	-49.836139
404.515716	-49.246574
404.570305	-48.610111
404.624909	-48.194749
404.679528	-48.131754
404.734162	-48.282343
404.788810	-48.286509
404.843474	-47.841297
404.898152	-47.733408
404.952844	-48.185996
405.007552	-48.706991
405.062274	-48.628152
405.117011	-48.042547
405.171763	-47.635502
405.226530	-47.598765
405.281311	-47.596673
405.336107	-47.477116
405.390919	-47.297863
405.445745	-47.290314
405.500585	-47.646430
405.555441	-47.872232
405.610311	-47.829663
405.665197	-47.640596
405.720097	-47.387382
405.775012	-47.120231
405.829942	-46.914640
405.884886	-46.703213
405.939846	-46.729985
405.994821	-46.865994
406.049810	-46.985913
406.104814	-47.003867
406.159834	-46.872698
406.214868	-46.810300
406.269917	-46.968689
406.324981	-47.028144
406.380060	-46.712434
406.435153	-46.246711
406.490262	-46.084806
406.545386	-46.311220
406.600525	-46.650499
406.655678	-46.786208
406.710847	-46.634661
406.766030	-46.253770
406.821229	-45.822707
406.876442	-45.779034
406.931671	-46.131756
406.986914	-46.604305
407.042173	-47.029288
407.097446	-46.888913
407.152735	-46.450030
407.208039	-46.041813
407.263357	-45.942829
407.318691	-45.904245
407.374039	-45.739683
407.429403	-45.425788
407.484782	-45.451039
407.540176	-45.868522
407.595584	-46.352546
407.651008	-46.422885
407.706447	-46.091706
407.761901	-45.623045
407.817371	-45.444751
407.872855	-45.598436
407.928354	-45.701404
407.983869	-45.683381
408.039398	-45.665214
408.094943	-45.686620
408.150503	-45.730429
408.206078	-45.641692
408.261668	-45.570577
408.317273	-45.403581
408.372893	-45.214715
408.428529	-45.057754
408.484180	-45.237239
408.539846	-45.736695
408.595527	-46.141007
408.651223	-46.121040
408.706934	-45.722682
408.762661	-45.318857
408.818403	-45.096904
408.874160	-44.923934
408.929932	-44.968863
408.985719	-45.029092
409.041522	-45.033570
409.097340	-45.271443
409.153173	-45.522901
409.209021	-45.722292
409.264885	-45.638968
409.320764	-45.511793
409.376658	-45.425512
409.432567	-45.375830
409.488492	-45.152576
409.544432	-44.920319
409.600387	-44.847561
409.656358	-44.982776
409.712343	-45.295777
409.768345	-45.504523
409.824361	-45.456158
409.880393	-45.031417
409.936440	-44.525867
409.992502	-44.354226
410.048580	-44.575647
410.104673	-45.090494
410.160781	-45.454156
410.216905	-45.495453
410.273044	-45.385822
410.329199	-45.268009
410.385369	-45.194480
410.441554	-45.265435
410.497755	-45.355620
410.553971	-45.319424
410.610202	-45.201785
410.666449	-44.965104
410.722711	-44.864176
410.778989	-44.902907
410.835282	-45.081776
410.891591	-45.489764
410.947915	-45.921485
411.004254	-45.833486
411.060609	-45.314790
411.116979	-44.786977
411.173365	-44.714654
411.229766	-44.993392
411.286183	-45.511960
411.342615	-45.756516
411.399063	-45.603775
411.455526	-45.301208
411.512005	-45.106892
411.568499	-45.073053
411.625009	-45.141264
411.681534	-45.340881
411.738075	-45.558468
411.794631	-45.715703
411.851203	-45.899714
411.907790	-45.781319
411.964393	-45.510161
412.021012	-45.248072
412.077646	-45.187687
412.134296	-45.498613
412.190961	-45.822089
412.247642	-45.949853
412.304338	-45.780166
412.361050	-45.573802
412.417778	-45.593481
412.474521	-45.686828
412.531280	-45.754155
412.588054	-45.675980
412.644844	-45.614529
412.701650	-45.468135
412.758471	-45.493502
412.815308	-45.566186
412.872161	-45.638890
412.929029	-45.738729
412.985913	-45.808314
413.042813	-45.911763
413.099728	-45.962082
413.156659	-46.039640
413.213606	-46.017630
413.270568	-45.902951
413.327546	-45.513936
413.384540	-45.202452
413.441550	-45.033471
413.498575	-45.245271
413.555616	-45.561805
413.612673	-45.708278
413.669745	-45.582189
413.726833	-45.307623
413.783937	-45.103728
413.841057	-45.085029
413.898193	-45.179567
413.955344	-45.221861
414.012511	-45.200423
414.069694	-45.141197
414.126893	-45.108018
414.184107	-45.098245
414.241338	-45.106364
414.298584	-45.230370
414.355846	-45.357411
414.413124	-45.295485
414.470417	-45.032784
414.527727	-44.710156
414.585052	-44.417141
414.642393	-44.332675
414.699750	-44.404169
414.757123	-44.605105
414.814512	-44.715947
414.871917	-44.636911
414.929337	-44.520790
414.986774	-44.428492
415.044226	-44.281250
415.101694	-44.078521
415.159178	-43.934708
415.216679	-43.763816
415.274195	-43.684653
415.331727	-43.581870
415.389275	-43.593928
415.446838	-43.740805
415.504418	-44.006297
415.562014	-44.336141
415.619626	-44.576458
415.677254	-44.641889
415.734897	-44.411740
415.792557	-44.129375
415.850233	-43.874838
415.907924	-43.755898
415.965632	-43.856346
416.023356	-43.944505
416.081096	-43.770072
416.138851	-43.579660
416.196623	-43.522893
416.254411	-43.700525
416.312215	-44.025853
416.370035	-44.130590
416.427871	-43.971269
416.485723	-43.641941
416.543591	-43.268842
416.601476	-42.968469
416.659376	-42.857058
416.717292	-42.915084
416.775225	-43.109302
416.833174	-43.312411
416.891138	-43.428165
416.949119	-43.546365
417.007116	-43.684042
417.065130	-43.701773
417.123159	-43.640002
417.181204	-43.611892
417.239266	-43.573003
417.297344	-43.590614
417.355438	-43.607717
417.413548	-43.606642
417.471674	-43.656057
417.529817	-43.790936
417.587975	-43.863544
417.646150	-43.852835
417.704341	-43.899039
417.762549	-43.911187
417.820772	-43.804176
417.879012	-43.594090
417.937268	-43.394198
417.995541	-43.264096
418.053829	-43.221651
418.112134	-43.250657
418.170455	-43.242437
418.228792	-43.223147
418.287146	-43.169124
418.345516	-42.967370
418.403902	-42.810287
418.462304	-42.880751
418.520723	-43.154089
418.579158	-43.556203
418.637610	-43.814735
418.696078	-43.798794
418.754562	-43.628738
418.813062	-43.523107
418.871579	-43.536166
418.930112	-43.594156
418.988661	-43.705612
419.047227	-43.862775
419.105810	-43.939327
419.164408	-43.962747
419.223023	-43.897829
419.281655	-43.776230
419.340302	-43.749587
419.398967	-43.710570
419.457647	-43.560346
419.516344	-43.402532
419.575058	-43.302373
419.633788	-43.326286
419.692534	-43.346933
419.751297	-43.309651
419.810076	-43.179673
419.868872	-43.051137
419.927684	-42.926220
419.986513	-42.821994
420.045358	-42.817596
420.104220	-42.899405
420.163098	-43.117454
420.221992	-43.371011
420.280904	-43.411778
420.339831	-43.294703
420.398776	-43.109068
420.457736	-43.063592
420.516714	-43.206173
420.575707	-43.504423
420.634718	-43.727340
420.693745	-43.861482
420.752788	-43.755464
420.811848	-43.595011
420.870925	-43.439402
420.930018	-43.375486
420.989128	-43.210758
421.048255	-43.115109
421.107398	-42.946652
421.166558	-42.873256
421.225734	-42.807208
421.284927	-42.841624
421.344137	-42.861084
421.403363	-42.782643
421.462606	-42.547705
421.521865	-42.274575
421.581141	-42.027047
421.640434	-41.896074
421.699744	-41.856032
421.759070	-41.863029
421.818413	-41.881356
421.877773	-41.878071
421.937149	-41.838495
421.996542	-41.857739
422.055952	-41.909759
422.115379	-42.031733
422.174822	-42.252616
422.234282	-42.496614
422.293759	-42.792736
422.353252	-42.979144
422.412763	-43.057862
422.472290	-43.035820
422.531834	-42.876859
422.591394	-42.824428
422.650972	-42.815794
422.710566	-42.918966
422.770177	-42.922349
422.829805	-42.838831
422.889449	-42.706050
422.949111	-42.522911
423.008789	-42.449048
423.068485	-42.415841
423.128197	-42.251168
423.187925	-42.096369
423.247671	-41.839115
423.307434	-41.641786
423.367213	-41.503788
423.427010	-41.459223
423.486823	-41.420272
423.546653	-41.394873
423.606500	-41.293059
423.666364	-41.151175
423.726245	-41.000411
423.786143	-40.893540
423.846058	-40.884037
423.905990	-40.930068
423.965939	-41.006878
424.025904	-41.147374
424.085887	-41.332800
424.145886	-41.496243
424.205903	-41.688810
424.265937	-41.830202
424.325987	-41.868239
424.386055	-42.002822
424.446139	-42.088427
424.506241	-42.369961
424.566360	-42.583079
424.626495	-42.681598
424.686648	-42.554532
424.746818	-42.365997
424.807004	-42.209211
424.867208	-42.246953
424.927429	-42.226315
424.987667	-42.253746
425.047922	-42.121196
425.108194	-41.908195
425.168484	-41.667773
425.228790	-41.456374
425.289113	-41.318943
425.349454	-41.309430
425.409812	-41.214456
425.470186	-41.138022
425.530578	-40.981491
425.590988	-40.797900
425.651414	-40.624393
425.711857	-40.484611
425.772318	-40.425501
425.832796	-40.383371
425.893291	-40.432211
425.953803	-40.461066
426.014332	-40.578138
426.074879	-40.717972
426.135442	-40.804487
426.196023	-40.921628
426.256622	-41.006138
426.317237	-41.082753
426.377870	-41.307981
426.438520	-41.470222
426.499187	-41.717946
426.559871	-41.773637
426.620573	-41.864823
426.681292	-41.864720
426.742028	-41.877205
426.802782	-42.012470
426.863553	-42.135027
426.924341	-42.322547
426.985147	-42.441314
427.045969	-42.338568
427.106810	-42.235072
427.167667	-41.934082
427.228542	-41.679655
427.289434	-41.466043
427.350344	-41.313003
427.411271	-41.194948
427.472215	-41.097431
427.533177	-40.961923
427.594156	-40.781857
427.655152	-40.583542
427.716166	-40.352476
427.777197	-40.177472
427.838246	-39.979453
427.899312	-39.870589
427.960396	-39.763166
428.021497	-39.792824
428.082615	-39.785632
428.143751	-39.818644
428.204905	-39.693001
428.266075	-39.584523
428.327264	-39.496872
428.388470	-39.490439
428.449693	-39.620966
428.510934	-39.848764
428.572192	-40.163524
428.633468	-40.419345
428.694761	-40.693797
428.756072	-40.777558
428.817401	-40.862461
428.878747	-40.874590
428.940110	-40.952978
429.001491	-41.142738
429.062890	-41.358878
429.124306	-41.559565
429.185740	-41.593149
429.247192	-41.572095
429.308661	-41.393920
429.370147	-41.346174
429.431652	-41.257380
429.493173	-41.198950
429.554713	-41.084399
429.616270	-40.963990
429.677845	-40.794034
429.739437	-40.634051
429.801047	-40.492484
429.862675	-40.248357
429.924321	-39.971950
429.985984	-39.604571
430.047665	-39.345890
430.109363	-39.131822
430.171079	-39.020513
430.232813	-38.915938
430.294565	-38.816155
430.356334	-38.649285
430.418122	-38.526313
430.479926	-38.361941
430.541749	-38.258978
430.603589	-38.215106
430.665448	-38.195552
430.727324	-38.244919
430.789217	-38.373806
430.851129	-38.473411
430.913058	-38.550990
430.975005	-38.537692
431.036970	-38.562807
431.098953	-38.518713
431.160953	-38.590588
431.222972	-38.659083
431.285008	-38.821605
431.347062	-39.007210
431.409134	-39.278947
431.471224	-39.605495
431.533332	-39.973420
431.595457	-40.302250
431.657601	-40.557416
431.719762	-40.709579
431.781941	-40.780457
431.844139	-40.813050
431.906354	-40.844043
431.968587	-40.911206
432.030838	-40.972452
432.093107	-41.113358
432.155394	-41.174558
432.217698	-41.143483
432.280021	-40.912971
432.342362	-40.580413
432.404721	-40.196124
432.467097	-39.931272
432.529492	-39.729461
432.591905	-39.600422
432.654336	-39.554124
432.716785	-39.483030
432.779251	-39.397526
432.841736	-39.233731
432.904239	-39.072932
432.966760	-38.897913
433.029299	-38.726193
433.091856	-38.555331
433.154431	-38.346930
433.217025	-38.217073
433.279636	-38.094460
433.342266	-38.009539
433.404913	-38.027803
433.467579	-38.100418
433.530263	-38.160284
433.592965	-38.247822
433.655685	-38.268177
433.718423	-38.271378
433.781179	-38.296080
433.843954	-38.397642
433.906746	-38.599901
433.969557	-38.900651
434.032386	-39.254895
434.095234	-39.615543
434.158099	-39.953519
434.220983	-40.213582
434.283885	-40.504246
434.346805	-40.734528
434.409743	-41.023828
434.472700	-41.277108
434.535675	-41.537309
434.598668	-41.815452
434.661679	-42.154066
434.724709	-42.480577
434.787757	-42.852833
434.850823	-43.165346
434.913908	-43.387615
434.977010	-43.444173
435.040132	-43.392266
435.103271	-43.157906
435.166429	-42.868145
435.229605	-42.542707
435.292800	-42.282066
435.356012	-42.031355
435.419244	-41.854546
435.482493	-41.709374
435.545761	-41.537457
435.609047	-41.348071
435.672352	-41.033056
435.735675	-40.641515
435.799017	-40.266877
435.862377	-39.845487
435.925755	-39.545315
435.989152	-39.266902
436.052567	-39.108581
436.116001	-38.965635
436.179453	-38.858435
436.242924	-38.761719
436.306413	-38.684015
436.369921	-38.654790
436.433447	-38.624320
436.496991	-38.585723
436.560554	-38.565581
436.624136	-38.500710
436.687736	-38.448937
436.751355	-38.417252
436.814992	-38.428454
436.878648	-38.534390
436.942322	-38.678587
437.006015	-38.881497
437.069726	-39.150748
437.133456	-39.337889
437.197205	-39.545887
437.260972	-39.690134
437.324758	-39.830245
437.388562	-39.974879
437.452385	-40.153571
437.516227	-40.356737
437.580087	-40.591410
437.643966	-40.892427
437.707864	-41.160373
437.771780	-41.423270
437.835715	-41.655234
437.899669	-41.842002
437.963641	-42.021328
438.027632	-42.090706
438.091642	-42.141868
438.155670	-42.054241
438.219717	-41.933246
438.283783	-41.657029
438.347868	-41.344700
438.411971	-41.041207
438.476093	-40.710635
438.540234	-40.410693
438.604394	-40.122157
438.668572	-39.844683
438.732769	-39.597052
438.796985	-39.329327
438.861220	-39.055409
438.925473	-38.745749
438.989746	-38.452103
439.054037	-38.132630
439.118347	-37.847360
439.182676	-37.610750
439.247024	-37.411049
439.311390	-37.225269
439.375776	-37.075725
439.440180	-36.918763
439.504603	-36.801914
439.569046	-36.654949
439.633507	-36.557911
439.697987	-36.512276
439.762485	-36.419377
439.827003	-36.381565
439.891540	-36.322776
439.956095	-36.303189
440.020670	-36.265467
440.085264	-36.259535
440.149876	-36.197733
440.214508	-36.171905
440.279158	-36.146974
440.343828	-36.103168
440.408516	-36.105492
440.473224	-36.087070
440.537950	-36.059361
440.602696	-36.044195
440.667460	-36.067436
440.732244	-36.062555
440.797046	-36.138169
440.861868	-36.236254
440.926709	-36.349928
440.991569	-36.522855
441.056448	-36.681474
441.121346	-36.869116
441.186263	-37.062602
441.251199	-37.254633
441.316155	-37.419051
441.381129	-37.542744
441.446123	-37.628573
441.511135	-37.716397
441.576167	-37.761976
441.641218	-37.836556
441.706289	-37.921525
441.771378	-38.024173
441.836487	-38.077903
441.901614	-38.147942
441.966762	-38.159283
442.031928	-38.182524
442.097113	-38.191958
442.162318	-38.254522
442.227542	-38.278646
442.292785	-38.298427
442.358047	-38.287144
442.423329	-38.169661
442.488630	-38.047622
442.553950	-37.872376
442.619290	-37.679934
442.684648	-37.487725
442.750027	-37.301762
442.815424	-37.153008
442.880841	-37.005240
442.946277	-36.890960
443.011732	-36.779912
443.077207	-36.648042
443.142701	-36.530529
443.208215	-36.418741
443.273747	-36.313490
443.339300	-36.225493
443.404871	-36.153236
443.470462	-36.056697
443.536073	-35.961425
443.601703	-35.868336
443.667352	-35.769297
443.733021	-35.657473
443.798709	-35.550218
443.864416	-35.442239
443.930143	-35.334403
443.995890	-35.233528
444.061656	-35.156517
444.127442	-35.098943
444.193247	-35.101079
444.259071	-35.113722
444.324915	-35.151384
444.390779	-35.158339
444.456662	-35.151427
444.522564	-35.110995
444.588486	-35.077080
444.654428	-35.036385
444.720389	-35.043729
444.786370	-35.052127
444.852371	-35.086672
444.918391	-35.111568
444.984430	-35.158257
445.050489	-35.175568
445.116568	-35.200217
445.182667	-35.244366
445.248785	-35.272818
445.314922	-35.333150
445.381080	-35.375099
445.447257	-35.446965
445.513454	-35.515868
445.579670	-35.575473
445.645906	-35.641493
445.712162	-35.668048
445.778437	-35.691322
445.844733	-35.678632
445.911047	-35.664275
445.977382	-35.680442
446.043736	-35.668120
446.110111	-35.691087
446.176504	-35.707459
446.242918	-35.744853
446.309352	-35.769416
446.375805	-35.824088
446.442278	-35.845467
446.508771	-35.875775
446.575283	-35.849668
446.641816	-35.825461
446.708368	-35.809592
446.774940	-35.797366
446.841532	-35.786573
446.908144	-35.797051
446.974775	-35.786700
447.041427	-35.766474
447.108098	-35.745329
447.174789	-35.690132
447.241501	-35.627075
447.308232	-35.565537
447.374983	-35.524117
447.441754	-35.486011
447.508545	-35.468360
447.575355	-35.483289
447.642186	-35.484725
447.709037	-35.498245
447.775908	-35.485949
447.842798	-35.444582
447.909709	-35.387307
447.976640	-35.308218
448.043590	-35.249039
448.110561	-35.167186
448.177552	-35.108943
448.244562	-35.058019
448.311593	-35.061255
448.378644	-35.075571
448.445715	-35.108224
448.512806	-35.127683
448.579917	-35.137216
448.647048	-35.150471
448.714199	-35.151644
448.781371	-35.198316
448.848562	-35.238144
448.915774	-35.331028
448.983005	-35.396736
449.050257	-35.488735
449.117529	-35.575013
449.184821	-35.710953
449.252134	-35.841711
449.319466	-35.979333
449.386819	-36.129028
449.454192	-36.272964
449.521585	-36.422108
449.588998	-36.578536
449.656432	-36.728018
449.723885	-36.884695
449.791359	-37.035507
449.858854	-37.165650
449.926368	-37.352846
449.993903	-37.513019
450.061458	-37.689163
450.129033	-37.860162
450.196629	-37.981116
450.264245	-38.081055
450.331881	-38.158146
450.399537	-38.219667
450.467214	-38.262129
450.534912	-38.276066
450.602629	-38.238131
450.670367	-38.194173
450.738125	-38.128788
450.805904	-38.063852
450.873703	-37.979429
450.941523	-37.876800
451.009363	-37.745550
451.077223	-37.621269
451.145104	-37.483996
451.213005	-37.356036
451.280926	-37.215852
451.348868	-37.075842
451.416831	-36.933200
451.484814	-36.790534
451.552817	-36.635492
451.620841	-36.478718
451.688886	-36.301855
451.756951	-36.111179
451.825036	-35.923062
451.893142	-35.717728
451.961269	-35.501395
452.029416	-35.286361
452.097583	-35.056514
452.165772	-34.843559
452.233980	-34.653755
452.302210	-34.475689
452.370460	-34.350287
452.438730	-34.235098
452.507021	-34.165913
452.575333	-34.074246
452.643665	-33.993447
452.712018	-33.896485
452.780392	-33.792050
452.848786	-33.696419
452.917201	-33.571486
452.985637	-33.464219
453.054094	-33.346375
453.122571	-33.219451
453.191068	-33.107720
453.259587	-33.008535
453.328126	-32.918678
453.396686	-32.843696
453.465267	-32.786789
453.533868	-32.722001
453.602490	-32.635064
453.671133	-32.539939
453.739797	-32.433175
453.808481	-32.317584
453.877187	-32.176518
453.945913	-32.036379
454.014660	-31.904074
454.083427	-31.772627
454.152216	-31.651434
454.221025	-31.534405
454.289856	-31.427918
454.358707	-31.318733
454.427579	-31.209850
454.496472	-31.131290
454.565386	-31.021821
454.634320	-30.921325
454.703276	-30.784565
454.772252	-30.630202
454.841250	-30.489640
454.910268	-30.329461
454.979308	-30.202291
455.048368	-30.072398
455.117449	-29.965421
455.186551	-29.863299
455.255675	-29.777795
455.324819	-29.705132
455.393984	-29.634548
455.463170	-29.576294
455.532378	-29.508291
455.601606	-29.441389
455.670855	-29.370436
455.740126	-29.315443
455.809417	-29.252691
455.878730	-29.215704
455.948064	-29.177135
456.017418	-29.149630
456.086794	-29.130988
456.156191	-29.119676
456.225609	-29.114594
456.295048	-29.119580
456.364509	-29.128636
456.433990	-29.135201
456.503493	-29.159457
456.573017	-29.180205
456.642562	-29.203574
456.712128	-29.255163
456.781715	-29.294769
456.851324	-29.359793
456.920954	-29.424687
456.990605	-29.491747
457.060277	-29.564172
457.129970	-29.624090
457.199685	-29.698575
457.269421	-29.780379
457.339179	-29.869726
457.408957	-29.971047
457.478757	-30.072194
457.548578	-30.181462
457.618421	-30.305521
457.688285	-30.403307
457.758170	-30.506802
457.828077	-30.580374
457.898004	-30.637703
457.967954	-30.694699
458.037924	-30.736669
458.107916	-30.757398
458.177930	-30.760706
458.247965	-30.731630
458.318021	-30.703376
458.388098	-30.675582
458.458198	-30.645958
458.528318	-30.636348
458.598460	-30.612831
458.668624	-30.609466
458.738808	-30.606854
458.809015	-30.627686
458.879243	-30.662887
458.949492	-30.715479
459.019763	-30.798156
459.090055	-30.889298
459.160369	-31.001499
459.230705	-31.122243
459.301062	-31.242167
459.371441	-31.374864
459.441841	-31.529848
459.512263	-31.692303
459.582706	-31.872338
459.653171	-32.048271
459.723657	-32.236080
459.794166	-32.426267
459.864696	-32.638564
459.935247	-32.862915
460.005820	-33.100201
460.076415	-33.336194
460.147031	-33.575009
460.217669	-33.824374
460.288329	-34.071145
460.359011	-34.331159
460.429714	-34.623297
460.500439	-34.905140
460.571186	-35.179832
460.641954	-35.460014
460.712744	-35.734327
460.783556	-36.023532
460.854390	-36.345719
460.925245	-36.711292
460.996123	-37.169978
461.067022	-37.665519
461.137943	-38.330745
461.208885	-39.042221
461.279850	-39.870153
461.350836	-40.805366
461.421845	-41.893347
461.492875	-43.137025
461.563927	-44.601391
461.635001	-46.251295
461.706096	-48.225055
461.777214	-50.379063
461.848354	-52.720594
461.919515	-53.956999
461.990698	-53.384513
462.061904	-51.384669
462.133131	-49.549655
462.204380	-47.583438
462.275652	-46.111998
462.346945	-44.752514
462.418260	-43.783725
462.489597	-42.879017
462.560957	-42.254246
462.632338	-41.623775
462.703741	-41.163761
462.775166	-40.667835
462.846614	-40.244209
462.918083	-39.835591
462.989575	-39.394204
463.061088	-38.949228
463.132624	-38.502858
463.204182	-38.056851
463.275762	-37.573094
463.347364	-37.112099
463.418988	-36.681534
463.490635	-36.236561
463.562303	-35.816489
463.633994	-35.355404
463.705707	-34.920838
463.777442	-34.496481
463.849199	-34.072644
463.920978	-33.676805
463.992780	-33.271407
464.064604	-32.895090
464.136450	-32.474172
464.208318	-32.098875
464.280209	-31.735640
464.352122	-31.398737
464.424057	-31.078400
464.496015	-30.789294
464.567995	-30.506988
464.639997	-30.250956
464.712021	-29.990107
464.784068	-29.732892
464.856137	-29.483043
464.928228	-29.228779
465.000342	-29.000144
465.072478	-28.759005
465.144637	-28.527305
465.216818	-28.285780
465.289021	-28.049374
465.361247	-27.818546
465.433495	-27.580577
465.505766	-27.348336
465.578059	-27.115214
465.650375	-26.892449
465.722713	-26.663012
465.795073	-26.421498
465.867456	-26.173216
465.939862	-25.928278
466.012290	-25.688662
466.084740	-25.466756
466.157213	-25.254412
466.229709	-25.062214
466.302227	-24.885910
466.374768	-24.723297
466.447331	-24.572661
466.519917	-24.427837
466.592525	-24.294515
466.665156	-24.178321
466.737810	-24.073500
466.810486	-23.988699
466.883185	-23.905258
466.955907	-23.825467
467.028651	-23.758365
467.101418	-23.674537
467.174208	-23.599737
467.247020	-23.521892
467.319855	-23.440098
467.392713	-23.354332
467.465593	-23.254715
467.538496	-23.145442
467.611422	-23.011588
467.684371	-22.882454
467.757342	-22.741922
467.830336	-22.604761
467.903353	-22.472813
467.976393	-22.340309
468.049456	-22.195999
468.122541	-22.044780
468.195649	-21.904180
468.268780	-21.762300
468.341934	-21.631159
468.415111	-21.506392
468.488311	-21.394246
468.561533	-21.281029
468.634779	-21.183683
468.708047	-21.092055
468.781338	-21.002128
468.854652	-20.925754
468.927989	-20.849708
469.001350	-20.780628
469.074733	-20.708999
469.148138	-20.646491
469.221567	-20.589075
469.295019	-20.524562
469.368494	-20.471022
469.441992	-20.405728
469.515513	-20.342395
469.589057	-20.274119
469.662624	-20.206362
469.736214	-20.131815
469.809827	-20.059540
469.883464	-19.989782
469.957123	-19.926538
470.030805	-19.864488
470.104511	-19.813974
470.178240	-19.760407
470.251991	-19.711025
470.325766	-19.664431
470.399564	-19.618718
470.473386	-19.574691
470.547230	-19.535470
470.621098	-19.498023
470.694988	-19.456761
470.768902	-19.416451
470.842840	-19.377673
470.916800	-19.335217
470.990784	-19.291880
471.064791	-19.240979
471.138821	-19.189906
471.212874	-19.124979
471.286951	-19.067042
471.361051	-18.999118
471.435174	-18.945126
471.509321	-18.887921
471.583491	-18.834159
471.657684	-18.787996
471.731901	-18.739497
471.806141	-18.696122
471.880404	-18.655342
471.954691	-18.626392
472.029001	-18.599313
472.103335	-18.577605
472.177692	-18.557853
472.252072	-18.547544
472.326476	-18.541952
472.400904	-18.540224
472.475354	-18.543826
472.549829	-18.544075
472.624326	-18.546816
472.698847	-18.549076
472.773392	-18.552805
472.847960	-18.551708
472.922552	-18.546757
472.997167	-18.539113
473.071806	-18.523803
473.146469	-18.500762
473.221155	-18.475864
473.295864	-18.451182
473.370597	-18.424800
473.445354	-18.394582
473.520134	-18.369425
473.594938	-18.344157
473.669766	-18.315302
473.744617	-18.290521
473.819492	-18.263740
473.894391	-18.246142
473.969313	-18.234116
474.044259	-18.229162
474.119229	-18.226236
474.194222	-18.226954
474.269240	-18.228995
474.344280	-18.237354
474.419345	-18.245146
474.494433	-18.250003
474.569546	-18.259054
474.644682	-18.266649
474.719841	-18.274765
474.795025	-18.282345
474.870232	-18.292252
474.945463	-18.303979
475.020718	-18.315449
475.095997	-18.321067
475.171300	-18.336761
475.246627	-18.348597
475.321977	-18.362269
475.397352	-18.378770
475.472750	-18.403088
475.548172	-18.424432
475.623618	-18.446372
475.699089	-18.471833
475.774583	-18.497264
475.850101	-18.526081
475.925643	-18.549182
476.001209	-18.572831
476.076799	-18.597447
476.152413	-18.616835
476.228051	-18.626647
476.303713	-18.638470
476.379399	-18.647567
476.455109	-18.653494
476.530843	-18.662256
476.606602	-18.672235
476.682384	-18.671265
476.758191	-18.672751
476.834021	-18.677122
476.909876	-18.677461
476.985755	-18.683026
477.061658	-18.688271
477.137585	-18.703057
477.213537	-18.720597
477.289512	-18.739068
477.365512	-18.769944
477.441536	-18.795176
477.517584	-18.832497
477.593656	-18.875270
477.669753	-18.921174
477.745874	-18.972392
477.822019	-19.027351
477.898189	-19.077779
477.974382	-19.131938
478.050600	-19.177619
478.126843	-19.226465
478.203109	-19.271837
478.279400	-19.315654
478.355716	-19.357075
478.432056	-19.398404
478.508420	-19.435578
478.584808	-19.459096
478.661221	-19.488291
478.737658	-19.512477
478.814120	-19.539514
478.890606	-19.566615
478.967117	-19.595804
479.043652	-19.628083
479.120211	-19.654185
479.196795	-19.686398
479.273403	-19.721772
479.350036	-19.769573
479.426694	-19.822110
479.503376	-19.883715
479.580082	-19.942960
479.656813	-20.006044
479.733569	-20.069022
479.810349	-20.133144
479.887154	-20.190926
479.963983	-20.249930
480.040837	-20.305326
480.117716	-20.361732
480.194619	-20.414184
480.271547	-20.461171
480.348499	-20.508626
480.425476	-20.551732
480.502478	-20.601599
480.579504	-20.654303
480.656556	-20.707637
480.733632	-20.755570
480.810732	-20.805960
480.887858	-20.851685
480.965008	-20.900359
481.042183	-20.946593
481.119382	-21.002481
481.196607	-21.057499
481.273856	-21.116591
481.351130	-21.174339
481.428429	-21.242891
481.505752	-21.313396
481.583101	-21.393012
481.660474	-21.477247
481.737873	-21.555836
481.815296	-21.628027
481.892744	-21.685950
481.970217	-21.739623
482.047714	-21.793864
482.125237	-21.838674
482.202785	-21.881548
482.280358	-21.915083
482.357955	-21.945551
482.435578	-21.967442
482.513225	-21.995047
482.590898	-22.024432
482.668595	-22.057096
482.746318	-22.102851
482.824066	-22.143062
482.901838	-22.197824
482.979636	-22.258362
483.057459	-22.326380
483.135307	-22.399643
483.213180	-22.483464
483.291078	-22.570087
483.369001	-22.659801
483.446949	-22.748374
483.524923	-22.832218
483.602922	-22.908404
483.680945	-22.987491
483.758994	-23.053728
483.837069	-23.112481
483.915168	-23.159899
483.993293	-23.181973
484.071442	-23.198720
484.149617	-23.198794
484.227818	-23.194734
484.306043	-23.191879
484.384294	-23.188544
484.462570	-23.186004
484.540872	-23.182800
484.619199	-23.198647
484.697551	-23.227443
484.775928	-23.274547
484.854331	-23.346747
484.932759	-23.425623
485.011213	-23.512938
485.089692	-23.606176
485.168196	-23.715746
485.246726	-23.837603
485.325281	-23.962395
485.403862	-24.087554
485.482468	-24.200559
485.561099	-24.317449
485.639756	-24.422737
485.718439	-24.519488
485.797147	-24.614495
485.875880	-24.697795
485.954639	-24.772554
486.033424	-24.837071
486.112234	-24.902396
486.191070	-24.967087
486.269931	-25.032038
486.348818	-25.112938
486.427730	-25.184195
486.506668	-25.266413
486.585632	-25.350300
486.664621	-25.450285
486.743636	-25.561986
486.822677	-25.671694
486.901743	-25.790051
486.980835	-25.901021
487.059953	-26.010169
487.139096	-26.104374
487.218265	-26.195853
487.297460	-26.277220
487.376681	-26.354195
487.455927	-26.397914
487.535199	-26.427808
487.614497	-26.446916
487.693821	-26.448660
487.773171	-26.463441
487.852546	-26.462871
487.931947	-26.468832
488.011374	-26.503936
488.090827	-26.550504
488.170306	-26.623204
488.249811	-26.710878
488.329341	-26.794840
488.408898	-26.897103
488.488480	-26.999820
488.568089	-27.095186
488.647723	-27.181721
488.727383	-27.262284
488.807069	-27.322239
488.886782	-27.368082
488.966520	-27.401403
489.046284	-27.433641
489.126074	-27.472850
489.205891	-27.507561
489.285733	-27.563957
489.365602	-27.632701
489.445496	-27.720947
489.525417	-27.839285
489.605364	-27.997006
489.685336	-28.177934
489.765335	-28.376433
489.845360	-28.592184
489.925412	-28.804692
490.005489	-29.043187
490.085593	-29.292738
490.165723	-29.510021
490.245879	-29.714912
490.326061	-29.877920
490.406269	-30.005967
490.486504	-30.112518
490.566765	-30.177951
490.647052	-30.202400
490.727366	-30.223256
490.807706	-30.234339
490.888072	-30.271482
490.968464	-30.328122
491.048883	-30.423205
491.129328	-30.538160
491.209800	-30.664980
491.290298	-30.800682
491.370822	-30.934403
491.451373	-31.082783
491.531950	-31.202651
491.612553	-31.284199
491.693183	-31.296500
491.773840	-31.287666
491.854523	-31.239314
491.935232	-31.183208
492.015968	-31.105818
492.096730	-31.034122
492.177519	-30.972884
492.258334	-30.929753
492.339176	-30.929569
492.420045	-30.940100
492.500940	-30.957673
492.581862	-31.030768
492.662810	-31.123823
492.743785	-31.269351
492.824786	-31.410650
492.905814	-31.574912
492.986869	-31.727851
493.067951	-31.882301
493.149059	-32.022406
493.230193	-32.145719
493.311355	-32.238496
493.392543	-32.270910
493.473758	-32.289011
493.555000	-32.305306
493.636268	-32.350058
493.717563	-32.399333
493.798885	-32.463705
493.880234	-32.557657
493.961610	-32.661586
494.043012	-32.800366
494.124441	-32.955300
494.205898	-33.094603
494.287380	-33.214073
494.368890	-33.283976
494.450427	-33.375435
494.531991	-33.427416
494.613581	-33.418241
494.695199	-33.401327
494.776843	-33.346984
494.858514	-33.294014
494.940213	-33.267706
495.021938	-33.275173
495.103690	-33.323054
495.185470	-33.433376
495.267276	-33.604018
495.349109	-33.820024
495.430970	-34.119471
495.512857	-34.487881
495.594772	-34.895314
495.676713	-35.328481
495.758682	-35.802391
495.840678	-36.261793
495.922701	-36.693948
496.004751	-37.097516
496.086828	-37.405376
496.168932	-37.705865
496.251064	-38.004320
496.333223	-38.278282
496.415409	-38.522475
496.497622	-38.808801
496.579863	-39.096408
496.662130	-39.402499
496.744425	-39.741033
496.826748	-40.054611
496.909097	-40.375791
496.991474	-40.627610
497.073878	-40.894583
497.156310	-41.105758
497.238768	-41.221043
497.321255	-41.277257
497.403768	-41.317930
497.486309	-41.316281
497.568878	-41.349476
497.651473	-41.375831
497.734096	-41.494626
497.816747	-41.763649
497.899425	-42.220817
497.982131	-42.849643
498.064864	-43.672663
498.147624	-44.547324
498.230412	-45.685840
498.313228	-46.915004
498.396071	-48.212004
498.478942	-48.928969
498.561840	-49.072934
498.644766	-48.504982
498.727719	-47.582852
498.810700	-46.647176
498.893709	-45.816517
498.976745	-45.104283
499.059809	-44.492298
499.142900	-44.084580
499.226019	-43.809684
499.309166	-43.567431
499.392341	-43.308035
499.475543	-43.132620
499.558773	-42.998081
499.642031	-42.785359
499.725317	-42.515084
499.808630	-42.238553
499.891971	-42.036700
499.975340	-41.902001
500.058737	-41.728057
500.142161	-41.657782
500.225614	-41.649022
500.309094	-41.861933
500.392602	-42.190825
500.476138	-42.669708
500.559702	-43.304432
500.643294	-44.062996
500.726913	-44.965611
500.810561	-45.825766
500.894236	-46.461052
500.977940	-46.830840
501.061672	-46.758344
501.145431	-46.514369
501.229219	-45.972574
501.313034	-45.373942
501.396878	-44.865088
501.480749	-44.533605
501.564649	-44.348593
501.648577	-44.292042
501.732533	-44.405400
501.816517	-44.545937
501.900529	-44.872633
501.984569	-45.403813
502.068638	-46.024992
502.152734	-46.595413
502.236859	-47.145414
502.321012	-47.711404
502.405193	-48.230931
502.489402	-48.596055
502.573640	-48.721079
502.657906	-48.792792
502.742200	-48.912587
502.826522	-49.259518
502.910873	-49.800350
502.995252	-50.701292
503.079659	-52.039675
503.164095	-54.282935
503.248559	-56.862600
503.333051	-58.326440
503.417572	-56.217713
503.502121	-53.354816
503.586698	-50.818195
503.671304	-49.021976
503.755939	-47.559005
503.840601	-46.615902
503.925293	-45.880140
504.010012	-45.495121
504.094761	-45.223027
504.179537	-45.215177
504.264343	-45.415882
504.349176	-45.768008
504.434039	-46.150386
504.518930	-46.602558
504.603849	-46.881697
504.688797	-47.038617
504.773774	-46.721973
504.858779	-45.981833
504.943813	-45.111135
505.028876	-44.218169
505.113967	-43.466599
505.199087	-42.788486
505.284235	-42.337988
505.369413	-42.077542
505.454619	-41.946451
505.539854	-41.952116
505.625117	-41.843164
505.710409	-41.717434
505.795731	-41.587031
505.881080	-41.328300
505.966459	-41.066958
506.051867	-40.796973
506.137303	-40.636329
506.222768	-40.603072
506.308262	-40.703742
506.393785	-41.063305
506.479337	-41.632772
506.564918	-42.535445
506.650528	-43.642253
506.736166	-45.031977
506.821834	-46.399301
506.907530	-47.445860
506.993256	-47.609218
507.079010	-46.779873
507.164794	-45.708789
507.250606	-44.474607
507.336448	-43.607665
507.422319	-42.910810
507.508219	-42.537299
507.594147	-42.400388
507.680105	-42.405938
507.766092	-42.533864
507.852109	-42.661566
507.938154	-42.779293
508.024228	-42.819131
508.110332	-42.630642
508.196465	-42.302931
508.282627	-41.874832
508.368818	-41.485584
508.455039	-41.110851
508.541289	-40.845051
508.627568	-40.692797
508.713876	-40.695896
508.800214	-40.777501
508.886581	-40.802378
508.972977	-40.799019
509.059403	-40.641004
509.145858	-40.377722
509.232342	-39.986425
509.318856	-39.686693
509.405399	-39.431341
509.491971	-39.361285
509.578573	-39.426550
509.665205	-39.736202
509.751866	-40.309272
509.838556	-41.168515
509.925276	-42.283786
510.012025	-43.596546
510.098804	-44.896197
510.185612	-45.593521
510.272450	-45.291318
510.359318	-44.179998
510.446215	-43.079790
510.533142	-42.197795
510.620098	-41.572389
510.707084	-41.181920
510.794100	-41.000610
510.881145	-41.040421
510.968220	-41.088718
511.055324	-41.118103
511.142459	-40.973121
511.229623	-40.677465
511.316817	-40.259406
511.404040	-39.787727
511.491293	-39.396544
511.578576	-39.121879
511.665889	-38.942532
511.753232	-38.872135
511.840604	-38.793125
511.928007	-38.711641
512.015439	-38.575739
512.102901	-38.281807
512.190393	-37.963527
512.277915	-37.638883
512.365466	-37.326978
512.453048	-37.116513
512.540660	-37.066278
512.628301	-37.174760
512.715973	-37.516217
512.803674	-38.065259
512.891406	-38.832635
512.979167	-39.696363
513.066959	-40.450900
513.154781	-40.829063
513.242632	-40.661449
513.330514	-40.085545
513.418426	-39.330955
513.506368	-38.639019
513.594340	-38.107319
513.682343	-37.809927
513.770375	-37.746594
513.858438	-37.824902
513.946531	-38.042840
514.034654	-38.327091
514.122807	-38.591842
514.210991	-38.717309
514.299204	-38.702058
514.387449	-38.625965
514.475723	-38.560162
514.564028	-38.535563
514.652363	-38.583869
514.740728	-38.631590
514.829124	-38.700832
514.917550	-38.654315
515.006006	-38.445929
515.094493	-38.082152
515.183010	-37.692883
515.271558	-37.323205
515.360136	-37.008876
515.448744	-36.898218
515.537383	-36.954797
515.626053	-37.218271
515.714753	-37.577032
515.803483	-37.960098
515.892244	-38.216672
515.981036	-38.220988
516.069858	-37.953721
516.158711	-37.468337
516.247594	-36.927822
516.336508	-36.479371
516.425453	-36.174146
516.514428	-36.051606
516.603434	-36.144579
516.692471	-36.434549
516.781538	-36.888374
516.870636	-37.444649
516.959765	-38.023753
517.048925	-38.504911
517.138115	-38.875681
517.227336	-39.055698
517.316588	-39.089798
517.405870	-38.970342
517.495184	-38.786065
517.584528	-38.578819
517.673903	-38.284762
517.763309	-37.951797
517.852746	-37.599444
517.942214	-37.240537
518.031713	-36.905607
518.121243	-36.681223
518.210803	-36.593514
518.300395	-36.639681
518.390017	-36.869940
518.479671	-37.263532
518.569356	-37.675618
518.659071	-38.072577
518.748818	-38.182025
518.838596	-37.978203
518.928404	-37.556260
519.018244	-37.037707
519.108115	-36.563192
519.198018	-36.250371
519.287951	-36.165255
519.377915	-36.325186
519.467911	-36.666280
519.557938	-37.117866
519.647996	-37.512990
519.738085	-37.788552
519.828206	-37.769147
519.918357	-37.463926
520.008540	-36.988461
520.098755	-36.453611
520.189000	-36.023810
520.279277	-35.712778
520.369586	-35.507286
520.459925	-35.459936
520.550296	-35.474502
520.640699	-35.572129
520.731133	-35.742699
520.821598	-35.967000
520.912095	-36.258989
521.002623	-36.608800
521.093182	-37.029966
521.183774	-37.424953
521.274396	-37.669948
521.365050	-37.641480
521.455736	-37.336238
521.546453	-36.871919
521.637202	-36.394637
521.727982	-35.972645
521.818794	-35.739191
521.909638	-35.726884
522.000513	-35.941405
522.091420	-36.370254
522.182359	-36.933545
522.273329	-37.519769
522.364331	-37.896832
522.455364	-37.924968
522.546430	-37.644557
522.637527	-37.126755
522.728656	-36.632070
522.819817	-36.188344
522.911009	-35.975700
523.002233	-35.924602
523.093490	-36.004967
523.184778	-36.181143
523.276097	-36.358453
523.367449	-36.458945
523.458833	-36.413633
523.550248	-36.291044
523.641696	-36.071470
523.733175	-35.798858
523.824687	-35.511372
523.916230	-35.265649
524.007806	-35.067561
524.099413	-34.929408
524.191053	-34.873807
524.282724	-34.936313
524.374428	-35.168922
524.466163	-35.583951
524.557931	-36.123967
524.649731	-36.774222
524.741563	-37.404934
524.833427	-37.707705
524.925324	-37.577679
525.017252	-37.052459
525.109213	-36.404557
525.201206	-35.795475
525.293231	-35.359415
525.385289	-35.165469
525.477378	-35.201598
525.569500	-35.474035
525.661655	-35.899636
525.753841	-36.346253
525.846060	-36.664146
525.938312	-36.750139
526.030595	-36.660280
526.122912	-36.436126
526.215260	-36.202501
526.307641	-36.017443
526.400054	-35.951497
526.492500	-35.978723
526.584979	-36.086844
526.677489	-36.204468
526.770033	-36.312923
526.862609	-36.451671
526.955217	-36.573934
527.047858	-36.660090
527.140531	-36.655150
527.233238	-36.541779
527.325976	-36.261787
527.418748	-35.879038
527.511552	-35.531766
527.604388	-35.242409
527.697258	-35.119742
527.790160	-35.191121
527.883095	-35.498647
527.976062	-35.990634
528.069063	-36.503179
528.162096	-36.850576
528.255161	-36.818533
528.348260	-36.385520
528.441391	-35.705743
528.534556	-35.069690
528.627753	-34.553904
528.720983	-34.284582
528.814246	-34.218455
528.907542	-34.403703
529.000870	-34.737930
529.094232	-35.148901
529.187627	-35.518707
529.281054	-35.742708
529.374515	-35.811956
529.468009	-35.725811
529.561535	-35.552473
529.655095	-35.355523
529.748688	-35.158298
529.842314	-34.981616
529.935973	-34.868504
530.029665	-34.832367
530.123390	-34.927551
530.217148	-35.101224
530.310940	-35.362499
530.404765	-35.637252
530.498623	-35.793157
530.592514	-35.791074
530.686438	-35.567658
530.780396	-35.288250
530.874387	-35.025472
530.968411	-34.933308
531.062468	-35.067822
531.156559	-35.450833
531.250683	-35.983682
531.344841	-36.538137
531.439032	-36.832154
531.533256	-36.680116
531.627514	-36.104837
531.721805	-35.454104
531.816130	-34.905154
531.910488	-34.603335
532.004880	-34.588553
532.099305	-34.860743
532.193764	-35.329030
532.288256	-35.896394
532.382782	-36.354566
532.477341	-36.609587
532.571934	-36.535866
532.666560	-36.216381
532.761221	-35.776219
532.855914	-35.310137
532.950642	-34.907954
533.045403	-34.593309
533.140198	-34.412862
533.235027	-34.351091
533.329889	-34.448571
533.424785	-34.694908
533.519715	-34.994932
533.614679	-35.221518
533.709676	-35.284387
533.804707	-35.105156
533.899773	-34.795935
533.994872	-34.500852
534.090005	-34.328213
534.185171	-34.380736
534.280372	-34.649197
534.375607	-35.097322
534.470875	-35.530745
534.566178	-35.781019
534.661515	-35.668786
534.756885	-35.306034
534.852290	-34.891503
534.947729	-34.597787
535.043201	-34.510346
535.138708	-34.688813
535.234249	-35.039644
535.329824	-35.418834
535.425433	-35.684603
535.521077	-35.692480
535.616754	-35.434554
535.712466	-35.057042
535.808212	-34.607035
535.903992	-34.202883
535.999807	-33.932728
536.095655	-33.811556
536.191538	-33.816608
536.287456	-33.979254
536.383407	-34.360125
536.479393	-34.921369
536.575414	-35.585589
536.671468	-36.158764
536.767557	-36.340049
536.863681	-36.130896
536.959839	-35.622644
537.056031	-35.101232
537.152258	-34.768073
537.248519	-34.639641
537.344815	-34.760038
537.441146	-35.071289
537.537510	-35.325262
537.633910	-35.313566
537.730344	-35.041320
537.826813	-34.652959
537.923316	-34.303102
538.019854	-34.159140
538.116427	-34.205860
538.213034	-34.432368
538.309676	-34.743041
538.406352	-34.981825
538.503064	-35.052395
538.599810	-34.907962
538.696591	-34.648117
538.793407	-34.408548
538.890257	-34.261108
538.987142	-34.233126
539.084063	-34.295868
539.181018	-34.500534
539.278008	-34.770552
539.375032	-35.096500
539.472092	-35.392879
539.569187	-35.478618
539.666316	-35.272100
539.763481	-34.793452
539.860681	-34.210325
539.957915	-33.731695
540.055185	-33.444137
540.152490	-33.485823
540.249829	-33.822564
540.347204	-34.447239
540.444614	-35.119637
540.542059	-35.547407
540.639540	-35.504526
540.737055	-35.036341
540.834606	-34.527090
540.932191	-34.166233
541.029812	-34.044615
541.127469	-34.123662
541.225160	-34.231173
541.322887	-34.268646
541.420649	-34.128186
541.518446	-33.914790
541.616279	-33.721071
541.714147	-33.624452
541.812051	-33.656812
541.909990	-33.767170
542.007964	-33.934920
542.105974	-34.075037
542.204019	-34.167457
542.302099	-34.195618
542.400216	-34.158854
542.498367	-34.023656
542.596554	-33.809665
542.694777	-33.569906
542.793035	-33.382437
542.891329	-33.302059
542.989659	-33.409747
543.088024	-33.712738
543.186425	-34.068118
543.284861	-34.310150
543.383333	-34.236530
543.481841	-33.840027
543.580384	-33.351496
543.678964	-32.976006
543.777579	-32.883258
543.876230	-33.106159
543.974916	-33.612211
544.073639	-34.259407
544.172397	-34.844044
544.271191	-35.152281
544.370021	-35.103136
544.468887	-34.825601
544.567789	-34.482241
544.666727	-34.201019
544.765700	-33.990334
544.864710	-33.827876
544.963756	-33.708134
545.062837	-33.607160
545.161955	-33.532857
545.261109	-33.494758
545.360299	-33.488872
545.459525	-33.475706
545.558787	-33.464888
545.658085	-33.508518
545.757419	-33.627823
545.856790	-33.817212
545.956197	-34.002541
546.055640	-34.075954
546.155119	-33.927174
546.254634	-33.598529
546.354186	-33.271482
546.453774	-33.136610
546.553398	-33.258956
546.653059	-33.636337
546.752756	-34.147716
546.852489	-34.549112
546.952259	-34.566832
547.052065	-34.209675
547.151908	-33.732233
547.251787	-33.381849
547.351702	-33.291260
547.451654	-33.456347
547.551643	-33.806221
547.651668	-34.142451
547.751730	-34.328006
547.851828	-34.313008
547.951963	-34.093375
548.052134	-33.772620
548.152342	-33.432055
548.252587	-33.130016
548.352868	-32.899200
548.453186	-32.783423
548.553541	-32.801610
548.653932	-32.976206
548.754360	-33.268517
548.854825	-33.542865
548.955327	-33.709677
549.055866	-33.793248
549.156441	-33.820907
549.257053	-33.912306
549.357703	-34.048370
549.458389	-34.142638
549.559112	-34.067000
549.659872	-33.730947
549.760668	-33.272170
549.861502	-32.907294
549.962373	-32.784038
550.063281	-32.963773
550.164226	-33.355807
550.265208	-33.736219
550.366227	-33.908616
550.467283	-33.751873
550.568376	-33.370067
550.669506	-33.000211
550.770674	-32.766656
550.871879	-32.770940
550.973121	-32.920359
551.074400	-33.111479
551.175716	-33.291453
551.277070	-33.375355
551.378461	-33.354777
551.479889	-33.246832
551.581354	-33.036377
551.682857	-32.820670
551.784398	-32.668260
551.885975	-32.699450
551.987590	-32.964075
552.089243	-33.370466
552.190933	-33.761552
552.292660	-33.942491
552.394425	-33.820132
552.496227	-33.554720
552.598067	-33.336159
552.699945	-33.236334
552.801860	-33.186342
552.903812	-33.042719
553.005802	-32.761083
553.107830	-32.407677
553.209896	-32.164588
553.311999	-32.140304
553.414140	-32.361447
553.516318	-32.771622
553.618535	-33.171033
553.720789	-33.347791
553.823081	-33.195220
553.925410	-32.848981
554.027778	-32.522177
554.130183	-32.324084
554.232627	-32.271574
554.335108	-32.358663
554.437627	-32.552713
554.540184	-32.832120
554.642778	-33.092646
554.745411	-33.213673
554.848082	-33.076396
554.950791	-32.768432
555.053538	-32.454739
555.156323	-32.342898
555.259146	-32.471125
555.362007	-32.776215
555.464906	-33.011490
555.567844	-32.937169
555.670819	-32.565645
555.773833	-32.112462
555.876885	-31.829564
555.979975	-31.756132
556.083103	-31.850294
556.186270	-31.969870
556.289475	-32.010428
556.392718	-31.998132
556.495999	-32.042422
556.599319	-32.245396
556.702678	-32.626762
556.806074	-33.032935
556.909509	-33.248949
557.012983	-33.141839
557.116495	-32.814917
557.220045	-32.465515
557.323634	-32.224374
557.427262	-32.134592
557.530928	-32.198048
557.634632	-32.400479
557.738376	-32.706627
557.842157	-32.996168
557.945978	-33.091456
558.049837	-32.824475
558.153735	-32.311535
558.257671	-31.798075
558.361646	-31.510328
558.465660	-31.517337
558.569713	-31.747190
558.673804	-32.009095
558.777934	-32.089627
558.882104	-31.942070
558.986311	-31.704110
559.090558	-31.600735
559.194844	-31.699609
559.299168	-31.983358
559.403532	-32.236005
559.507934	-32.361848
559.612376	-32.362397
559.716856	-32.328130
559.821376	-32.358765
559.925934	-32.394936
560.030532	-32.333488
560.135169	-32.152037
560.239844	-31.905122
560.344559	-31.687953
560.449313	-31.583792
560.554106	-31.587848
560.658939	-31.701618
560.763810	-31.920459
560.868721	-32.212969
560.973671	-32.459551
561.078661	-32.499701
561.183690	-32.220510
561.288758	-31.754372
561.393865	-31.357844
561.499012	-31.213901
561.604198	-31.429189
561.709424	-31.934225
561.814689	-32.482318
561.919993	-32.769242
562.025337	-32.640447
562.130721	-32.310434
562.236144	-32.048828
562.341606	-31.964248
562.447108	-31.996788
562.552650	-32.025474
562.658231	-31.979367
562.763852	-31.880347
562.869513	-31.796021
562.975213	-31.762164
563.080953	-31.741166
563.186733	-31.709847
563.292552	-31.715175
563.398412	-31.778932
563.504311	-31.883735
563.610250	-31.986208
563.716228	-32.003828
563.822247	-31.953889
563.928306	-31.924683
564.034404	-31.915400
564.140542	-31.859215
564.246721	-31.657764
564.352939	-31.332186
564.459197	-31.095734
564.565495	-31.100518
564.671834	-31.413561
564.778212	-31.945661
564.884630	-32.338024
564.991089	-32.287107
565.097588	-31.814480
565.204127	-31.313880
565.310706	-31.073325
565.417325	-31.161391
565.523984	-31.458980
565.630684	-31.830138
565.737424	-32.124196
565.844204	-32.260752
565.951025	-32.294448
566.057886	-32.209515
566.164787	-32.038867
566.271729	-31.834782
566.378711	-31.695996
566.485734	-31.616157
566.592796	-31.535747
566.699900	-31.426027
566.807044	-31.278265
566.914228	-31.179932
567.021453	-31.193942
567.128719	-31.292591
567.236025	-31.372635
567.343372	-31.342748
567.450759	-31.246924
567.558187	-31.215185
567.665656	-31.371531
567.773166	-31.639101
567.880716	-31.782854
567.988307	-31.606845
568.095939	-31.216189
568.203611	-30.919971
568.311325	-30.928448
568.419079	-31.264487
568.526874	-31.775553
568.634710	-32.143168
568.742587	-32.145380
568.850505	-31.868809
568.958463	-31.509710
569.066463	-31.232855
569.174504	-31.117250
569.282586	-31.201716
569.390709	-31.487912
569.498873	-31.855797
569.607078	-32.117710
569.715324	-32.140009
569.823611	-31.986907
569.931940	-31.812585
570.040309	-31.716489
570.148720	-31.672746
570.257172	-31.547796
570.365666	-31.335642
570.474201	-31.139311
570.582777	-31.121328
570.691394	-31.296859
570.800053	-31.511320
570.908753	-31.569484
571.017494	-31.392967
571.126277	-31.226998
571.235102	-31.266867
571.343968	-31.542147
571.452875	-31.878677
571.561824	-32.009540
571.670814	-31.847943
571.779846	-31.542815
571.888920	-31.315780
571.998035	-31.276598
572.107192	-31.480659
572.216391	-31.808567
572.325631	-32.113236
572.434913	-32.195101
572.544237	-31.936044
572.653602	-31.467606
572.763010	-31.075070
572.872459	-30.934060
572.981950	-31.096527
573.091482	-31.418873
573.201057	-31.630171
573.310674	-31.658413
573.420332	-31.594492
573.530033	-31.603284
573.639775	-31.647048
573.749560	-31.541517
573.859386	-31.214923
573.969255	-30.840524
574.079165	-30.646372
574.189118	-30.705632
574.299113	-30.923020
574.409150	-31.095513
574.519229	-31.090282
574.629351	-30.950999
574.739514	-30.839276
574.849720	-30.862251
574.959968	-31.016963
575.070259	-31.227834
575.180591	-31.378906
575.290966	-31.356141
575.401384	-31.146394
575.511844	-30.900671
575.622346	-30.783509
575.732891	-30.928139
575.843478	-31.281932
575.954108	-31.568191
576.064780	-31.438482
576.175494	-30.962841
576.286252	-30.521732
576.397052	-30.366541
576.507894	-30.484825
576.618779	-30.664194
576.729707	-30.764257
576.840678	-30.785836
576.951691	-30.871133
577.062747	-31.020927
577.173845	-31.081548
577.284987	-30.903793
577.396171	-30.540025
577.507398	-30.218083
577.618668	-30.082876
577.729981	-30.165393
577.841337	-30.362700
577.952736	-30.525243
578.064177	-30.569639
578.175662	-30.467365
578.287190	-30.311513
578.398760	-30.199638
578.510374	-30.265404
578.622031	-30.504318
578.733731	-30.728437
578.845474	-30.664926
578.957260	-30.348080
579.069090	-30.064310
579.180963	-30.080380
579.292878	-30.395298
579.404838	-30.706489
579.516840	-30.666149
579.628886	-30.315293
579.740975	-29.963768
579.853107	-29.835183
579.965283	-29.891860
580.077502	-29.988457
580.189765	-30.077773
580.302071	-30.198366
580.414421	-30.411958
580.526814	-30.630156
580.639251	-30.710973
580.751731	-30.564047
580.864255	-30.280506
580.976822	-29.999897
581.089433	-29.863017
581.202088	-29.901833
581.314786	-30.111541
581.427528	-30.375317
581.540314	-30.488672
581.653144	-30.306107
581.766017	-30.015543
581.878935	-29.897379
581.991896	-30.097083
582.104901	-30.398152
582.217950	-30.437657
582.331042	-30.115648
582.444179	-29.765614
582.557360	-29.695920
582.670584	-29.895623
582.783853	-30.153449
582.897166	-30.155246
583.010523	-29.914818
583.123924	-29.635984
583.237369	-29.506391
583.350858	-29.514915
583.464391	-29.594687
583.577969	-29.724708
583.691590	-29.898251
583.805257	-30.099286
583.918967	-30.224830
584.032721	-30.222265
584.146520	-30.076431
584.260364	-29.802305
584.374251	-29.491632
584.488184	-29.306487
584.602160	-29.400666
584.716181	-29.742274
584.830247	-30.069051
584.944357	-30.030459
585.058511	-29.678647
585.172710	-29.398313
585.286954	-29.431033
585.401242	-29.694514
585.515575	-29.884612
585.629953	-29.777226
585.744375	-29.524163
585.858842	-29.395422
585.973354	-29.479475
586.087910	-29.659281
586.202512	-29.749641
586.317158	-29.671313
586.431849	-29.500191
586.546585	-29.347399
586.661366	-29.298979
586.776191	-29.409403
586.891062	-29.625525
587.005978	-29.814436
587.120938	-29.871883
587.235944	-29.846169
587.350995	-29.804861
587.466091	-29.693269
587.581232	-29.365837
587.696418	-28.957243
587.811649	-28.743513
587.926926	-28.921488
588.042248	-29.354121
588.157615	-29.610486
588.273027	-29.432893
588.388484	-29.042048
588.503987	-28.847289
588.619536	-28.957626
588.735129	-29.187138
588.850768	-29.290147
588.966453	-29.201185
589.082183	-29.041544
589.197958	-28.947258
589.313779	-28.950825
589.429646	-29.023041
589.545558	-29.058156
589.661515	-28.963334
589.777519	-28.794430
589.893568	-28.718399
590.009662	-28.856485
590.125802	-29.106312
590.241989	-29.224339
590.358220	-29.144448
590.474498	-29.057971
590.590821	-29.092746
590.707191	-29.090115
590.823606	-28.851843
590.940067	-28.501607
591.056574	-28.370395
591.173127	-28.641560
591.289725	-29.143316
591.406370	-29.460357
591.523061	-29.356704
591.639798	-29.060363
591.756581	-28.880521
591.873410	-28.920392
591.990286	-29.115938
592.107207	-29.295633
592.224175	-29.300832
592.341189	-29.123589
592.458249	-28.931412
592.575355	-28.899083
592.692508	-29.000039
592.809707	-28.994947
592.926952	-28.806431
593.044244	-28.646605
593.161582	-28.746319
593.278967	-29.031961
593.396398	-29.163480
593.513876	-28.985295
593.631400	-28.767808
593.748970	-28.778775
593.866588	-28.913243
593.984252	-28.842535
594.101962	-28.562775
594.219719	-28.402834
594.337523	-28.591206
594.455374	-29.039755
594.573271	-29.376913
594.691215	-29.341116
594.809206	-29.039319
594.927244	-28.742472
595.045328	-28.640727
595.163460	-28.796119
595.281638	-29.043328
595.399863	-29.105571
595.518136	-28.883639
595.636455	-28.659558
595.754821	-28.668602
595.873235	-28.810428
595.991695	-28.832242
596.110203	-28.703810
596.228757	-28.696292
596.347359	-28.971279
596.466008	-29.285513
596.584705	-29.243498
596.703448	-28.942667
596.822239	-28.774044
596.941077	-28.868871
597.059963	-28.973147
597.178895	-28.868738
597.297876	-28.694307
597.416903	-28.680845
597.535978	-28.899607
597.655101	-29.202551
597.774271	-29.350720
597.893488	-29.163120
598.012754	-28.757430
598.132066	-28.476190
598.251427	-28.556694
598.370835	-28.918530
598.490290	-29.132045
598.609794	-28.950258
598.729345	-28.687539
598.848944	-28.703207
598.968590	-28.910438
599.088285	-28.981204
599.208027	-28.845540
599.327818	-28.832350
599.447656	-29.071820
599.567542	-29.247236
599.687476	-29.037921
599.807458	-28.647112
599.927488	-28.437949
600.047566	-28.481840
600.167692	-28.594721
600.287866	-28.610369
600.408089	-28.544415
600.528359	-28.521484
600.648678	-28.637379
600.769045	-28.856855
600.889460	-28.956588
601.009924	-28.732398
601.130436	-28.342253
601.250996	-28.194299
601.371604	-28.459870
601.492261	-28.868443
601.612967	-28.928771
601.733720	-28.655450
601.854523	-28.491173
601.975373	-28.612539
602.096273	-28.771365
602.217221	-28.743182
602.338217	-28.666294
602.459262	-28.733883
602.580356	-28.845090
602.701499	-28.754396
602.822690	-28.480996
602.943930	-28.252204
603.065219	-28.238467
603.186556	-28.440732
603.307943	-28.704595
603.429378	-28.808619
603.550862	-28.701419
603.672395	-28.627301
603.793977	-28.745615
603.915608	-28.883644
604.037288	-28.683997
604.159017	-28.249171
604.280795	-28.046364
604.402623	-28.288025
604.524499	-28.666737
604.646424	-28.698800
604.768399	-28.442930
604.890423	-28.308809
605.012496	-28.419327
605.134619	-28.575558
605.256791	-28.631870
605.379012	-28.656898
605.501282	-28.723530
605.623602	-28.780953
605.745972	-28.751096
605.868390	-28.635197
605.990859	-28.541466
606.113376	-28.638404
606.235944	-28.971217
606.358561	-29.313684
606.481227	-29.278329
606.603944	-28.939453
606.726709	-28.750163
606.849525	-28.861781
606.972390	-28.908772
607.095305	-28.605454
607.218270	-28.282637
607.341285	-28.332764
607.464349	-28.689859
607.587464	-28.887942
607.710628	-28.739891
607.833842	-28.507437
607.957107	-28.455391
608.080421	-28.552193
608.203785	-28.665406
608.327200	-28.666883
608.450664	-28.556259
608.574179	-28.455913
608.697743	-28.429725
608.821358	-28.395842
608.945023	-28.296108
609.068739	-28.301915
609.192504	-28.604958
609.316320	-28.979865
609.440187	-28.929966
609.564103	-28.526439
609.688070	-28.324603
609.812088	-28.518774
609.936156	-28.734593
610.060274	-28.658815
610.184443	-28.505735
610.308663	-28.598706
610.432933	-28.891650
610.557254	-29.040345
610.681625	-28.897620
610.806047	-28.635750
610.930520	-28.485644
611.055044	-28.549151
611.179618	-28.671642
611.304243	-28.625421
611.428919	-28.421101
611.553646	-28.335243
611.678424	-28.441367
611.803252	-28.516917
611.928132	-28.489373
612.053062	-28.617213
612.178044	-28.982006
612.303077	-29.132635
612.428160	-28.778332
612.553295	-28.376314
612.678481	-28.373939
612.803718	-28.657551
612.929007	-28.817842
613.054346	-28.723037
613.179737	-28.614171
613.305180	-28.664207
613.430673	-28.783838
613.556218	-28.760755
613.681814	-28.540937
613.807462	-28.331323
613.933161	-28.368927
614.058912	-28.587942
614.184714	-28.652640
614.310568	-28.479140
614.436473	-28.390388
614.562430	-28.560473
614.688439	-28.688786
614.814499	-28.626465
614.940611	-28.617902
615.066775	-28.785734
615.192991	-28.791037
615.319258	-28.429363
615.445577	-28.087426
615.571949	-28.132660
615.698372	-28.481339
615.824847	-28.776630
615.951373	-28.772147
616.077952	-28.622125
616.204583	-28.587559
616.331266	-28.693789
616.458001	-28.733777
616.584789	-28.538329
616.711628	-28.355218
616.838520	-28.443380
616.965464	-28.614365
617.092460	-28.527022
617.219508	-28.291733
617.346609	-28.273696
617.473762	-28.430414
617.600967	-28.440807
617.728225	-28.302028
617.855536	-28.305449
617.982898	-28.399919
618.110314	-28.338554
618.237782	-28.150697
618.365302	-28.132164
618.492875	-28.427601
618.620501	-28.846997
618.748179	-28.995651
618.875911	-28.732704
619.003694	-28.404996
619.131531	-28.362138
619.259421	-28.485251
619.387363	-28.414946
619.515358	-28.187211
619.643406	-28.178314
619.771507	-28.383205
619.899661	-28.417318
620.027868	-28.231335
620.156129	-28.191817
620.284442	-28.335511
620.412808	-28.336450
620.541227	-28.153256
620.669700	-28.034115
620.798226	-28.050870
620.926805	-28.035328
621.055437	-27.942375
621.184123	-27.928972
621.312862	-28.136318
621.441654	-28.469393
621.570500	-28.581238
621.699399	-28.287093
621.828352	-27.981531
621.957358	-28.069290
622.086417	-28.410110
622.215531	-28.522198
622.344698	-28.403835
622.473918	-28.459156
622.603192	-28.651049
622.732520	-28.635200
622.861902	-28.435679
622.991337	-28.344817
623.120826	-28.345095
623.250369	-28.225019
623.379966	-28.022093
623.509617	-27.914690
623.639322	-27.967911
623.769081	-28.072696
623.898893	-28.118398
624.028760	-28.147268
624.158681	-28.304934
624.288656	-28.492862
624.418685	-28.331563
624.548769	-27.897930
624.678906	-27.746344
624.809098	-28.017663
624.939344	-28.252673
625.069644	-28.129523
625.199999	-27.970297
625.330408	-28.012078
625.460871	-28.056728
625.591389	-27.969767
625.721962	-27.896353
625.852589	-27.915304
625.983270	-27.916868
626.114006	-27.873834
626.244797	-27.840313
626.375642	-27.913161
626.506542	-28.095115
626.637497	-28.191154
626.768507	-28.085583
626.899571	-28.006850
627.030690	-28.080827
627.161864	-28.004193
627.293093	-27.702705
627.424377	-27.612353
627.555716	-27.958800
627.687109	-28.347828
627.818558	-28.326631
627.950062	-28.123999
628.081621	-28.058942
628.213235	-28.061104
628.344904	-27.976154
628.476629	-27.836164
628.608409	-27.702724
628.740244	-27.627183
628.872134	-27.570484
629.004080	-27.536786
629.136081	-27.611944
629.268137	-27.785379
629.400249	-27.816520
629.532416	-27.668930
629.664639	-27.637438
629.796918	-27.780299
629.929252	-27.788665
630.061641	-27.647112
630.194087	-27.746642
630.326588	-28.105003
630.459145	-28.286508
630.591757	-28.061502
630.724425	-27.773191
630.857150	-27.685166
630.989930	-27.753529
631.122766	-27.787891
631.255657	-27.697852
631.388605	-27.665892
631.521609	-27.745215
631.654669	-27.783817
631.787785	-27.775068
631.920957	-27.859181
632.054185	-27.884911
632.187470	-27.647210
632.320811	-27.402430
632.454207	-27.454056
632.587661	-27.595069
632.721170	-27.566915
632.854736	-27.587678
632.988359	-27.853431
633.122037	-28.094538
633.255773	-27.986203
633.389564	-27.695504
633.523413	-27.555667
633.657318	-27.690038
633.791279	-27.831506
633.925297	-27.736844
634.059372	-27.606705
634.193504	-27.615941
634.327692	-27.622195
634.461937	-27.567226
634.596239	-27.590816
634.730598	-27.627404
634.865014	-27.464120
634.999486	-27.306690
635.134016	-27.449625
635.268603	-27.733023
635.403246	-27.804529
635.537947	-27.732754
635.672705	-27.758923
635.807520	-27.804967
635.942392	-27.632811
636.077322	-27.324738
636.212309	-27.242659
636.347353	-27.494098
636.482454	-27.700456
636.617613	-27.612960
636.752829	-27.513380
636.888103	-27.551832
637.023434	-27.544115
637.158823	-27.460463
637.294269	-27.420707
637.429773	-27.331257
637.565335	-27.107725
637.700954	-27.039178
637.836631	-27.256418
637.972365	-27.479230
638.108158	-27.457012
638.244008	-27.328230
638.379916	-27.317022
638.515882	-27.351264
638.651906	-27.228358
638.787988	-27.056008
638.924127	-27.157563
639.060325	-27.380739
639.196581	-27.303008
639.332895	-27.032384
639.469268	-26.899594
639.605698	-26.884282
639.742187	-26.856505
639.878734	-26.882762
640.015339	-26.965339
640.152003	-26.986749
640.288725	-27.041263
640.425505	-27.317258
640.562344	-27.652850
640.699241	-27.666376
640.836197	-27.392612
640.973211	-27.209706
641.110284	-27.234939
641.247416	-27.223280
641.384606	-27.086640
641.521855	-27.130786
641.659163	-27.327106
641.796530	-27.281757
641.933955	-27.022938
642.071439	-26.869374
642.208982	-26.860304
642.346585	-26.839793
642.484246	-26.815589
642.621966	-26.806564
642.759745	-26.744846
642.897583	-26.725072
643.035481	-26.875521
643.173437	-27.090931
643.311453	-27.057644
643.449528	-26.796277
643.587662	-26.696692
643.725856	-26.904197
643.864109	-27.050250
644.002421	-26.915633
644.140793	-26.862530
644.279224	-26.908379
644.417715	-26.751920
644.556265	-26.518596
644.694875	-26.450534
644.833545	-26.546837
644.972274	-26.665549
645.111063	-26.755008
645.249912	-26.816482
645.388820	-26.815600
645.527788	-26.803872
645.666817	-26.849295
645.805905	-26.836338
645.945053	-26.550021
646.084260	-26.191411
646.223528	-26.189421
646.362856	-26.454469
646.502245	-26.494727
646.641693	-26.336605
646.781201	-26.314119
646.920770	-26.359975
647.060399	-26.303230
647.200088	-26.254376
647.339837	-26.325522
647.479647	-26.472896
647.619517	-26.544458
647.759448	-26.538436
647.899439	-26.543541
648.039491	-26.534989
648.179603	-26.550066
648.319776	-26.645476
648.460010	-26.567089
648.600304	-26.269541
648.740659	-26.171946
648.881074	-26.368175
649.021551	-26.365993
649.162088	-26.022097
649.302686	-25.743528
649.443345	-25.688135
649.584065	-25.705208
649.724846	-25.713581
649.865688	-25.805964
650.006592	-25.987809
650.147556	-26.086126
650.288581	-26.081479
650.429668	-26.089096
650.570816	-26.029484
650.712025	-25.917345
650.853295	-25.921486
650.994627	-25.871117
651.136020	-25.663475
651.277475	-25.646164
651.418991	-25.910013
651.560568	-26.019128
651.702208	-25.776450
651.843908	-25.575913
651.985671	-25.652052
652.127495	-25.780638
652.269380	-25.779054
652.411328	-25.798161
652.553337	-25.873515
652.695408	-25.844159
652.837541	-25.810342
652.979736	-25.867580
653.121993	-25.832147
653.264312	-25.763500
653.406693	-25.804075
653.549136	-25.715293
653.691641	-25.475410
653.834208	-25.418499
653.976838	-25.522579
654.119530	-25.407738
654.262284	-25.076490
654.405100	-24.990991
654.547979	-25.248115
654.690920	-25.446845
654.833923	-25.462806
654.976989	-25.496953
655.120118	-25.465763
655.263309	-25.341356
655.406563	-25.297593
655.549879	-25.255222
655.693258	-25.123122
655.836700	-25.098459
655.980205	-25.186064
656.123772	-25.141518
656.267402	-25.046137
656.411095	-25.115759
656.554851	-25.178622
656.698670	-24.929610
656.842553	-24.714706
656.986498	-24.882144
657.130506	-25.140512
657.274577	-25.166210
657.418712	-25.142860
657.562910	-25.184298
657.707171	-25.203834
657.851495	-25.300450
657.995883	-25.390597
658.140334	-25.312485
658.284849	-25.212945
658.429427	-25.250612
658.574068	-25.222840
658.718773	-25.038505
658.863542	-24.990396
659.008375	-25.105799
659.153271	-25.028583
659.298230	-24.881704
659.443254	-25.057193
659.588341	-25.294204
659.733493	-25.171913
659.878708	-24.932390
660.023987	-24.797177
660.169330	-24.737190
660.314737	-24.799958
660.460208	-24.859053
660.605744	-24.807661
660.751343	-24.741868
660.897007	-24.802925
661.042735	-24.794876
661.188527	-24.550747
661.334383	-24.385369
661.480304	-24.409745
661.626289	-24.314625
661.772339	-24.195456
661.918453	-24.384118
662.064632	-24.595306
662.210875	-24.511840
662.357183	-24.365786
662.503556	-24.347421
662.649993	-24.405231
662.796495	-24.479822
662.943062	-24.458179
663.089694	-24.349145
663.236390	-24.316593
663.383152	-24.476480
663.529978	-24.564711
663.676870	-24.437741
663.823826	-24.438008
663.970848	-24.573144
664.117934	-24.501280
664.265086	-24.399428
664.412303	-24.470218
664.559586	-24.411599
664.706934	-24.199346
664.854347	-24.094989
665.001825	-24.162169
665.149369	-24.297967
665.296978	-24.334460
665.444653	-24.204816
665.592394	-24.020006
665.740200	-23.997010
665.888072	-24.062332
666.036009	-23.937471
666.184013	-23.799152
666.332082	-23.942981
666.480216	-24.106343
666.628417	-24.091012
666.776684	-24.103317
666.925016	-24.113351
667.073415	-23.980699
667.221880	-23.846838
667.370411	-23.897937
667.519008	-24.041782
667.667671	-24.149588
667.816400	-24.144797
667.965196	-24.049815
668.114058	-24.035238
668.262986	-24.140048
668.411981	-24.057918
668.561042	-23.834302
668.710170	-23.845364
668.859364	-23.987606
669.008625	-24.008581
669.157952	-23.992859
669.307346	-24.073208
669.456807	-24.144463
669.606335	-24.160252
669.755929	-24.293848
669.905590	-24.436883
670.055319	-24.412350
670.205114	-24.323953
670.354976	-24.178378
670.504905	-24.107429
670.654901	-24.168484
670.804965	-24.026354
670.955095	-23.729607
671.105293	-23.631607
671.255558	-23.618323
671.405890	-23.488654
671.556290	-23.333440
671.706757	-23.335290
671.857291	-23.472727
672.007893	-23.609228
672.158563	-23.836099
672.309300	-24.016772
672.460105	-24.007497
672.610977	-23.963184
672.761917	-23.875068
672.912925	-23.859879
673.064001	-23.948165
673.215144	-23.854374
673.366356	-23.699235
673.517635	-23.729089
673.668982	-23.759349
673.820398	-23.598634
673.971881	-23.416871
674.123433	-23.407640
674.275053	-23.488362
674.426741	-23.568782
674.578497	-23.670113
674.730321	-23.645537
674.882214	-23.552075
675.034176	-23.466625
675.186205	-23.355244
675.338304	-23.327050
675.490470	-23.301125
675.642706	-23.174468
675.795010	-23.125026
675.947383	-23.253782
676.099824	-23.316810
676.252334	-23.179379
676.404913	-23.144965
676.557561	-23.207494
676.710278	-23.202358
676.863064	-23.179574
677.015918	-23.063548
677.168842	-22.973235
677.321835	-22.979205
677.474897	-22.992549
677.628029	-23.036868
677.781229	-23.079548
677.934499	-23.057201
678.087838	-22.995056
678.241246	-23.060921
678.394724	-23.211282
678.548272	-23.182563
678.701889	-23.168206
678.855575	-23.330042
679.009331	-23.417260
679.163157	-23.392638
679.317053	-23.287476
679.471018	-23.182861
679.625053	-23.247951
679.779158	-23.367396
679.933333	-23.470324
680.087578	-23.586601
680.241892	-23.604085
680.396277	-23.491529
680.550732	-23.407163
680.705257	-23.368544
680.859852	-23.201590
681.014518	-23.063738
681.169254	-23.124377
681.324060	-23.174547
681.478936	-23.122405
681.633883	-23.003097
681.788900	-22.939137
681.943988	-23.030821
682.099147	-23.175939
682.254376	-23.260290
682.409676	-23.355176
682.565046	-23.454854
682.720487	-23.412282
682.876000	-23.368284
683.031582	-23.349819
683.187236	-23.192779
683.342961	-23.124577
683.498757	-23.202301
683.654624	-23.276421
683.810562	-23.259956
683.966571	-23.164785
684.122651	-23.155153
684.278803	-23.226065
684.435026	-23.226096
684.591320	-23.107218
684.747685	-23.025652
684.904122	-23.027365
685.060631	-22.960725
685.217211	-22.963889
685.373863	-22.997071
685.530586	-22.943224
685.687381	-22.996284
685.844248	-23.096056
686.001187	-23.119076
686.158197	-23.058712
686.315279	-22.996129
686.472433	-23.034623
686.629660	-23.041406
686.786958	-22.893822
686.944328	-22.664233
687.101771	-22.605816
687.259285	-22.600054
687.416872	-22.592785
687.574531	-22.702477
687.732263	-22.769728
687.890067	-22.813880
688.047943	-22.858481
688.205892	-22.843366
688.363913	-22.743407
688.522007	-22.635636
688.680174	-22.683771
688.838413	-22.791190
688.996725	-22.829103
689.155110	-22.672898
689.313568	-22.600605
689.472098	-22.654737
689.630701	-22.604519
689.789378	-22.618858
689.948127	-22.667016
690.106950	-22.665101
690.265846	-22.626076
690.424814	-22.520317
690.583857	-22.397231
690.742972	-22.301794
690.902161	-22.384689
691.061423	-22.585975
691.220758	-22.811039
691.380167	-22.839396
691.539650	-22.866307
691.699206	-23.013225
691.858836	-23.006501
692.018540	-22.942625
692.178317	-22.922983
692.338168	-22.923098
692.498093	-22.847226
692.658092	-22.731311
692.818164	-22.596107
692.978311	-22.506751
693.138532	-22.540376
693.298827	-22.605316
693.459196	-22.695794
693.619639	-22.586049
693.780157	-22.498709
693.940749	-22.554283
694.101415	-22.517174
694.262156	-22.442839
694.422971	-22.474013
694.583860	-22.600583
694.744825	-22.658581
694.905863	-22.690195
695.066977	-22.655095
695.228165	-22.680807
695.389428	-22.677135
695.550766	-22.633164
695.712179	-22.601968
695.873666	-22.412755
696.035229	-22.345822
696.196867	-22.418814
696.358579	-22.432480
696.520367	-22.411161
696.682230	-22.528349
696.844169	-22.670404
697.006182	-22.728151
697.168271	-22.719697
697.330436	-22.650687
697.492676	-22.668217
697.654991	-22.556740
697.817382	-22.434384
697.979849	-22.341568
698.142391	-22.200003
698.305009	-22.211986
698.467702	-22.308322
698.630472	-22.252852
698.793317	-22.156079
698.956239	-22.179549
699.119236	-22.131595
699.282309	-22.105948
699.445459	-22.051126
699.608685	-22.101318
699.771986	-22.251102
699.935364	-22.254689
700.098819	-22.320720
700.262350	-22.370134
700.425957	-22.418529
700.589640	-22.540656
700.753401	-22.606357
700.917237	-22.422483
701.081151	-22.331849
701.245141	-22.265689
701.409207	-22.201925
701.573351	-22.195903
701.737571	-22.221788
701.901869	-22.426676
702.066243	-22.462248
702.230694	-22.399388
702.395223	-22.353696
702.559828	-22.295374
702.724511	-22.259462
702.889270	-22.318111
703.054107	-22.170011
703.219022	-22.079513
703.384014	-22.069404
703.549083	-22.053606
703.714230	-22.101500
703.879454	-22.073898
704.044756	-22.204467
704.210135	-22.217513
704.375593	-22.039285
704.541128	-21.946803
704.706741	-21.952752
704.872431	-21.965144
705.038200	-22.160424
705.204047	-22.187148
705.369971	-22.155734
705.535974	-22.168449
705.702055	-22.087062
705.868214	-22.058149
706.034452	-21.933781
706.200768	-21.923145
706.367162	-21.900299
706.533634	-21.695655
706.700185	-21.566029
706.866815	-21.633892
707.033523	-21.636044
707.200310	-21.748077
707.367175	-21.706140
707.534120	-21.575316
707.701143	-21.500850
707.868245	-21.421971
708.035426	-21.437214
708.202686	-21.468977
708.370025	-21.626334
708.537443	-21.809479
708.704940	-21.791916
708.872516	-21.797223
709.040172	-21.958279
709.207907	-22.018334
709.375721	-22.121583
709.543615	-22.051272
709.711588	-21.998625
709.879641	-21.965356
710.047774	-21.967008
710.215986	-22.029776
710.384278	-22.033330
710.552649	-22.059387
710.721101	-22.047303
710.889632	-21.780726
711.058243	-21.696161
711.226935	-21.770220
711.395706	-21.802374
711.564558	-21.907775
711.733489	-21.879084
711.902501	-21.894495
712.071593	-21.908006
712.240766	-21.895822
712.410019	-21.912747
712.579352	-21.864522
712.748766	-21.832594
712.918260	-21.814714
713.087836	-21.659970
713.257491	-21.814527
713.427228	-22.015894
713.597045	-22.142950
713.766943	-22.158836
713.936922	-22.067226
714.106983	-21.986044
714.277124	-21.914540
714.447346	-21.873526
714.617649	-21.873563
714.788034	-21.780271
714.958500	-21.741476
715.129047	-21.560837
715.299675	-21.428852
715.470386	-21.494855
715.641177	-21.468011
715.812050	-21.396190
715.983005	-21.315363
716.154041	-21.303423
716.325159	-21.428562
716.496359	-21.526378
716.667641	-21.701157
716.839005	-21.716629
717.010450	-21.625120
717.181978	-21.528085
717.353588	-21.307893
717.525279	-21.356236
717.697054	-21.442417
717.868910	-21.407751
718.040849	-21.394006
718.212870	-21.385205
718.384973	-21.474742
718.557159	-21.532744
718.729428	-21.563313
718.901779	-21.580803
719.074213	-21.470518
719.246729	-21.469896
719.419329	-21.409862
719.592011	-21.478512
719.764776	-21.628106
719.937624	-21.539511
720.110556	-21.406739
720.283570	-21.301168
720.456667	-21.329345
720.629848	-21.422523
720.803112	-21.482717
720.976459	-21.634830
721.149890	-21.625587
721.323404	-21.681554
721.497002	-21.648924
721.670683	-21.588203
721.844448	-21.612841
722.018296	-21.416163
722.192229	-21.252556
722.366245	-21.195573
722.540345	-21.250996
722.714529	-21.352439
722.888797	-21.311867
723.063149	-21.337010
723.237585	-21.249739
723.412105	-21.240927
723.586710	-21.277604
723.761399	-21.306869
723.936172	-21.472028
724.111030	-21.440489
724.285972	-21.415751
724.460999	-21.405025
724.636110	-21.429734
724.811306	-21.397485
724.986587	-21.297036
725.161952	-21.332023
725.337403	-21.327199
725.512938	-21.388113
725.688558	-21.437836
725.864264	-21.369520
726.040054	-21.406602
726.215930	-21.210946
726.391891	-21.115038
726.567937	-21.050451
726.744068	-21.067295
726.920285	-21.060570
727.096588	-21.057882
727.272976	-21.155584
727.449449	-21.119631
727.626008	-21.090446
727.802653	-21.027589
727.979384	-21.034142
728.156200	-21.169849
728.333103	-21.185635
728.510091	-21.239761
728.687166	-21.231518
728.864326	-21.248638
729.041573	-21.183984
729.218906	-21.154930
729.396325	-21.168824
729.573831	-21.004316
729.751423	-21.001161
729.929102	-20.919495
730.106867	-20.996237
730.284718	-20.909759
730.462657	-20.702243
730.640682	-20.539379
730.818794	-20.459278
730.996992	-20.543254
731.175278	-20.571304
731.353651	-20.714769
731.532110	-20.670854
731.710657	-20.604268
731.889291	-20.622383
732.068012	-20.640182
732.246821	-20.706886
732.425717	-20.586480
732.604700	-20.539254
732.783771	-20.577494
732.962929	-20.688710
733.142175	-20.706169
733.321509	-20.601829
733.500930	-20.579483
733.680440	-20.454076
733.860037	-20.568214
734.039722	-20.635154
734.219495	-20.666121
734.399356	-20.528915
734.579306	-20.332876
734.759343	-20.306090
734.939469	-20.270153
735.119683	-20.339968
735.299986	-20.260989
735.480377	-20.417423
735.660856	-20.467367
735.841425	-20.551651
736.022081	-20.601417
736.202827	-20.519463
736.383661	-20.479214
736.564585	-20.328413
736.745597	-20.396219
736.926698	-20.319604
737.107888	-20.331296
737.289167	-20.156523
737.470536	-20.143399
737.651993	-20.123564
737.833541	-20.039988
738.015177	-20.135512
738.196903	-20.140068
738.378718	-20.231948
738.560623	-20.087453
738.742618	-20.034667
738.924702	-19.887911
739.106876	-19.906536
739.289140	-19.894791
739.471494	-19.940662
739.653938	-20.047686
739.836472	-19.956997
740.019096	-20.081508
740.201810	-20.066582
740.384615	-20.094726
740.567510	-19.924015
740.750495	-19.920614
740.933570	-19.906589
741.116737	-19.987247
741.299993	-19.947847
741.483341	-19.810910
741.666779	-19.825831
741.850308	-19.721876
742.033927	-19.933718
742.217638	-19.991360
742.401440	-20.064086
742.585332	-19.913413
742.769316	-19.946465
742.953391	-19.904855
743.137557	-19.911914
743.321815	-19.870654
743.506164	-19.824399
743.690604	-19.938377
743.875136	-19.811111
744.059760	-19.860490
744.244475	-19.710076
744.429282	-19.676144
744.614181	-19.556875
744.799172	-19.651764
744.984254	-19.601927
745.169429	-19.648343
745.354696	-19.560622
745.540054	-19.513406
745.725505	-19.478379
745.911049	-19.374084
746.096684	-19.490547
746.282412	-19.511027
746.468233	-19.508774
746.654146	-19.335807
746.840152	-19.352083
747.026250	-19.254058
747.212442	-19.405189
747.398726	-19.332516
747.585103	-19.382262
747.771573	-19.301584
747.958136	-19.295644
748.144792	-19.290364
748.331541	-19.251027
748.518384	-19.175373
748.705320	-19.228273
748.892349	-19.421207
749.079472	-19.457978
749.266688	-19.537702
749.453998	-19.390562
749.641401	-19.458099
749.828899	-19.401905
750.016490	-19.494349
750.204175	-19.462538
750.391954	-19.413902
750.579827	-19.230521
750.767794	-19.272102
750.955855	-19.201752
751.144011	-19.325765
751.332260	-19.389855
751.520605	-19.433729
751.709043	-19.398878
751.897576	-19.323897
752.086204	-19.339127
752.274927	-19.360676
752.463744	-19.355893
752.652656	-19.352113
752.841663	-19.495753
753.030764	-19.447048
753.219961	-19.478342
753.409253	-19.303848
753.598640	-19.275406
753.788123	-19.197121
753.977700	-19.188194
754.167373	-19.000834
754.357142	-18.836492
754.547006	-18.592027
754.736965	-18.684523
754.927020	-18.663557
755.117171	-18.770624
755.307418	-18.768441
755.497761	-18.767589
755.688200	-18.709689
755.878734	-18.713020
756.069365	-18.733287
756.260092	-18.846623
756.450915	-18.803118
756.641835	-18.854862
756.832851	-18.841786
757.023963	-18.809364
757.215172	-18.859404
757.406478	-18.826925
757.597880	-18.813534
757.789379	-18.816784
757.980975	-18.757500
758.172668	-18.669693
758.364457	-18.571759
758.556344	-18.613465
758.748328	-18.803125
758.940409	-18.811396
759.132588	-18.834870
759.324864	-18.741750
759.517237	-18.752704
759.709707	-18.800228
759.902276	-18.880494
760.094942	-18.912330
760.287705	-18.874582
760.480567	-18.721959
760.673526	-18.733249
760.866583	-18.646952
761.059738	-18.740089
761.252992	-18.713990
761.446343	-18.628325
761.639793	-18.573110
761.833341	-18.582102
762.026988	-18.551051
762.220733	-18.552952
762.414576	-18.460590
762.608518	-18.520377
762.802559	-18.357209
762.996699	-18.260619
763.190937	-18.203553
763.385274	-18.229140
763.579711	-18.311159
763.774246	-18.325477
763.968881	-18.222441
764.163615	-18.165016
764.358448	-18.080677
764.553380	-18.154600
764.748412	-18.156379
764.943544	-18.203631
765.138775	-18.193804
765.334105	-18.110065
765.529536	-18.185473
765.725066	-18.264613
765.920696	-18.252254
766.116427	-18.106141
766.312257	-17.954298
766.508187	-17.896028
766.704218	-17.872759
766.900349	-17.883958
767.096580	-17.976312
767.292912	-17.959857
767.489344	-18.038764
767.685877	-17.944045
767.882511	-18.009649
768.079245	-17.986252
768.276080	-18.031272
768.473016	-17.996425
768.670053	-17.976834
768.867191	-17.937491
769.064430	-17.976461
769.261771	-17.898417
769.459213	-18.015900
769.656756	-17.821868
769.854401	-17.715250
770.052147	-17.563513
770.249994	-17.661114
770.447944	-17.735576
770.645995	-17.759878
770.844148	-17.739133
771.042403	-17.725798
771.240760	-17.746470
771.439219	-17.831266
771.637780	-17.813038
771.836444	-17.757569
772.035210	-17.610067
772.234078	-17.535281
772.433049	-17.590621
772.632122	-17.562663
772.831298	-17.597747
773.030576	-17.409143
773.229958	-17.497672
773.429442	-17.439772
773.629029	-17.510416
773.828720	-17.517208
774.028513	-17.577413
774.228410	-17.525238
774.428409	-17.506346
774.628513	-17.518213
774.828719	-17.577373
775.029029	-17.543418
775.229443	-17.550485
775.429961	-17.454673
775.630582	-17.387688
775.831307	-17.386466
776.032136	-17.388631
776.233069	-17.493994
776.434106	-17.370811
776.635247	-17.446879
776.836492	-17.438169
777.037842	-17.664618
777.239296	-17.627746
777.440855	-17.555921
777.642518	-17.435634
777.844286	-17.364998
778.046158	-17.398229
778.248136	-17.393078
778.450218	-17.372077
778.652405	-17.222881
778.854698	-17.224874
779.057095	-17.229824
779.259598	-17.223312
779.462206	-17.086013
779.664919	-17.068277
779.867738	-17.016782
780.070662	-17.138176
780.273692	-17.139379
780.476828	-17.178152
780.680070	-17.048598
780.883417	-16.974904
781.086870	-16.964822
781.290430	-16.909865
781.494095	-16.992300
781.697867	-16.902635
781.901745	-17.042583
782.105729	-16.957953
782.309820	-17.041986
782.514018	-17.002003
782.718322	-16.996425
782.922732	-16.943979
783.127250	-16.848859
783.331874	-17.005716
783.536606	-16.967803
783.741444	-17.092431
783.946390	-17.000251
784.151442	-17.036533
784.356602	-17.057429
784.561870	-17.175844
784.767245	-17.279669
784.972727	-17.139100
785.178317	-17.191938
785.384015	-17.140625
785.589821	-17.242446
785.795734	-17.124941
786.001756	-17.013012
786.207885	-16.906459
786.414123	-16.853548
786.620469	-16.917080
786.826923	-16.789930
787.033486	-16.790755
787.240157	-16.728355
787.446936	-16.891685
787.653825	-16.956338
787.860822	-16.895792
788.067928	-16.801583
788.275142	-16.673686
788.482466	-16.705482
788.689899	-16.601945
788.897441	-16.637798
789.105092	-16.507672
789.312853	-16.532159
789.520723	-16.564028
789.728703	-16.506828
789.936792	-16.500463
790.144991	-16.453196
790.353300	-16.597030
790.561718	-16.616165
790.770247	-16.772377
790.978885	-16.707151
791.187634	-16.663714
791.396493	-16.652332
791.605462	-16.590614
791.814541	-16.662430
792.023731	-16.608030
792.233032	-16.696397
792.442443	-16.634528
792.651965	-16.726975
792.861598	-16.682551
793.071342	-16.642330
793.281196	-16.615480
793.491162	-16.547644
793.701239	-16.614396
793.911427	-16.536139
794.121727	-16.504229
794.332138	-16.396846
794.542661	-16.409100
794.753295	-16.438966
794.964041	-16.462076
795.174898	-16.386170
795.385868	-16.353035
795.596949	-16.389372
795.808143	-16.413745
796.019449	-16.335874
796.230867	-16.271735
796.442397	-16.211296
796.654040	-16.205653
796.865795	-16.284490
797.077663	-16.144224
797.289644	-16.221689
797.501737	-16.260906
797.713943	-16.389885
797.926262	-16.334210
798.138695	-16.256821
798.351240	-16.197333
798.563899	-16.207468
798.776671	-16.333838
798.989556	-16.217430
799.202555	-16.232481
799.415667	-16.240172
799.628893	-16.248723
799.842233	-16.177254
800.055687	-16.127816
800.269255	-16.086736
800.482937	-16.200700
800.696733	-16.174790
800.910643	-16.111440
801.124667	-15.962403
801.338806	-15.957209
801.553060	-15.982133
801.767428	-15.945380
801.981910	-15.991487
802.196508	-15.966672
802.411220	-16.105851
802.626047	-16.056218
802.840990	-16.047721
803.056047	-15.991056
803.271220	-16.020875
803.486508	-16.003783
803.701912	-15.960535
803.917431	-15.821586
804.133066	-15.852406
804.348816	-15.813857
804.564682	-15.874886
804.780664	-15.852072
804.996763	-15.859425
805.212977	-15.996260
805.429307	-15.986302
805.645754	-15.986573
805.862317	-15.912496
806.078996	-15.833969
806.295792	-15.759473
806.512705	-15.712614
806.729734	-15.602511
806.946881	-15.673742
807.164144	-15.689594
807.381524	-15.748601
807.599021	-15.636265
807.816636	-15.656493
808.034368	-15.611697
808.252217	-15.655628
808.470184	-15.655476
808.688268	-15.622760
808.906470	-15.595993
809.124790	-15.638829
809.343227	-15.542038
809.561783	-15.617665
809.780457	-15.619312
809.999249	-15.643749
810.218159	-15.669683
810.437187	-15.516934
810.656334	-15.470832
810.875600	-15.489392
811.094984	-15.449631
811.314487	-15.533216
811.534108	-15.570638
811.753849	-15.560466
811.973709	-15.699133
812.193688	-15.598433
812.413786	-15.592094
812.634003	-15.589713
812.854340	-15.535309
813.074796	-15.505905
813.295372	-15.516441
813.516068	-15.433448
813.736883	-15.562043
813.957818	-15.476544
814.178874	-15.493170
814.400049	-15.511069
814.621345	-15.515116
814.842761	-15.460393
815.064297	-15.434925
815.285954	-15.250672
815.507731	-15.308479
815.729630	-15.229418
815.951648	-15.293420
816.173788	-15.374488
816.396049	-15.434722
816.618431	-15.379819
816.840934	-15.401142
817.063558	-15.278579
817.286304	-15.388532
817.509171	-15.348509
817.732160	-15.355646
817.955270	-15.346103
818.178503	-15.392694
818.401857	-15.373625
818.625333	-15.494144
818.848931	-15.483411
819.072651	-15.579148
819.296494	-15.462746
819.520459	-15.376085
819.744547	-15.266843
819.968757	-15.256456
820.193089	-15.160646
820.417545	-15.192883
820.642123	-15.172294
820.866825	-15.244581
821.091649	-15.204777
821.316597	-15.211653
821.541668	-15.170781
821.766862	-15.220309
821.992180	-15.152311
822.217622	-15.178628
822.443187	-15.187659
822.668876	-15.196878
822.894689	-15.125882
823.120625	-15.217263
823.346686	-15.269198
823.572872	-15.334259
823.799181	-15.318520
824.025615	-15.302190
824.252173	-15.294698
824.478856	-15.333432
824.705664	-15.307414
824.932596	-15.407021
825.159654	-15.381477
825.386836	-15.240800
825.614144	-15.168934
825.841577	-15.137339
826.069135	-15.119509
826.296819	-15.099209
826.524628	-15.073076
826.752562	-15.112910
826.980623	-15.115121
827.208809	-15.083015
827.437122	-15.140692
827.665560	-15.143869
827.894125	-15.138996
828.122816	-15.007739
828.351633	-15.059921
828.580577	-15.073235
828.809647	-15.069441
829.038844	-15.130028
829.268168	-15.267349
829.497619	-15.228188
829.727196	-15.228232
829.956901	-15.090212
830.186733	-15.155096
830.416693	-15.094213
830.646780	-15.123851
830.876994	-15.126317
831.107336	-15.141558
831.337806	-15.115920
831.568403	-15.074985
831.799129	-15.128460
832.029982	-15.161497
832.260964	-15.007739
832.492074	-14.945058
832.723313	-14.995276
832.954680	-14.975528
833.186175	-15.077912
833.417800	-15.105246
833.649553	-15.177623
833.881435	-15.052140
834.113446	-15.034661
834.345586	-15.021670
834.577856	-14.981162
834.810255	-14.923466
835.042783	-14.922000
835.275441	-14.857586
835.508228	-14.882708
835.741146	-14.824540
835.974193	-14.903542
836.207370	-14.920824
836.440677	-14.898893
836.674115	-14.940939
836.907683	-14.884424
837.141381	-15.001681
837.375210	-14.935101
837.609170	-15.014099
837.843260	-14.895751
838.077481	-14.821840
838.311834	-14.805734
838.546317	-14.864034
838.780931	-14.918714
839.015677	-14.908414
839.250555	-14.964725
839.485563	-14.883630
839.720704	-14.887448
839.955976	-14.822222
840.191380	-14.868995
840.426916	-14.691395
840.662584	-14.739536
840.898385	-14.800289
841.134318	-14.851829
841.370383	-14.913690
841.606580	-14.945654
841.842911	-15.016440
842.079374	-14.821949
842.315970	-14.893036
842.552699	-14.881303
842.789561	-14.892391
843.026556	-14.841207
843.263685	-14.864499
843.500947	-14.785509
843.738342	-14.677574
843.975872	-14.680146
844.213535	-14.670263
844.451332	-14.551085
844.689263	-14.507919
844.927328	-14.588553
845.165527	-14.580742
845.403860	-14.643445
845.642329	-14.577868
845.880931	-14.614180
846.119668	-14.505323
846.358541	-14.637073
846.597548	-14.694621
846.836690	-14.747430
847.075967	-14.809183
847.315379	-14.814805
847.554927	-14.881189
847.794611	-14.848073
848.034429	-14.918684
848.274384	-14.860603
848.514475	-14.817412
848.754701	-14.806756
848.995063	-14.710817
849.235562	-14.687223
849.476197	-14.651410
849.716968	-14.593351
849.957876	-14.531319
850.198921	-14.566132
850.440102	-14.740875
850.681420	-14.623378
850.922875	-14.671093
851.164467	-14.591301
851.406197	-14.564343
851.648064	-14.542089
851.890068	-14.644184
852.132210	-14.680597
852.374489	-14.632023
852.616907	-14.771239
852.859462	-14.703385
853.102155	-14.657930
853.344987	-14.602424
853.587957	-14.540578
853.831065	-14.514497
854.074311	-14.570487
854.317697	-14.661445
854.561221	-14.644160
854.804884	-14.689798
855.048686	-14.659126
855.292627	-14.609502
855.536707	-14.739789
855.780927	-14.736724
856.025286	-14.732982
856.269784	-14.687676
856.514423	-14.765157
856.759201	-14.705594
857.004119	-14.674571
857.249177	-14.689787
857.494376	-14.609709
857.739714	-14.690773
857.985194	-14.707098
858.230813	-14.689874
858.476574	-14.596819
858.722475	-14.576649
858.968517	-14.568208
859.214700	-14.476525
859.461024	-14.584638
859.707490	-14.491493
859.954097	-14.464366
860.200845	-14.450642
860.447735	-14.456756
860.694767	-14.516732
860.941941	-14.514228
861.189257	-14.514650
861.436714	-14.479763
861.684315	-14.587214
861.932057	-14.500458
862.179942	-14.418928
862.427970	-14.540998
862.676140	-14.547521
862.924453	-14.662154
863.172909	-14.730057
863.421509	-14.645215
863.670251	-14.550276
863.919137	-14.560125
864.168167	-14.478742
864.417340	-14.450518
864.666657	-14.497302
864.916117	-14.455599
865.165722	-14.467984
865.415470	-14.466044
865.665363	-14.402466
865.915401	-14.332065
866.165582	-14.420449
866.415909	-14.328198
866.666380	-14.477486
866.916996	-14.444936
867.167757	-14.348197
867.418663	-14.428573
867.669714	-14.448963
867.920911	-14.416149
868.172253	-14.442553
868.423741	-14.410443
868.675374	-14.319829
868.927154	-14.298450
869.179079	-14.244934
869.431151	-14.167430
869.683369	-14.204157
869.935733	-14.184687
870.188243	-14.218613
870.440901	-14.261369
870.693705	-14.237661
870.946656	-14.278669
871.199753	-14.402553
871.452999	-14.382798
871.706391	-14.405453
871.959931	-14.386679
872.213618	-14.293775
872.467453	-14.385803
872.721436	-14.368677
872.975566	-14.326278
873.229845	-14.328618
873.484272	-14.278780
873.738847	-14.146507
873.993570	-14.089600
874.248443	-14.043628
874.503464	-14.073604
874.758633	-14.205950
875.013952	-14.238214
875.269420	-14.295054
875.525036	-14.284002
875.780803	-14.292980
876.036719	-14.337464
876.292784	-14.374777
876.548999	-14.263502
876.805364	-14.335217
877.061879	-14.304690
877.318544	-14.235822
877.575359	-14.276621
877.832325	-14.260485
878.089442	-14.293366
878.346708	-14.367467
878.604126	-14.293832
878.861695	-14.281729
879.119415	-14.321982
879.377286	-14.321649
879.635308	-14.479214
879.893482	-14.441622
880.151807	-14.477550
880.410284	-14.561785
880.668913	-14.541310
880.927694	-14.559886
881.186627	-14.570248
881.445712	-14.474227
881.704950	-14.522502
881.964340	-14.436520
882.223883	-14.381510
882.483579	-14.483997
882.743427	-14.483032
883.003429	-14.528843
883.263584	-14.424688
883.523892	-14.399745
883.784354	-14.461799
884.044969	-14.499625
884.305738	-14.607829
884.566661	-14.708699
884.827738	-14.698502
885.088969	-14.823038
885.350355	-14.767951
885.611895	-14.819062
885.873589	-14.845748
886.135438	-14.915599
886.397442	-14.873135
886.659601	-14.768559
886.921915	-14.780058
887.184385	-14.822421
887.447009	-14.800847
887.709790	-14.784098
887.972726	-14.822534
888.235817	-14.738729
888.499065	-14.802500
888.762469	-14.863672
889.026029	-14.867696
889.289745	-14.990252
889.553618	-15.039348
889.817647	-14.968922
890.081834	-15.054504
890.346177	-14.926342
890.610677	-15.084934
890.875335	-14.915686
891.140149	-14.882368
891.405122	-14.995233
891.670252	-14.903873
891.935539	-15.095239
892.200985	-15.036507
892.466588	-15.048714
892.732350	-15.131215
892.998270	-15.033638
893.264349	-15.237312
893.530586	-15.090747
893.796982	-15.292489
894.063537	-15.180540
894.330251	-14.970736
894.597124	-15.107839
894.864156	-14.885192
895.131348	-15.017187
895.398699	-14.834463
895.666211	-14.916502
895.933882	-14.940573
896.201713	-14.971943
896.469704	-15.139618
896.737856	-15.059533
897.006168	-15.219044
897.274640	-15.115672
897.543274	-15.084279
897.812068	-15.132504
898.081024	-15.147633
898.350140	-15.197910
898.619418	-15.032738
898.888857	-15.137649
899.158459	-15.003487
899.428221	-15.091993
899.698146	-14.929041
899.968233	-15.033625
900.238482	-14.989656
900.508893	-15.053469
900.779467	-15.078910
901.050203	-15.028693
901.321103	-15.140059
901.592165	-14.953665
901.863390	-15.057669
902.134779	-15.023222
902.406331	-15.154459
902.678046	-15.159921
902.949925	-15.004155
903.221968	-15.232357
903.494175	-15.009183
903.766546	-15.286260
904.039081	-14.977212
904.311781	-15.220233
904.584645	-15.071860
904.857674	-15.117036
905.130868	-15.218407
905.404227	-15.125976
905.677751	-15.306743
905.951440	-14.951518
906.225295	-15.191606
906.499316	-15.048177
906.773502	-15.183810
907.047854	-15.110778
907.322372	-15.075164
907.597057	-15.172939
907.871907	-15.002647
908.146925	-15.241762
908.422109	-14.988462
908.697459	-15.332927
908.972977	-15.140831
909.248662	-15.404242
909.524514	-15.330417
909.800534	-15.498517
910.076721	-15.310488
910.353076	-15.293410
910.629599	-15.384864
910.906289	-15.252890
911.183148	-15.239305
911.460176	-15.157134
911.737372	-15.263550
912.014736	-15.139328
912.292270	-15.325909
912.569972	-15.248681
912.847843	-15.404354
913.125884	-15.386516
913.404094	-15.545190
913.682474	-15.510065
913.961023	-15.585700
914.239742	-15.318550
914.518632	-15.305855
914.797691	-15.346603
915.076921	-15.276103
915.356322	-15.327180
915.635893	-15.378536
915.915635	-15.535984
916.195548	-15.413293
916.475632	-15.712228
916.755887	-15.479026
917.036314	-15.667298
917.316912	-15.430644
917.597683	-15.594123
917.878625	-15.387376
918.159739	-15.457499
918.441025	-15.213190
918.722484	-15.312075
919.004116	-15.336640
919.285920	-15.291727
919.567897	-15.434891
919.850047	-15.429274
920.132370	-15.572914
920.414867	-15.411012
920.697537	-15.581818
920.980381	-15.307717
921.263398	-15.488664
921.546590	-15.274052
921.829956	-15.542568
922.113496	-15.300282
922.397210	-15.455617
922.681100	-15.273754
922.965164	-15.575486
923.249403	-15.361060
923.533817	-15.519179
923.818406	-15.398035
924.103171	-15.516574
924.388111	-15.285879
924.673228	-15.409481
924.958520	-15.215643
925.243988	-15.235104
925.529633	-15.233993
925.815453	-15.418606
926.101451	-15.256321
926.387625	-15.368659
926.673976	-15.308412
926.960505	-15.392756
927.247210	-15.320608
927.534093	-15.446188
927.821154	-15.393578
928.108392	-15.549028
928.395808	-15.389772
928.683402	-15.516623
928.971175	-15.288391
929.259126	-15.291232
929.547255	-15.259548
929.835563	-15.364589
930.124050	-15.057178
930.412716	-15.252176
930.701562	-15.179750
930.990586	-15.240675
931.279791	-15.150511
931.569175	-15.391965
931.858739	-15.256723
932.148483	-15.492318
932.438407	-15.334526
932.728512	-15.417659
933.018797	-15.181479
933.309263	-15.408402
933.599910	-15.244025
933.890738	-15.444934
934.181747	-15.201154
934.472938	-15.468404
934.764310	-15.298911
935.055864	-15.376876
935.347600	-15.204575
935.639518	-15.395932
935.931618	-15.150910
936.223901	-15.332007
936.516366	-15.204658
936.809014	-15.215809
937.101845	-15.261493
937.394859	-15.489273
937.688057	-15.432712
937.981438	-15.583148
938.275003	-15.607413
938.568751	-15.636032
938.862683	-15.480586
939.156800	-15.446483
939.451101	-15.362039
939.745586	-15.391062
940.040256	-15.300183
940.335111	-15.370135
940.630151	-15.298600
940.925376	-15.391248
941.220787	-15.479168
941.516383	-15.470714
941.812165	-15.375258
942.108133	-15.555513
942.404286	-15.442497
942.700626	-15.348134
942.997153	-15.408251
943.293866	-15.456942
943.590766	-15.380473
943.887853	-15.569394
944.185127	-15.385461
944.482588	-15.418171
944.780237	-15.390962
945.078073	-15.462253
945.376097	-15.250752
945.674309	-15.395869
945.972710	-15.309289
946.271299	-15.246465
946.570076	-15.225336
946.869042	-15.322318
947.168197	-15.318860
947.467541	-15.302885
947.767075	-15.417607
948.066798	-15.294539
948.366710	-15.365321
948.666812	-15.365035
948.967105	-15.260085
949.267587	-15.270244
949.568260	-15.369874
949.869123	-15.164302
950.170177	-15.137997
950.471422	-15.215078
950.772858	-15.201800
951.074486	-15.233716
951.376304	-15.260466
951.678315	-15.169938
951.980517	-15.262692
952.282911	-15.161339
952.585497	-15.090059
952.888276	-15.157637
953.191247	-15.142324
953.494411	-15.115587
953.797768	-15.057085
954.101318	-15.059859
954.405061	-15.148733
954.708997	-15.194783
955.013128	-15.098858
955.317452	-15.265402
955.621970	-15.086270
955.926682	-14.988575
956.231589	-15.034063
956.536690	-14.927736
956.841986	-15.010636
957.147477	-15.079022
957.453163	-14.939173
957.759045	-15.147352
958.065122	-15.235491
958.371394	-14.950380
958.677863	-15.219584
958.984527	-15.106921
959.291388	-15.002147
959.598445	-15.164835
959.905699	-15.003369
960.213150	-15.064811
960.520798	-15.224947
960.828643	-14.996941
961.136685	-15.079028
961.444925	-15.286633
961.753363	-14.968501
962.061998	-15.176724
962.370832	-15.187570
962.679864	-15.063078
962.989095	-15.290927
963.298524	-15.087897
963.608153	-15.192622
963.917980	-15.348346
964.228007	-15.186491
964.538233	-15.253983
964.848659	-15.297802
965.159285	-15.108817
965.470110	-15.125450
965.781136	-15.139002
966.092363	-15.104993
966.403790	-15.247604
966.715418	-15.140920
967.027247	-15.288258
967.339278	-15.392292
967.651510	-15.255925
967.963943	-15.379018
968.276578	-15.270213
968.589415	-15.251737
968.902455	-15.214455
969.215697	-15.172505
969.529141	-15.326418
969.842788	-15.199720
970.156639	-15.172991
970.470692	-15.265261
970.784949	-15.224533
971.099409	-15.284342
971.414074	-15.298932
971.728942	-15.271709
972.044014	-15.329106
972.359291	-15.227127
972.674772	-15.290107
972.990459	-15.444727
973.306350	-15.214071
973.622446	-15.272884
973.938748	-15.214187
974.255255	-15.025499
974.571968	-15.216735
974.888887	-15.082709
975.206012	-15.240345
975.523344	-15.295172
975.840882	-15.088666
976.158627	-15.428459
976.476579	-15.185347
976.794738	-15.139973
977.113105	-15.305536
977.431679	-14.972089
977.750461	-15.181792
978.069451	-15.041734
978.388649	-15.024974
978.708056	-15.211739
979.027671	-14.828507
979.347495	-15.119586
979.667528	-15.109329
979.987770	-14.952276
980.308222	-15.261347
980.628883	-14.968080
980.949755	-15.035867
981.270836	-15.041198
981.592127	-14.939879
981.913629	-15.257694
982.235342	-14.974024
982.557265	-15.040837
982.879400	-15.100841
983.201746	-14.818341
983.524303	-15.056679
983.847073	-14.999983
984.170054	-15.038845
984.493247	-15.139243
984.816652	-15.097124
985.140270	-15.262556
985.464101	-15.082541
985.788145	-15.116159
986.112402	-15.124585
986.436872	-14.993610
986.761556	-15.131570
987.086454	-15.125865
987.411566	-15.254176
987.736892	-15.141150
988.062432	-15.195822
988.388187	-15.262493
988.714157	-14.983589
989.040342	-15.246232
989.366743	-15.127216
989.693359	-15.190618
990.020190	-15.443365
990.347238	-15.263554
990.674501	-15.515785
991.001981	-15.168205
991.329678	-15.186311
991.657591	-15.363360
991.985722	-15.020278
992.314069	-15.520921
992.642634	-15.320426
992.971417	-15.250964
993.300418	-15.530448
993.629636	-15.216854
993.959073	-15.504831
994.288729	-15.397819
994.618603	-15.430885
994.948696	-15.585544
995.279009	-15.345168
995.609540	-15.614259
995.940292	-15.458421
996.271263	-15.336624
996.602454	-15.461834
996.933866	-15.333824
997.265498	-15.432776
997.597350	-15.600390
997.929424	-15.603459
998.261719	-15.675933
998.594235	-15.699646
998.926973	-15.571733
999.259932	-15.565772
999.593114	-15.372721
999.926518	-15.446535
1000.260144	-15.447199
1000.593993	-15.367783
1000.928065	-15.717001
1001.262360	-15.407163
1001.596879	-15.620520
1001.931621	-15.674268
1002.266587	-15.361929
1002.601777	-15.616939
1002.937191	-15.298997
1003.272830	-15.414149
1003.608693	-15.434980
1003.944782	-15.519589
1004.281095	-15.658041
1004.617634	-15.307125
1004.954399	-15.454282
1005.291389	-15.245263
1005.628606	-15.368926
1005.966049	-15.561289
1006.303718	-15.462331
1006.641614	-15.499166
1006.979737	-15.563348
1007.318088	-15.548975
1007.656666	-15.393195
1007.995471	-15.515185
1008.334505	-15.306166
1008.673766	-15.433692
1009.013256	-15.536152
1009.352975	-15.435681
1009.692922	-15.483300
1010.033098	-15.422310
1010.373504	-15.676719
1010.714139	-15.628827
1011.055004	-15.737264
1011.396099	-15.738654
1011.737425	-15.523644
1012.078980	-15.627595
1012.420767	-15.373343
1012.762784	-15.351307
1013.105032	-15.590890
1013.447512	-15.649093
1013.790224	-16.007766
1014.133167	-15.947847
1014.476343	-15.783482
1014.819750	-15.782289
1015.163391	-15.555574
1015.507264	-15.664211
1015.851370	-15.524048
1016.195710	-15.608934
1016.540283	-15.693427
1016.885089	-15.895882
1017.230130	-16.220320
1017.575405	-16.065036
1017.920914	-16.175188
1018.266659	-16.031566
1018.612638	-15.882113
1018.958852	-15.880894
1019.305302	-15.764181
1019.651987	-15.690009
1019.998908	-15.869254
1020.346066	-16.028175
1020.693460	-16.374929
1021.041090	-16.457010
1021.388958	-16.487921
1021.737062	-16.552409
1022.085404	-16.312912
1022.433983	-16.211627
1022.782801	-15.909617
1023.131856	-15.918595
1023.481150	-15.887986
1023.830682	-16.231061
1024.180453	-16.575530
1024.530463	-16.681226
1024.880713	-17.058866
1025.231202	-16.844076
1025.581931	-16.697039
1025.932899	-16.389924
1026.284109	-16.026851
1026.635558	-16.120957
1026.987249	-16.051595
1027.339180	-16.040251
1027.691353	-16.279729
1028.043768	-16.673926
1028.396424	-16.990966
1028.749322	-17.156144
1029.102462	-16.954654
1029.455845	-16.733727
1029.809471	-16.512774
1030.163340	-16.084423
1030.517452	-15.877875
1030.871808	-15.773936
1031.226407	-16.041680
1031.581250	-16.467086
1031.936338	-16.944539
1032.291670	-17.103115
1032.647247	-17.363787
1033.003070	-17.174625
1033.359137	-16.910944
1033.715450	-16.550435
1034.072009	-16.064244
1034.428813	-16.004912
1034.785865	-15.988764
1035.143162	-16.236729
1035.500707	-16.582140
1035.858498	-16.892956
1036.216537	-17.333196
1036.574824	-17.605857
1036.933358	-17.474276
1037.292141	-17.259994
1037.651171	-16.671580
1038.010451	-16.342258
1038.369979	-16.136335
1038.729757	-16.133968
1039.089784	-16.273222
1039.450060	-16.567565
1039.810587	-17.092090
1040.171363	-17.466994
1040.532390	-17.600424
1040.893668	-17.518712
1041.255197	-17.678033
1041.616977	-17.246692
1041.979008	-16.971308
1042.341292	-16.641088
1042.703827	-16.619882
1043.066614	-16.563873
1043.429654	-16.559218
1043.792947	-17.030357
1044.156493	-17.735637
1044.520292	-18.037983
1044.884345	-18.126505
1045.248652	-17.975495
1045.613213	-18.081518
1045.978028	-17.794136
1046.343098	-17.456921
1046.708423	-17.306396
1047.074002	-17.211273
1047.439838	-17.196204
1047.805929	-17.229062
1048.172276	-17.547913
1048.538880	-18.172640
1048.905740	-18.559864
1049.272856	-18.665336
1049.640230	-18.608311
1050.007861	-18.410013
1050.375750	-18.399832
1050.743897	-18.175383
1051.112302	-18.121291
1051.480965	-17.763735
1051.849887	-17.635090
1052.219068	-17.755099
1052.588508	-18.077332
1052.958207	-18.338977
1053.328167	-18.631498
1053.698386	-18.939757
1054.068866	-19.176998
1054.439607	-18.903449
1054.810608	-18.841347
1055.181871	-18.726975
1055.553395	-18.368160
1055.925180	-17.893346
1056.297228	-17.878844
1056.669538	-18.358681
1057.042110	-18.573047
1057.414946	-18.396883
1057.788044	-18.668172
1058.161406	-19.031447
1058.535031	-19.359239
1058.908921	-19.025075
1059.283074	-19.138968
1059.657492	-18.982329
1060.032175	-18.616161
1060.407123	-18.581175
1060.782336	-18.816452
1061.157815	-18.937438
1061.533560	-18.341597
1061.909571	-18.273505
1062.285849	-18.598215
1062.662393	-18.824822
1063.039204	-18.901228
1063.416283	-19.068853
1063.793629	-19.387864
1064.171243	-19.050974
1064.549125	-18.882851
1064.927276	-19.068969
1065.305696	-19.107321
1065.684384	-18.829755
1066.063342	-18.615654
1066.442569	-18.891728
1066.822067	-18.889501
1067.201834	-18.857796
1067.581872	-19.007045
1067.962181	-19.197890
1068.342761	-19.136247
1068.723612	-18.993586
1069.104735	-19.193255
1069.486130	-19.324178
1069.867797	-19.314179
1070.249736	-19.527863
1070.631948	-19.530142
1071.014434	-19.476250
1071.397193	-19.209136
1071.780225	-19.493457
1072.163531	-19.413599
1072.547112	-19.365656
1072.930967	-19.386328
1073.315097	-19.592337
1073.699503	-19.513096
1074.084183	-19.263666
1074.469140	-19.800696
1074.854372	-20.040932
1075.239881	-19.866823
1075.625666	-19.408977
1076.011729	-19.861367
1076.398068	-19.998176
1076.784685	-19.937100
1077.171580	-19.996591
1077.558753	-20.083076
1077.946205	-19.674369
1078.333935	-19.314840
1078.721944	-20.019902
1079.110233	-20.246688
1079.498801	-19.717853
1079.887649	-19.229510
1080.276778	-19.859223
1080.666187	-20.222246
1081.055876	-20.175688
1081.445847	-20.054296
1081.836100	-20.007293
1082.226634	-19.941997
1082.617450	-20.074067
1083.008549	-20.422624
1083.399930	-20.043950
1083.791594	-19.803356
1084.183542	-19.799829
1084.575773	-20.005859
1084.968288	-19.523683
1085.361087	-19.369417
1085.754170	-19.608786
1086.147539	-20.025462
1086.541193	-20.054320
1086.935132	-19.672025
1087.329357	-19.454440
1087.723868	-19.544811
1088.118665	-20.007846
1088.513749	-19.717332
1088.909120	-19.285078
1089.304778	-19.207863
1089.700724	-19.666363
1090.096958	-19.508141
1090.493481	-18.974149
1090.890291	-18.814668
1091.287391	-18.993643
1091.684780	-19.079468
1092.082458	-19.019520
1092.480426	-19.056959
1092.878685	-18.885450
1093.277234	-18.779232
1093.676073	-18.917719
1094.075204	-18.866179
1094.474626	-18.682602
1094.874340	-18.784838
1095.274346	-18.933753
1095.674644	-18.553887
1096.075236	-18.240842
1096.476120	-18.792156
1096.877297	-18.921414
1097.278768	-18.376627
1097.680533	-17.923438
1098.082593	-18.472468
1098.484947	-18.826582
1098.887596	-18.497265
1099.290540	-18.108947
1099.693780	-18.151254
1100.097316	-18.421236
1100.501148	-18.503555
1100.905277	-18.187254
1101.309703	-17.948527
1101.714426	-18.047252
1102.119446	-18.491306
1102.524765	-18.260589
1102.930381	-17.967829
1103.336296	-17.884585
1103.742510	-18.013700
1104.149024	-18.081324
1104.555837	-18.049652
1104.962949	-18.001822
1105.370362	-17.953193
1105.778076	-17.906099
1106.186090	-17.951421
1106.594406	-17.908542
1107.003023	-17.961675
1107.411942	-17.732451
1107.821163	-17.889510
1108.230687	-18.195261
1108.640514	-17.965437
1109.050643	-17.599467
1109.461077	-17.715205
1109.871814	-17.878592
1110.282856	-17.863017
1110.694202	-17.714094
1111.105853	-17.811192
1111.517809	-17.568478
1111.930071	-17.522352
1112.342639	-17.590894
1112.755513	-17.568478
1113.168694	-17.488106
1113.582182	-17.493235
1113.995977	-17.397194
1114.410079	-17.374856
1114.824490	-17.271532
1115.239209	-17.254484
1115.654236	-17.046746
1116.069573	-17.004570
1116.485219	-17.179404
1116.901174	-17.071003
1117.317440	-16.740559
1117.734016	-16.641761
1118.150903	-16.739623
1118.568101	-16.808197
1118.985610	-16.656020
1119.403431	-16.527874
1119.821565	-16.581581
1120.240010	-16.490034
1120.658769	-16.497157
1121.077841	-16.408217
1121.497226	-16.345067
1121.916926	-16.419774
1122.336939	-16.348840
1122.757267	-16.261406
1123.177910	-16.162236
1123.598869	-16.096318
1124.020143	-16.179477
1124.441733	-16.099066
1124.863639	-15.928628
1125.285862	-16.100832
1125.708402	-15.970875
1126.131260	-15.831109
1126.554436	-15.898814
1126.977929	-15.870625
1127.401741	-15.821541
1127.825872	-15.826322
1128.250323	-15.727593
1128.675093	-15.765574
1129.100182	-15.713425
1129.525593	-15.593665
1129.951323	-15.617386
1130.377375	-15.636807
1130.803749	-15.704359
1131.230444	-15.655000
1131.657461	-15.505103
1132.084801	-15.617934
1132.512463	-15.650399
1132.940449	-15.564957
1133.368758	-15.686141
1133.797392	-15.743363
1134.226349	-15.545188
1134.655632	-15.587304
1135.085239	-15.544808
1135.515172	-15.424658
1135.945431	-15.546782
1136.376016	-15.601951
1136.806927	-15.410523
1137.238166	-15.302982
1137.669732	-15.289818
1138.101625	-15.270520
1138.533846	-15.266732
1138.966396	-15.233100
1139.399275	-15.278529
1139.832483	-15.209713
1140.266020	-15.068212
1140.699887	-15.055626
1141.134085	-15.110041
1141.568613	-15.149908
1142.003472	-15.032906
1142.438663	-14.982866
1142.874186	-15.089099
1143.310040	-14.945978
1143.746227	-14.902349
1144.182748	-14.940502
1144.619601	-14.939610
1145.056789	-14.840873
1145.494310	-14.780411
1145.932166	-14.849473
1146.370356	-14.844356
1146.808882	-14.739224
1147.247744	-14.780948
1147.686942	-14.718539
1148.126476	-14.639551
1148.566346	-14.618940
1149.006554	-14.621633
1149.447100	-14.573058
1149.887983	-14.575129
1150.329205	-14.598556
1150.770766	-14.503943
1151.212665	-14.439052
1151.654904	-14.476972
1152.097484	-14.398961
1152.540403	-14.339913
1152.983663	-14.471910
1153.427264	-14.419747
1153.871207	-14.313914
1154.315491	-14.354654
1154.760118	-14.352281
1155.205087	-14.315143
1155.650400	-14.317158
1156.096056	-14.235424
1156.542056	-14.250349
1156.988400	-14.164408
1157.435088	-14.131499
1157.882122	-14.188448
1158.329501	-14.226181
1158.777226	-14.082865
1159.225298	-14.009344
1159.673715	-14.033330
1160.122480	-13.977106
1160.571593	-14.005357
1161.021053	-13.933558
1161.470862	-13.890418
1161.921019	-13.917178
1162.371525	-13.822955
1162.822381	-13.870076
1163.273587	-13.953923
1163.725143	-13.890845
1164.177049	-13.821764
1164.629307	-13.827532
1165.081916	-13.904430
1165.534878	-13.874448
1165.988191	-13.914408
1166.441858	-13.952345
1166.895877	-13.994985
1167.350250	-13.990225
1167.804977	-14.092269
1168.260059	-14.232042
1168.715495	-14.197759
1169.171286	-14.228935
1169.627434	-14.322932
1170.083937	-14.361835
1170.540797	-14.327041
1170.998013	-14.365195
1171.455587	-14.464174
1171.913519	-14.390736
1172.371809	-14.264640
1172.830457	-14.452843
1173.289464	-14.348623
1173.748831	-14.198618
1174.208558	-14.235102
1174.668645	-14.237044
1175.129093	-14.050831
1175.589901	-13.946050
1176.051072	-13.972559
1176.512604	-13.888179
1176.974499	-13.806174
1177.436756	-13.652032
1177.899377	-13.689432
1178.362361	-13.561895
1178.825710	-13.515472
1179.289423	-13.478861
1179.753501	-13.415866
1180.217944	-13.338219
1180.682753	-13.222325
1181.147929	-13.223645
1181.613471	-13.216535
1182.079380	-13.193974
1182.545657	-13.034581
1183.012302	-13.062766
1183.479315	-13.115488
1183.946697	-13.153868
1184.414449	-13.192147
1184.882570	-13.177479
1185.351061	-13.275408
1185.819923	-13.433093
1186.289156	-13.517916
1186.758761	-13.617063
1187.228737	-13.852338
1187.699086	-13.910924
1188.169808	-13.983507
1188.640903	-14.239370
1189.112372	-14.440789
1189.584215	-14.467133
1190.056432	-14.526375
1190.529025	-14.685214
1191.001993	-14.677332
1191.475337	-14.842994
1191.949057	-14.708716
1192.423154	-14.697105
1192.897629	-14.614115
1193.372481	-14.599713
1193.847711	-14.554381
1194.323320	-14.328801
1194.799309	-14.256547
1195.275676	-14.199016
1195.752424	-14.088179
1196.229552	-13.975448
1196.707061	-13.895929
1197.184952	-13.842921
1197.663224	-13.800969
1198.141879	-13.635663
1198.620916	-13.607477
1199.100337	-13.552303
1199.580141	-13.566831
1200.060329	-13.483696
1200.540902	-13.281970
1201.021860	-13.293109
1201.503204	-13.303652
1201.984933	-13.277993
1202.467049	-13.168015
1202.949552	-13.186933
1203.432443	-13.124276
1203.915721	-13.268408
1204.399387	-13.434341
1204.883442	-13.332087
1205.367887	-13.448192
1205.852721	-13.621163
1206.337945	-13.830188
1206.823560	-13.999632
1207.309566	-13.953285
1207.795964	-14.165915
1208.282754	-14.275819
1208.769936	-14.509850
1209.257511	-14.610492
1209.745480	-14.593529
1210.233843	-14.567059
1210.722600	-14.770366
1211.211752	-14.883083
1211.701300	-14.880023
1212.191244	-14.849966
1212.681583	-14.781329
1213.172320	-14.842310
1213.663454	-14.869718
1214.154986	-14.762911
1214.646916	-14.676430
1215.139245	-14.582051
1215.631974	-14.522092
1216.125102	-14.404391
1216.618630	-14.415175
1217.112559	-14.188760
1217.606889	-14.074271
1218.101621	-14.041558
1218.596755	-13.932088
1219.092292	-13.838164
1219.588232	-13.826838
1220.084575	-13.669651
1220.581323	-13.596773
1221.078476	-13.504886
1221.576033	-13.577462
1222.073996	-13.518688
1222.572366	-13.583502
1223.071142	-13.702928
1223.570325	-13.687309
1224.069916	-13.763235
1224.569915	-13.864274
1225.070323	-13.911245
1225.571139	-14.066560
1226.072366	-14.156146
1226.574002	-14.112095
1227.076049	-14.334230
1227.578508	-14.451670
1228.081378	-14.664083
1228.584660	-14.854667
1229.088355	-14.731962
1229.592463	-14.894120
1230.096984	-14.938690
1230.601920	-15.000747
1231.107271	-14.946187
1231.613037	-15.006512
1232.119218	-15.130327
1232.625816	-15.050236
1233.132831	-15.166013
1233.640262	-14.981722
1234.148112	-15.029940
1234.656380	-15.121355
1235.165067	-14.975960
1235.674173	-14.797990
1236.183699	-14.712540
1236.693645	-14.599624
1237.204012	-14.489307
1237.714801	-14.410209
1238.226011	-14.347907
1238.737644	-14.350158
1239.249700	-14.400552
1239.762180	-14.303922
1240.275083	-14.296539
1240.788411	-14.310835
1241.302165	-14.244635
1241.816343	-14.380561
1242.330948	-14.306151
1242.845980	-14.381876
1243.361439	-14.494117
1243.877325	-14.457828
1244.393640	-14.595998
1244.910384	-14.657675
1245.427557	-14.756562
1245.945160	-14.800045
1246.463193	-15.067549
1246.981657	-15.172666
1247.500553	-15.163254
1248.019881	-15.455745
1248.539641	-15.427534
1249.059835	-15.597897
1249.580462	-15.668528
1250.101523	-15.533487
1250.623019	-15.828768
1251.144950	-15.738114
1251.667318	-15.815591
1252.190121	-15.720273
1252.713361	-15.804356
1253.237039	-15.888134
1253.761155	-15.759023
1254.285710	-15.721858
1254.810703	-15.811872
1255.336136	-15.809648
1255.862010	-15.763982
1256.388324	-15.690418
1256.915080	-15.761586
1257.442277	-15.676959
1257.969917	-15.774203
1258.498000	-15.508608
1259.026526	-15.633907
1259.555497	-15.662441
1260.084912	-15.538168
1260.614773	-15.547662
1261.145079	-15.619225
1261.675831	-15.628256
1262.207031	-15.652198
1262.738678	-15.704412
1263.270773	-15.707056
1263.803317	-15.808557
1264.336310	-15.862259
1264.869752	-15.780361
1265.403645	-16.001278
1265.937989	-15.860642
1266.472784	-16.066868
1267.008032	-15.996210
1267.543732	-16.075208
1268.079885	-16.212111
1268.616492	-16.092062
1269.153553	-16.401585
1269.691069	-16.275920
1270.229041	-16.345443
1270.767468	-16.593340
1271.306353	-16.454953
1271.845694	-16.572704
1272.385494	-16.617169
1272.925752	-16.705399
1273.466469	-16.693048
1274.007645	-16.814781
1274.549282	-16.717442
1275.091379	-17.081137
1275.633937	-16.919738
1276.176958	-16.982019
1276.720441	-17.138961
1277.264387	-17.178014
1277.808797	-17.282987
1278.353671	-17.116917
1278.899010	-17.503190
1279.444815	-17.385495
1279.991085	-17.471821
1280.537822	-17.506160
1281.085027	-17.577622
1281.632699	-17.616109
1282.180840	-17.574506
1282.729450	-17.548267
1283.278530	-17.747438
1283.828080	-17.695595
1284.378100	-17.510036
1284.928592	-17.875106
1285.479557	-17.627739
1286.030994	-17.728329
1286.582904	-17.681474
1287.135288	-17.627628
1287.688147	-17.773663
1288.241481	-17.621127
1288.795291	-17.715612
1289.349577	-17.679237
1289.904340	-17.659595
1290.459580	-17.716954
1291.015299	-17.662487
1291.571497	-17.572155
1292.128174	-17.834116
1292.685331	-17.813740
1293.242969	-17.807071
1293.801088	-17.823836
1294.359689	-18.136388
1294.918773	-18.015420
1295.478340	-17.934970
1296.038390	-18.275878
1296.598925	-18.304433
1297.159946	-18.332822
1297.721451	-18.324017
1298.283444	-18.595367
1298.845923	-18.657212
1299.408890	-18.494227
1299.972345	-18.635281
1300.536288	-19.244083
1301.100722	-18.830700
1301.665645	-18.929850
1302.231060	-19.249961
1302.796965	-19.338938
1303.363363	-19.125194
1303.930254	-19.280255
1304.497637	-19.606097
1305.065515	-19.457860
1305.633888	-19.482141
1306.202755	-19.260973
1306.772119	-19.600475
1307.341979	-19.634576
1307.912337	-19.492105
1308.483192	-19.347693
1309.054546	-19.634607
1309.626399	-19.764785
1310.198752	-19.117930
1310.771606	-19.355665
1311.344960	-19.981956
1311.918816	-19.292042
1312.493175	-19.206470
1313.068037	-19.573926
1313.643403	-19.617798
1314.219273	-19.111870
1314.795649	-19.338467
1315.372530	-19.645117
1315.949917	-19.099218
1316.527812	-19.171147
1317.106214	-19.210179
1317.685125	-19.270407
1318.264545	-19.125503
1318.844475	-19.149878
1319.424916	-18.977008
1320.005867	-19.315438
1320.587330	-19.215698
1321.169306	-19.090052
1321.751795	-19.124856
1322.334798	-19.718861
1322.918315	-19.292448
1323.502348	-19.124463
1324.086896	-19.754778
1324.671961	-20.323690
1325.257543	-19.175392
1325.843644	-19.927223
1326.430262	-20.591856
1327.017401	-20.161740
1327.605059	-19.863538
1328.193238	-20.773437
1328.781938	-20.628931
1329.371161	-20.253313
1329.960906	-20.443211
1330.551174	-20.948714
1331.141967	-20.390035
1331.733285	-20.430534
1332.325128	-20.482911
1332.917498	-20.586674
1333.510395	-20.244091
1334.103819	-20.387413
1334.697772	-20.009761
1335.292253	-20.159406
1335.887265	-20.109463
1336.482807	-19.972937
1337.078881	-19.483339
1337.675486	-19.928886
1338.272624	-19.828082
1338.870295	-19.391203
1339.468500	-19.422951
1340.067241	-19.693874
1340.666516	-19.338162
1341.266328	-19.273567
1341.866677	-19.371351
1342.467564	-19.579136
1343.068988	-18.911184
1343.670953	-19.525984
1344.273456	-19.292427
1344.876501	-19.276535
1345.480087	-19.263485
1346.084214	-19.304532
1346.688885	-19.465472
1347.294099	-19.085661
1347.899857	-19.450050
1348.506160	-19.458269
1349.113009	-19.089757
1349.720405	-19.488520
1350.328347	-19.252272
1350.936837	-19.424428
1351.545877	-19.108105
1352.155465	-19.477774
1352.765603	-19.291182
1353.376293	-19.039145
1353.987534	-19.466848
1354.599327	-18.939266
1355.211674	-19.393968
1355.824574	-18.960322
1356.438030	-19.084203
1357.052040	-19.063172
1357.666607	-18.829672
1358.281730	-18.944915
1358.897411	-18.863981
1359.513651	-18.628006
1360.130449	-18.810577
1360.747808	-18.434049
1361.365727	-18.787127
1361.984208	-18.257426
1362.603251	-18.422682
1363.222857	-18.422799
1363.843027	-18.136292
1364.463761	-18.440038
1365.085060	-17.817440
1365.706926	-18.368374
1366.329358	-17.846668
1366.952358	-17.935557
1367.575927	-18.078004
1368.200064	-17.658012
1368.824772	-17.941701
1369.450050	-17.668663
1370.075900	-17.783725
1370.702322	-17.715253
1371.329317	-17.522853
1371.956886	-17.652956
1372.585030	-17.591546
1373.213749	-17.484387
1373.843045	-17.636685
1374.472917	-17.289655
1375.103367	-17.640327
1375.734396	-17.143782
1376.366005	-17.491074
1376.998193	-17.306947
1377.630963	-17.138991
1378.264314	-17.380354
1378.898248	-16.971063
1379.532765	-17.307864
1380.167867	-17.070742
1380.803554	-17.073756
1381.439826	-17.039412
1382.076685	-17.010908
1382.714132	-16.831826
1383.352167	-17.105414
1383.990791	-16.676049
1384.630005	-17.079150
1385.269810	-16.683840
1385.910206	-16.735896
1386.551194	-16.795021
1387.192776	-16.648099
1387.834952	-16.712825
1388.477723	-16.631607
1389.121089	-16.608128
1389.765052	-16.566570
1390.409612	-16.427165
1391.054770	-16.531639
1391.700527	-16.498653
1392.346885	-16.382266
1392.993842	-16.544454
1393.641402	-16.371226
1394.289563	-16.323098
1394.938328	-16.267370
1395.587697	-16.385266
1396.237671	-16.095403
1396.888250	-16.394639
1397.539436	-16.051489
1398.191229	-16.264271
1398.843631	-15.935668
1399.496642	-16.048382
1400.150262	-16.019229
1400.804494	-15.921314
1401.459337	-16.000880
1402.114793	-16.052607
1402.770862	-15.826160
1403.427545	-15.894427
1404.084844	-15.757011
1404.742758	-15.758643
1405.401290	-15.671684
1406.060439	-15.769439
1406.720206	-15.651292
1407.380594	-15.840028
1408.041601	-15.473510
1408.703230	-15.739295
1409.365480	-15.441641
1410.028354	-15.561370
1410.691851	-15.464190
1411.355974	-15.553417
1412.020722	-15.405096
1412.686096	-15.512602
1413.352098	-15.208155
1414.018728	-15.374701
1414.685987	-15.158131
1415.353876	-15.376456
1416.022396	-15.123785
1416.691548	-15.387970
1417.361332	-15.150872
1418.031751	-15.066908
1418.702803	-14.957604
1419.374492	-14.890798
1420.046816	-14.907301
1420.719778	-14.992553
1421.393378	-14.932972
1422.067617	-15.128811
1422.742496	-14.911949
1423.418015	-14.816778
1424.094177	-14.634060
1424.770981	-14.516970
1425.448429	-14.549893
1426.126521	-14.533785
1426.805259	-14.739571
1427.484643	-14.700956
1428.164675	-14.655277
1428.845355	-14.658268
1429.526684	-14.324046
1430.208663	-14.233446
1430.891292	-14.256681
1431.574574	-14.248584
1432.258509	-14.443725
1432.943098	-14.413992
1433.628341	-14.568365
1434.314240	-14.357720
1435.000796	-14.240689
1435.688009	-14.032347
1436.375881	-13.906876
1437.064412	-13.927206
1437.753604	-14.032207
1438.443457	-14.094725
1439.133972	-14.208747
1439.825150	-14.107617
1440.516993	-14.097016
1441.209501	-13.969707
1441.902675	-13.910953
1442.596517	-13.834377
1443.291026	-13.872774
1443.986204	-14.028894
1444.682053	-14.003131
1445.378572	-13.940829
1446.075763	-13.870759
1446.773628	-13.831469
1447.472166	-13.704191
1448.171379	-13.784325
1448.871268	-13.855869
1449.571833	-13.884861
1450.273077	-13.853244
1450.974999	-13.768993
1451.677601	-13.714394
1452.380884	-13.461452
1453.084848	-13.412479
1453.789496	-13.537637
1454.494827	-13.757130
1455.200842	-14.027942
1455.907544	-14.262084
1456.614932	-14.243192
1457.323008	-13.995640
1458.031773	-13.513774
1458.741228	-13.158167
1459.451373	-12.874280
1460.162210	-12.846839
1460.873740	-12.995255
1461.585963	-13.502840
1462.298881	-13.920930
1463.012496	-14.345871
1463.726807	-14.294342
1464.441816	-13.950590
1465.157523	-13.429302
1465.873931	-12.946822
1466.591040	-12.731974
1467.308850	-12.832930
1468.027364	-13.169809
1468.746581	-13.686963
1469.466504	-14.218543
1470.187133	-14.412335
1470.908469	-14.178014
1471.630513	-13.548038
1472.353266	-12.811068
1473.076730	-12.261039
1473.800905	-11.970897
1474.525792	-11.978106
1475.251393	-12.384499
1475.977708	-13.041524
1476.704739	-13.884261
1477.432486	-14.625682
1478.160951	-14.911457
1478.890135	-14.581115
1479.620038	-13.983969
1480.350662	-13.259736
1481.082009	-12.767503
1481.814078	-12.422397
1482.546871	-12.224424
1483.280389	-12.143418
1484.014634	-12.207557
1484.749606	-12.300001
1485.485306	-12.414200
1486.221736	-12.423326
1486.958896	-12.446927
1487.696788	-12.721981
1488.435412	-13.246074
1489.174770	-14.035260
1489.914864	-14.817687
1490.655693	-15.212703
1491.397259	-14.752213
1492.139564	-13.872528
1492.882607	-12.885978
1493.626392	-12.144963
1494.370917	-11.676636
1495.116186	-11.412082
1495.862198	-11.241856
1496.608954	-11.236068
1497.356457	-11.365972
1498.104707	-11.641849
1498.853705	-12.116192
1499.603453	-12.730138
1500.353951	-13.359147
1501.105200	-13.784289
1501.857202	-13.865758
1502.609958	-13.882757
1503.363469	-14.360621
1504.117736	-15.623464
1504.872760	-17.604807
1505.628543	-18.318935
1506.385085	-15.390882
1507.142388	-11.932006
1507.900453	-9.358536
1508.659280	-7.616123
1509.418872	-6.560458
1510.179229	-6.069970
1510.940353	-6.130449
1511.702244	-6.639513
1512.464903	-7.738452
1513.228333	-9.475280
1513.992534	-12.013367
1514.757507	-15.398762
1515.523253	-17.067481
1516.289775	-13.992220
1517.057071	-10.389280
1517.825145	-7.685428
1518.593997	-5.700811
1519.363628	-4.276847
1520.134040	-3.319919
1520.905234	-2.785127
1521.677210	-2.648871
1522.449970	-2.883780
1523.223516	-3.554462
1523.997848	-4.625877
1524.772968	-6.122122
1525.548877	-7.846753
1526.325575	-9.252085
1527.103065	-9.332009
1527.881348	-8.020634
1528.660424	-6.351597
1529.440295	-4.834077
1530.220963	-3.661825
1531.002427	-2.819147
1531.784690	-2.268803
1532.567753	-1.982488
1533.351617	-1.930923
1534.136284	-2.139952
1534.921754	-2.590098
1535.708028	-3.308870
1536.495109	-4.284059
1537.282996	-5.533532
1538.071692	-6.962617
1538.861198	-8.220933
1539.651515	-8.798730
1540.442644	-8.313349
1541.234586	-7.126023
1542.027343	-5.768453
1542.820916	-4.548556
1543.615306	-3.601637
1544.410515	-2.875210
1545.206544	-2.399183
1546.003393	-2.155147
1546.801065	-2.125835
1547.599560	-2.303365
1548.398880	-2.673225
1549.199026	-3.265601
1550.000000	-4.097055
1550.801802	-5.186433
1551.604435	-6.565822
1552.407898	-8.360145
1553.212194	-10.573830
1554.017324	-13.007459
1554.823289	-14.586414
1555.630090	-13.863389
1556.437730	-11.849377
1557.246208	-10.004894
1558.055526	-8.653169
1558.865687	-7.795474
1559.676690	-7.322599
1560.488537	-7.171768
1561.301231	-7.326571
1562.114771	-7.759617
1562.929159	-8.415469
1563.744397	-9.355979
1564.560486	-10.678257
1565.377427	-12.337050
1566.195221	-14.425965
1567.013871	-16.338235
1567.833377	-16.779043
1568.653740	-15.361134
1569.474962	-13.443533
1570.297045	-11.918252
1571.119989	-10.822999
1571.943797	-10.141537
1572.768469	-9.816673
1573.594006	-9.797550
1574.420411	-10.077628
1575.247684	-10.624235
1576.075826	-11.364368
1576.904840	-12.412305
1577.734727	-13.701743
1578.565488	-15.138325
1579.397124	-16.678489
1580.229636	-17.688968
1581.063027	-17.767530
1581.897297	-16.912586
1582.732448	-15.850714
1583.568482	-14.960147
1584.405399	-14.296094
1585.243201	-13.894632
1586.081890	-13.866146
1586.921467	-13.995370
1587.761933	-14.388382
1588.603289	-14.892337
1589.445538	-15.352367
1590.288680	-15.745756
1591.132718	-15.710186
1591.977652	-15.456728
1592.823483	-14.883687
1593.670214	-14.145699
1594.517846	-13.434830
1595.366379	-12.737884
1596.215817	-12.093098
1597.066159	-11.636964
1597.917408	-11.283944
1598.769565	-11.032323
1599.622631	-10.976070
1600.476608	-10.955161
1601.331497	-11.011512
1602.187300	-11.169693
1603.044018	-11.266022
1603.901653	-11.403020
1604.760207	-11.548677
1605.619679	-11.600082
1606.480073	-11.694847
1607.341390	-11.812626
1608.203630	-11.929876
1609.066796	-12.114320
1609.930890	-12.340232
1610.795911	-12.531149
1611.661863	-12.854566
1612.528747	-13.234223
1613.396563	-13.610104
1614.265314	-14.187873
1615.135001	-14.748466
1616.005626	-15.297003
1616.877190	-15.986865
1617.749694	-16.484750
1618.623141	-16.959603
1619.497531	-17.429888
1620.372867	-17.569352
1621.249149	-17.666363
1622.126380	-17.659331
1623.004560	-17.425955
1623.883692	-17.254471
1624.763776	-17.065366
1625.644816	-16.694571
1626.526811	-16.532993
1627.409763	-16.291360
1628.293675	-16.040298
1629.178548	-15.927879
1630.064383	-15.737867
1630.951181	-15.587908
1631.838945	-15.510169
1632.727676	-15.449739
1633.617376	-15.351855
1634.508046	-15.321682
1635.399687	-15.301831
1636.292302	-15.216905
1637.185892	-15.271638
1638.080458	-15.309040
1638.976002	-15.306205
1639.872526	-15.396510
1640.770032	-15.455581
1641.668520	-15.437740
1642.567993	-15.465620
1643.468452	-15.517408
1644.369899	-15.447028
1645.272336	-15.459137
1646.175763	-15.432524
1647.080184	-15.239142
1647.985598	-15.151058
1648.892009	-14.993806
1649.799417	-14.833587
1650.707824	-14.670363
1651.617232	-14.548282
1652.527643	-14.364838
1653.439058	-14.183863
1654.351479	-14.104812
1655.264908	-13.951967
1656.179346	-13.823464
1657.094794	-13.748030
1658.011256	-13.663169
1658.928731	-13.496295
1659.847223	-13.473641
1660.766732	-13.383498
1661.687260	-13.328027
1662.608810	-13.306862
1663.531382	-13.326886
1664.454979	-13.250571
1665.379601	-13.266938
1666.305252	-13.301725
1667.231932	-13.356907
1668.159644	-13.378385
1669.088388	-13.483593
1670.018167	-13.546505
1670.948983	-13.595520
1671.880837	-13.705388
1672.813731	-13.835925
1673.747666	-13.862096
1674.682645	-13.967468
1675.618669	-14.080947
1676.555740	-14.161081
1677.493860	-14.211700
1678.433030	-14.323852
1679.373252	-14.373222
1680.314528	-14.392649
1681.256860	-14.452531
1682.200250	-14.540354
1683.144699	-14.516208
1684.090209	-14.545143
1685.036782	-14.553539
1685.984419	-14.592809
1686.933123	-14.487731
1687.882895	-14.509238
1688.833738	-14.461067
1689.785652	-14.387284
1690.738640	-14.310119
1691.692703	-14.296311
1692.647844	-14.197313
1693.604064	-14.063405
1694.561365	-14.066490
1695.519749	-13.971863
1696.479217	-13.917203
1697.439772	-13.792355
1698.401415	-13.775390
1699.364149	-13.690536
1700.327974	-13.588236
1701.292894	-13.532367
1702.258909	-13.439017
1703.226022	-13.406083
1704.194235	-13.268314
1705.163549	-13.268687
1706.133966	-13.237127
1707.105488	-13.148350
1708.078117	-13.172132
1709.051856	-13.161945
1710.026705	-13.139095
1711.002667	-13.113513
1711.979743	-13.142199
1712.957937	-13.171182
1713.937248	-13.156357
1714.917680	-13.194734
1715.899235	-13.248313
1716.881913	-13.296216
1717.865718	-13.310554
1718.850651	-13.344006
1719.836714	-13.410134
1720.823909	-13.442298
1721.812238	-13.480262
1722.801703	-13.504466
1723.792305	-13.604733
1724.784048	-13.681093
1725.776932	-13.623504
1726.770961	-13.741939
1727.766135	-13.827086
1728.762456	-13.746505
1729.759928	-13.887429
1730.758551	-13.942159
1731.758328	-13.885338
1732.759260	-14.051084
1733.761350	-14.038677
1734.764600	-13.981563
1735.769012	-14.165685
1736.774588	-14.128849
1737.781329	-14.056198
1738.789238	-14.216444
1739.798317	-14.206725
1740.808568	-14.137908
1741.819993	-14.204662
1742.832593	-14.187422
1743.846372	-14.153947
1744.861331	-14.177962
1745.877472	-14.132768
1746.894797	-14.072323
1747.913309	-14.056792
1748.933008	-14.014859
1749.953899	-13.938787
1750.975982	-13.899197
1751.999259	-13.898649
1753.023733	-13.849925
1754.049406	-13.754367
1755.076280	-13.698836
1756.104357	-13.678435
1757.133639	-13.630277
1758.164128	-13.551075
1759.195827	-13.506429
1760.228737	-13.521571
1761.262861	-13.485495
1762.298201	-13.374548
1763.334759	-13.348573
1764.372536	-13.387038
1765.411536	-13.314633
1766.451761	-13.207683
1767.493212	-13.220933
1768.535892	-13.260151
1769.579802	-13.192472
1770.624946	-13.127031
1771.671325	-13.191737
1772.718942	-13.245498
1773.767798	-13.171321
1774.817896	-13.143713
1775.869238	-13.201567
1776.921826	-13.191061
1777.975663	-13.160719
1779.030751	-13.179887
1780.087092	-13.187253
1781.144688	-13.192774
1782.203541	-13.207664
1783.263654	-13.222659
1784.325029	-13.249577
1785.387668	-13.287189
1786.451574	-13.358869
1787.516748	-13.402147
1788.583193	-13.359567
1789.650912	-13.342565
1790.719906	-13.366960
1791.790177	-13.363785
1792.861729	-13.369815
1793.934564	-13.393666
1795.008683	-13.466263
1796.084089	-13.592109
1797.160785	-13.672716
1798.238772	-13.697512
1799.318053	-13.654581
