# 2020-05-14_15.24.22
# shape = Gauss
# FWHM_ps = 0.1
# carrier_nm = 1550
# frep_MHz = 100
# pow_mW = 150
# GDD = 0.0
# propa_len = 0.15
# untap_len = 0.005
# taper_len = 0.08
# waist_len = 0.04
# uptap_len = 0.08
# untap_scale = 1.0
# waist_scale = 0.15
# workingDir = NL_20110305_12 (Spirou)
# axis = slow
# window_ps = 10.0
# steps = 200
# points = 11000
# 
# wavelength [nm]	 power spectral density [dB]
403.318464	-33.120752
403.372731	-34.548119
403.427012	-36.416861
403.481308	-35.895137
403.535619	-34.348819
403.589944	-35.343636
403.644284	-35.573437
403.698638	-35.827379
403.753007	-36.089065
403.807391	-35.763738
403.861790	-35.176156
403.916203	-35.463798
403.970630	-36.307026
404.025073	-35.670654
404.079530	-34.726442
404.134002	-35.291600
404.188488	-37.238378
404.242989	-34.914696
404.297505	-35.675802
404.352036	-36.782528
404.406581	-36.169325
404.461141	-35.023132
404.515716	-35.656124
404.570305	-37.738430
404.624909	-35.943753
404.679528	-34.277832
404.734162	-36.216970
404.788810	-37.736742
404.843474	-35.414759
404.898152	-34.443847
404.952844	-35.877763
405.007552	-37.606213
405.062274	-35.592470
405.117011	-35.317399
405.171763	-37.075783
405.226530	-36.294740
405.281311	-35.640919
405.336107	-35.919210
405.390919	-36.132505
405.445745	-36.320029
405.500585	-35.173605
405.555441	-36.440273
405.610311	-36.264032
405.665197	-34.819063
405.720097	-35.720227
405.775012	-37.002770
405.829942	-36.117970
405.884886	-35.503941
405.939846	-35.344711
405.994821	-37.803022
406.049810	-35.684775
406.104814	-34.909810
406.159834	-36.608899
406.214868	-36.986660
406.269917	-35.132103
406.324981	-34.722448
406.380060	-35.698066
406.435153	-37.247416
406.490262	-35.051614
406.545386	-35.036010
406.600525	-36.701936
406.655678	-36.763316
406.710847	-35.189724
406.766030	-35.214859
406.821229	-36.612967
406.876442	-36.515930
406.931671	-35.562168
406.986914	-35.107260
407.042173	-35.801586
407.097446	-35.903301
407.152735	-34.569000
407.208039	-35.220259
407.263357	-35.400106
407.318691	-35.834411
407.374039	-35.110650
407.429403	-34.380250
407.484782	-36.266045
407.540176	-35.629865
407.595584	-35.298840
407.651008	-34.510489
407.706447	-36.189645
407.761901	-35.411535
407.817371	-34.718933
407.872855	-34.209293
407.928354	-35.333325
407.983869	-35.517510
408.039398	-34.373401
408.094943	-34.060610
408.150503	-34.866354
408.206078	-35.239026
408.261668	-34.331188
408.317273	-33.998023
408.372893	-35.008433
408.428529	-35.607170
408.484180	-35.008571
408.539846	-33.967097
408.595527	-34.410451
408.651223	-34.965404
408.706934	-34.384678
408.762661	-34.298362
408.818403	-33.407535
408.874160	-34.603244
408.929932	-34.295338
408.985719	-33.828468
409.041522	-33.353659
409.097340	-34.147931
409.153173	-34.454197
409.209021	-33.891773
409.264885	-34.147358
409.320764	-33.738885
409.376658	-34.512280
409.432567	-33.856513
409.488492	-33.867927
409.544432	-33.364100
409.600387	-34.078475
409.656358	-33.675996
409.712343	-33.484135
409.768345	-33.170723
409.824361	-33.379507
409.880393	-33.313702
409.936440	-33.394926
409.992502	-33.589346
410.048580	-33.307064
410.104673	-33.284603
410.160781	-34.120026
410.216905	-33.650884
410.273044	-33.013146
410.329199	-33.612400
410.385369	-33.745616
410.441554	-33.665818
410.497755	-33.139608
410.553971	-33.194839
410.610202	-33.006028
410.666449	-33.034763
410.722711	-32.528428
410.778989	-33.505545
410.835282	-32.382434
410.891591	-32.853713
410.947915	-33.234345
411.004254	-33.270118
411.060609	-32.488889
411.116979	-33.093114
411.173365	-33.209053
411.229766	-33.203661
411.286183	-33.099801
411.342615	-33.018043
411.399063	-33.092738
411.455526	-32.625459
411.512005	-33.004826
411.568499	-32.795263
411.625009	-32.021848
411.681534	-32.942711
411.738075	-32.426108
411.794631	-32.581897
411.851203	-32.418797
411.907790	-32.441164
411.964393	-32.651438
412.021012	-32.360239
412.077646	-33.043273
412.134296	-32.608521
412.190961	-32.461581
412.247642	-33.427128
412.304338	-32.392456
412.361050	-32.975587
412.417778	-32.683449
412.474521	-32.317774
412.531280	-32.576660
412.588054	-32.795872
412.644844	-32.665995
412.701650	-32.391199
412.758471	-32.453651
412.815308	-32.840986
412.872161	-31.770370
412.929029	-33.286523
412.985913	-32.440121
413.042813	-32.662473
413.099728	-32.997567
413.156659	-33.127826
413.213606	-32.861312
413.270568	-32.833309
413.327546	-33.102132
413.384540	-32.494626
413.441550	-32.540698
413.498575	-33.198391
413.555616	-31.970973
413.612673	-32.993831
413.669745	-32.218954
413.726833	-32.341015
413.783937	-32.647617
413.841057	-31.867284
413.898193	-32.613902
413.955344	-32.263192
414.012511	-32.566498
414.069694	-32.512482
414.126893	-33.087968
414.184107	-32.529944
414.241338	-32.675927
414.298584	-33.124874
414.355846	-32.597341
414.413124	-32.736018
414.470417	-32.917547
414.527727	-32.802214
414.585052	-32.465800
414.642393	-32.915285
414.699750	-32.471246
414.757123	-32.728628
414.814512	-32.332987
414.871917	-32.249275
414.929337	-32.788493
414.986774	-32.152760
415.044226	-32.789493
415.101694	-32.913275
415.159178	-32.582163
415.216679	-32.717584
415.274195	-33.141139
415.331727	-32.568291
415.389275	-33.173190
415.446838	-32.781974
415.504418	-33.070359
415.562014	-33.432612
415.619626	-32.465370
415.677254	-33.769667
415.734897	-32.887880
415.792557	-32.975101
415.850233	-32.621203
415.907924	-32.960227
415.965632	-32.755466
416.023356	-32.963351
416.081096	-32.713436
416.138851	-33.356288
416.196623	-32.828826
416.254411	-32.597919
416.312215	-33.143650
416.370035	-32.818303
416.427871	-33.147935
416.485723	-32.719223
416.543591	-33.539613
416.601476	-32.838311
416.659376	-33.206512
416.717292	-32.973800
416.775225	-33.153858
416.833174	-33.496892
416.891138	-32.751944
416.949119	-32.659623
417.007116	-33.639796
417.065130	-32.274864
417.123159	-33.639677
417.181204	-32.761902
417.239266	-33.474255
417.297344	-32.997924
417.355438	-32.950971
417.413548	-33.090616
417.471674	-33.288173
417.529817	-33.116110
417.587975	-32.939805
417.646150	-33.332554
417.704341	-33.492318
417.762549	-32.557450
417.820772	-33.802521
417.879012	-32.768683
417.937268	-33.369144
417.995541	-32.901824
418.053829	-32.504250
418.112134	-32.871473
418.170455	-32.855037
418.228792	-32.526408
418.287146	-32.541314
418.345516	-32.835953
418.403902	-32.714180
418.462304	-32.259148
418.520723	-32.972340
418.579158	-32.403677
418.637610	-32.917759
418.696078	-32.563418
418.754562	-32.727726
418.813062	-32.835185
418.871579	-33.519310
418.930112	-32.921490
418.988661	-33.270227
419.047227	-33.485449
419.105810	-33.266296
419.164408	-33.472351
419.223023	-33.196115
419.281655	-33.690775
419.340302	-32.999775
419.398967	-33.762854
419.457647	-32.943853
419.516344	-33.427589
419.575058	-33.392126
419.633788	-32.995725
419.692534	-32.570942
419.751297	-33.287026
419.810076	-32.595795
419.868872	-32.475557
419.927684	-32.718756
419.986513	-32.398670
420.045358	-32.679666
420.104220	-32.408571
420.163098	-32.762342
420.221992	-32.203458
420.280904	-32.804603
420.339831	-32.493434
420.398776	-32.494034
420.457736	-32.302516
420.516714	-33.073012
420.575707	-32.463534
420.634718	-32.617981
420.693745	-33.109673
420.752788	-32.828128
420.811848	-33.082488
420.870925	-33.152664
420.930018	-33.055580
420.989128	-32.995384
421.048255	-33.235172
421.107398	-33.225640
421.166558	-33.050184
421.225734	-32.982725
421.284927	-33.127532
421.344137	-33.288883
421.403363	-32.896073
421.462606	-33.051693
421.521865	-33.205088
421.581141	-32.449178
421.640434	-33.148327
421.699744	-32.699008
421.759070	-32.636459
421.818413	-32.366685
421.877773	-32.935473
421.937149	-32.273399
421.996542	-32.298203
422.055952	-32.572259
422.115379	-32.341902
422.174822	-32.618898
422.234282	-32.393208
422.293759	-32.425021
422.353252	-32.367260
422.412763	-32.545697
422.472290	-32.488444
422.531834	-32.543116
422.591394	-32.476250
422.650972	-32.532639
422.710566	-32.937075
422.770177	-32.992635
422.829805	-32.582913
422.889449	-33.141847
422.949111	-33.306318
423.008789	-32.778930
423.068485	-33.089245
423.128197	-33.222161
423.187925	-32.864573
423.247671	-33.120132
423.307434	-33.131211
423.367213	-33.100687
423.427010	-32.637801
423.486823	-32.875704
423.546653	-32.729767
423.606500	-32.658642
423.666364	-32.676456
423.726245	-32.335329
423.786143	-32.402832
423.846058	-32.211974
423.905990	-32.085693
423.965939	-32.076961
424.025904	-32.055583
424.085887	-31.871285
424.145886	-31.789218
424.205903	-31.999532
424.265937	-32.057337
424.325987	-31.793364
424.386055	-31.981588
424.446139	-32.038537
424.506241	-32.170138
424.566360	-32.199903
424.626495	-32.225487
424.686648	-32.309816
424.746818	-32.571358
424.807004	-32.639454
424.867208	-32.634858
424.927429	-32.893956
424.987667	-33.140601
425.047922	-32.874242
425.108194	-33.120855
425.168484	-33.252293
425.228790	-33.362865
425.289113	-33.103754
425.349454	-32.953107
425.409812	-33.256615
425.470186	-33.057106
425.530578	-32.526654
425.590988	-32.702864
425.651414	-32.644610
425.711857	-32.117838
425.772318	-31.988500
425.832796	-31.829828
425.893291	-31.890549
425.953803	-31.440855
426.014332	-31.053601
426.074879	-31.120152
426.135442	-31.117745
426.196023	-30.837856
426.256622	-30.702327
426.317237	-30.459001
426.377870	-30.610074
426.438520	-30.753713
426.499187	-30.497584
426.559871	-30.475328
426.620573	-30.491621
426.681292	-30.679205
426.742028	-30.650825
426.802782	-30.605081
426.863553	-30.713401
426.924341	-31.133399
426.985147	-31.263843
427.045969	-31.045519
427.106810	-31.464058
427.167667	-31.489385
427.228542	-31.918968
427.289434	-32.077081
427.350344	-31.994275
427.411271	-32.205672
427.472215	-32.206968
427.533177	-32.518396
427.594156	-32.632031
427.655152	-32.286814
427.716166	-32.306046
427.777197	-32.421751
427.838246	-32.094287
427.899312	-32.144720
427.960396	-31.753421
428.021497	-31.528183
428.082615	-31.488208
428.143751	-31.077558
428.204905	-30.656384
428.266075	-30.593365
428.327264	-30.437172
428.388470	-30.088960
428.449693	-29.891564
428.510934	-29.627814
428.572192	-29.483118
428.633468	-29.397989
428.694761	-29.150818
428.756072	-29.039517
428.817401	-29.016858
428.878747	-28.812263
428.940110	-28.818045
429.001491	-28.840432
429.062890	-28.742728
429.124306	-28.744768
429.185740	-28.718677
429.247192	-28.751602
429.308661	-28.832997
429.370147	-29.190729
429.431652	-29.098281
429.493173	-29.204788
429.554713	-29.384774
429.616270	-29.371814
429.677845	-29.567930
429.739437	-29.769140
429.801047	-29.942264
429.862675	-30.108975
429.924321	-30.400336
429.985984	-30.427493
430.047665	-30.407646
430.109363	-30.634021
430.171079	-30.787001
430.232813	-30.856152
430.294565	-30.669238
430.356334	-30.857747
430.418122	-30.685543
430.479926	-30.550450
430.541749	-30.556498
430.603589	-30.242229
430.665448	-29.960398
430.727324	-29.974377
430.789217	-29.839460
430.851129	-29.410409
430.913058	-29.294276
430.975005	-29.027081
431.036970	-28.613157
431.098953	-28.666733
431.160953	-28.527424
431.222972	-28.230437
431.285008	-28.149016
431.347062	-27.963225
431.409134	-27.828769
431.471224	-27.764667
431.533332	-27.690020
431.595457	-27.684701
431.657601	-27.654167
431.719762	-27.473337
431.781941	-27.631307
431.844139	-27.739212
431.906354	-27.681460
431.968587	-27.720925
432.030838	-27.931457
432.093107	-28.004519
432.155394	-27.957016
432.217698	-28.290938
432.280021	-28.367471
432.342362	-28.578919
432.404721	-28.803490
432.467097	-28.969376
432.529492	-29.230579
432.591905	-29.502319
432.654336	-29.688440
432.716785	-29.978809
432.779251	-30.257716
432.841736	-30.173753
432.904239	-30.523976
432.966760	-30.810681
433.029299	-30.849823
433.091856	-30.737546
433.154431	-31.023821
433.217025	-31.004108
433.279636	-30.654445
433.342266	-30.711948
433.404913	-30.490649
433.467579	-30.282060
433.530263	-30.154168
433.592965	-29.745951
433.655685	-29.429775
433.718423	-29.369982
433.781179	-28.820814
433.843954	-28.587064
433.906746	-28.543513
433.969557	-28.056302
434.032386	-27.826834
434.095234	-27.639709
434.158099	-27.405521
434.220983	-27.203848
434.283885	-27.095138
434.346805	-26.796174
434.409743	-26.732893
434.472700	-26.749046
434.535675	-26.475061
434.598668	-26.422695
434.661679	-26.475661
434.724709	-26.470924
434.787757	-26.375973
434.850823	-26.429178
434.913908	-26.471381
434.977010	-26.521980
435.040132	-26.725363
435.103271	-26.636744
435.166429	-26.649833
435.229605	-27.074707
435.292800	-27.121855
435.356012	-27.188583
435.419244	-27.502431
435.482493	-27.708263
435.545761	-28.033856
435.609047	-28.414978
435.672352	-28.557282
435.735675	-28.654331
435.799017	-29.255499
435.862377	-29.689882
435.925755	-29.868329
435.989152	-30.289070
436.052567	-30.563146
436.116001	-30.889108
436.179453	-31.342411
436.242924	-31.322305
436.306413	-31.329401
436.369921	-31.659634
436.433447	-31.781690
436.496991	-31.762905
436.560554	-31.695947
436.624136	-31.426306
436.687736	-31.164368
436.751355	-31.087790
436.814992	-30.661204
436.878648	-30.173249
436.942322	-29.921398
437.006015	-29.643492
437.069726	-29.299436
437.133456	-29.053387
437.197205	-28.559508
437.260972	-28.086254
437.324758	-27.918645
437.388562	-27.742648
437.452385	-27.486536
437.516227	-27.194381
437.580087	-26.971534
437.643966	-26.688814
437.707864	-26.646947
437.771780	-26.619538
437.835715	-26.391701
437.899669	-26.238413
437.963641	-26.202271
438.027632	-26.059565
438.091642	-25.965434
438.155670	-26.002148
438.219717	-26.003649
438.283783	-25.962734
438.347868	-26.096876
438.411971	-26.108479
438.476093	-26.214050
438.540234	-26.393964
438.604394	-26.485335
438.668572	-26.550253
438.732769	-26.723269
438.796985	-26.861698
438.861220	-27.121596
438.925473	-27.453281
438.989746	-27.622406
439.054037	-27.782757
439.118347	-28.263089
439.182676	-28.609399
439.247024	-28.825523
439.311390	-29.220217
439.375776	-29.715572
439.440180	-29.957344
439.504603	-30.409976
439.569046	-30.973319
439.633507	-31.258568
439.697987	-31.527755
439.762485	-31.929749
439.827003	-32.175123
439.891540	-32.523985
439.956095	-32.857560
440.020670	-32.892256
440.085264	-32.643242
440.149876	-32.574131
440.214508	-32.361681
440.279158	-32.145300
440.343828	-31.929837
440.408516	-31.333536
440.473224	-30.645491
440.537950	-30.423196
440.602696	-30.125903
440.667460	-29.471804
440.732244	-29.131440
440.797046	-28.875644
440.861868	-28.351038
440.926709	-27.871660
440.991569	-27.633763
441.056448	-27.384217
441.121346	-27.065506
441.186263	-26.786488
441.251199	-26.535516
441.316155	-26.211586
441.381129	-25.991389
441.446123	-25.874420
441.511135	-25.650461
441.576167	-25.485881
441.641218	-25.403548
441.706289	-25.250287
441.771378	-25.043974
441.836487	-25.058448
441.901614	-25.072068
441.966762	-24.909395
442.031928	-24.841318
442.097113	-24.962179
442.162318	-24.874101
442.227542	-24.829170
442.292785	-24.898477
442.358047	-24.980368
442.423329	-24.973158
442.488630	-25.151648
442.553950	-25.272423
442.619290	-25.295287
442.684648	-25.433293
442.750027	-25.744360
442.815424	-25.824881
442.880841	-25.961424
442.946277	-26.298622
443.011732	-26.588154
443.077207	-26.724886
443.142701	-26.955224
443.208215	-27.345059
443.273747	-27.646102
443.339300	-28.039380
443.404871	-28.358586
443.470462	-28.637184
443.536073	-28.994915
443.601703	-29.580903
443.667352	-29.979637
443.733021	-30.250454
443.798709	-30.655146
443.864416	-31.121072
443.930143	-31.414376
443.995890	-31.883222
444.061656	-32.339786
444.127442	-32.447120
444.193247	-32.472184
444.259071	-32.498334
444.324915	-32.255072
444.390779	-32.093924
444.456662	-32.029626
444.522564	-31.879023
444.588486	-31.295822
444.654428	-30.811517
444.720389	-30.444684
444.786370	-29.986559
444.852371	-29.652446
444.918391	-29.285931
444.984430	-28.847927
445.050489	-28.243931
445.116568	-27.834241
445.182667	-27.495727
445.248785	-27.200101
445.314922	-26.792212
445.381080	-26.433494
445.447257	-26.026525
445.513454	-25.750417
445.579670	-25.596238
445.645906	-25.411738
445.712162	-25.196079
445.778437	-24.877930
445.844733	-24.608608
445.911047	-24.423106
445.977382	-24.369214
446.043736	-24.253570
446.110111	-24.045389
446.176504	-23.859872
446.242918	-23.744014
446.309352	-23.633413
446.375805	-23.529394
446.442278	-23.512452
446.508771	-23.414907
446.575283	-23.272542
446.641816	-23.199250
446.708368	-23.230961
446.774940	-23.259194
446.841532	-23.214862
446.908144	-23.190347
446.974775	-23.179560
447.041427	-23.212671
447.108098	-23.284434
447.174789	-23.354389
447.241501	-23.393535
447.308232	-23.403038
447.374983	-23.474156
447.441754	-23.585827
447.508545	-23.706076
447.575355	-23.841513
447.642186	-23.950443
447.709037	-24.051558
447.775908	-24.174681
447.842798	-24.364051
447.909709	-24.650431
447.976640	-24.853201
448.043590	-25.057774
448.110561	-25.240541
448.177552	-25.435469
448.244562	-25.745842
448.311593	-26.018900
448.378644	-26.351700
448.445715	-26.642372
448.512806	-26.937062
448.579917	-27.220050
448.647048	-27.496370
448.714199	-27.923828
448.781371	-28.289721
448.848562	-28.658570
448.915774	-28.911510
448.983005	-29.337397
449.050257	-29.756297
449.117529	-30.140116
449.184821	-30.367759
449.252134	-30.670541
449.319466	-30.980122
449.386819	-31.252952
449.454192	-31.410505
449.521585	-31.473444
449.588998	-31.468746
449.656432	-31.225146
449.723885	-31.242116
449.791359	-31.156464
449.858854	-30.964435
449.926368	-30.510099
449.993903	-30.088614
450.061458	-29.666587
450.129033	-29.326728
450.196629	-29.200146
450.264245	-28.875637
450.331881	-28.306133
450.399537	-27.746561
450.467214	-27.343794
450.534912	-27.076828
450.602629	-26.693564
450.670367	-26.433068
450.738125	-26.118614
450.805904	-25.652660
450.873703	-25.302764
450.941523	-25.020715
451.009363	-24.868672
451.077223	-24.699140
451.145104	-24.367412
451.213005	-24.105160
451.280926	-23.767764
451.348868	-23.543028
451.416831	-23.442586
451.484814	-23.350730
451.552817	-23.192786
451.620841	-22.935194
451.688886	-22.678781
451.756951	-22.583776
451.825036	-22.539247
451.893142	-22.507515
451.961269	-22.415354
452.029416	-22.177833
452.097583	-21.928358
452.165772	-21.807493
452.233980	-21.812517
452.302210	-21.887681
452.370460	-21.879088
452.438730	-21.774627
452.507021	-21.616655
452.575333	-21.421317
452.643665	-21.407198
452.712018	-21.528931
452.780392	-21.671185
452.848786	-21.705852
452.917201	-21.563197
452.985637	-21.423776
453.054094	-21.371950
453.122571	-21.405134
453.191068	-21.632871
453.259587	-21.823906
453.328126	-21.834416
453.396686	-21.739581
453.465267	-21.640967
453.533868	-21.754333
453.602490	-21.985541
453.671133	-22.150363
453.739797	-22.217024
453.808481	-22.170523
453.877187	-22.139607
453.945913	-22.324955
454.014660	-22.647304
454.083427	-22.937789
454.152216	-23.116485
454.221025	-22.996587
454.289856	-22.907801
454.358707	-23.068231
454.427579	-23.403050
454.496472	-23.929844
454.565386	-24.385252
454.634320	-24.503864
454.703276	-24.529056
454.772252	-24.520337
454.841250	-24.675067
454.910268	-25.201135
454.979308	-25.692413
455.048368	-26.122869
455.117449	-26.441177
455.186551	-26.570332
455.255675	-26.888605
455.324819	-27.364329
455.393984	-27.918277
455.463170	-28.597555
455.532378	-28.914781
455.601606	-29.084846
455.670855	-29.445898
455.740126	-29.997965
455.809417	-30.986852
455.878730	-32.260517
455.948064	-33.089077
456.017418	-33.525052
456.086794	-34.035127
456.156191	-34.567893
456.225609	-35.750652
456.295048	-37.637822
456.364509	-39.115322
456.433990	-41.188422
456.503493	-42.871775
456.573017	-44.917776
456.642562	-49.676276
456.712128	-48.680134
456.781715	-44.551517
456.851324	-41.780253
456.920954	-40.472688
456.990605	-40.818666
457.060277	-39.951937
457.129970	-38.266952
457.199685	-36.603929
457.269421	-34.895980
457.339179	-33.715969
457.408957	-33.157008
457.478757	-32.601897
457.548578	-32.053273
457.618421	-31.296583
457.688285	-30.387292
457.758170	-30.073420
457.828077	-29.875269
457.898004	-29.599003
457.967954	-29.262765
458.037924	-28.687282
458.107916	-27.941380
458.177930	-27.564271
458.247965	-27.238060
458.318021	-26.970340
458.388098	-26.833201
458.458198	-26.505248
458.528318	-26.077140
458.598460	-25.809573
458.668624	-25.686501
458.738808	-25.556990
458.809015	-25.560135
458.879243	-25.353332
458.949492	-24.933982
459.019763	-24.585607
459.090055	-24.358760
459.160369	-24.204773
459.230705	-24.220709
459.301062	-24.260459
459.371441	-24.037487
459.441841	-23.744437
459.512263	-23.459772
459.582706	-23.273186
459.653171	-23.270918
459.723657	-23.478232
459.794166	-23.411876
459.864696	-23.270766
459.935247	-23.033822
460.005820	-22.719133
460.076415	-22.490822
460.147031	-22.556597
460.217669	-22.600377
460.288329	-22.687148
460.359011	-22.603482
460.429714	-22.303184
460.500439	-21.983369
460.571186	-21.960953
460.641954	-22.022618
460.712744	-22.145691
460.783556	-22.213912
460.854390	-22.179536
460.925245	-21.946930
460.996123	-21.799208
461.067022	-21.761496
461.137943	-21.777197
461.208885	-21.828154
461.279850	-21.871018
461.350836	-21.712844
461.421845	-21.542031
461.492875	-21.459974
461.563927	-21.402876
461.635001	-21.500877
461.706096	-21.631437
461.777214	-21.562275
461.848354	-21.408282
461.919515	-21.350067
461.990698	-21.338341
462.061904	-21.320368
462.133131	-21.426647
462.204380	-21.501207
462.275652	-21.478946
462.346945	-21.393737
462.418260	-21.308462
462.489597	-21.226507
462.560957	-21.318259
462.632338	-21.458915
462.703741	-21.451140
462.775166	-21.339935
462.846614	-21.258689
462.918083	-21.125468
462.989575	-21.095213
463.061088	-21.240255
463.132624	-21.267758
463.204182	-21.312921
463.275762	-21.336521
463.347364	-21.138726
463.418988	-20.861262
463.490635	-20.918039
463.562303	-21.086153
463.633994	-21.122367
463.705707	-21.300477
463.777442	-21.331677
463.849199	-21.076064
463.920978	-20.913864
463.992780	-20.926544
464.064604	-20.883011
464.136450	-20.942449
464.208318	-21.158701
464.280209	-21.171447
464.352122	-20.918847
464.424057	-20.833811
464.496015	-20.797522
464.567995	-20.680475
464.639997	-20.824916
464.712021	-20.981028
464.784068	-20.798626
464.856137	-20.646951
464.928228	-20.614006
465.000342	-20.499788
465.072478	-20.460572
465.144637	-20.579251
465.216818	-20.644434
465.289021	-20.476289
465.361247	-20.268811
465.433495	-20.199983
465.505766	-20.101298
465.578059	-20.037293
465.650375	-20.139599
465.722713	-20.212731
465.795073	-20.157074
465.867456	-19.981951
465.939862	-19.781949
466.012290	-19.692120
466.084740	-19.661548
466.157213	-19.654837
466.229709	-19.620756
466.302227	-19.570273
466.374768	-19.442184
466.447331	-19.329547
466.519917	-19.282592
466.592525	-19.169976
466.665156	-19.102670
466.737810	-19.116770
466.810486	-19.016678
466.883185	-18.814286
466.955907	-18.730528
467.028651	-18.712715
467.101418	-18.654456
467.174208	-18.580672
467.247020	-18.575665
467.319855	-18.510174
467.392713	-18.311023
467.465593	-18.234997
467.538496	-18.219676
467.611422	-18.074632
467.684371	-17.959982
467.757342	-17.961383
467.830336	-17.844340
467.903353	-17.669535
467.976393	-17.600709
468.049456	-17.557378
468.122541	-17.486334
468.195649	-17.444750
468.268780	-17.432507
468.341934	-17.316376
468.415111	-17.141053
468.488311	-17.050079
468.561533	-16.966457
468.634779	-16.906554
468.708047	-16.863567
468.781338	-16.776268
468.854652	-16.710251
468.927989	-16.615629
469.001350	-16.464377
469.074733	-16.370911
469.148138	-16.366216
469.221567	-16.341702
469.295019	-16.218137
469.368494	-16.145948
469.441992	-16.083965
469.515513	-15.953735
469.589057	-15.809528
469.662624	-15.724624
469.736214	-15.709705
469.809827	-15.653950
469.883464	-15.545439
469.957123	-15.484089
470.030805	-15.376818
470.104511	-15.262525
470.178240	-15.210069
470.251991	-15.239140
470.325766	-15.215233
470.399564	-15.094091
470.473386	-15.050065
470.547230	-15.004935
470.621098	-14.887968
470.694988	-14.784299
470.768902	-14.744985
470.842840	-14.756614
470.916800	-14.727435
470.990784	-14.668359
471.064791	-14.613192
471.138821	-14.527128
471.212874	-14.452788
471.286951	-14.464282
471.361051	-14.459969
471.435174	-14.476046
471.509321	-14.481289
471.583491	-14.417127
471.657684	-14.338029
471.731901	-14.260437
471.806141	-14.235129
471.880404	-14.205541
471.954691	-14.217799
472.029001	-14.260894
472.103335	-14.287832
472.177692	-14.236459
472.252072	-14.107910
472.326476	-14.019524
472.400904	-13.998952
472.475354	-14.029660
472.549829	-14.069133
472.624326	-14.119169
472.698847	-14.161227
472.773392	-14.122836
472.847960	-14.045392
472.922552	-14.020298
472.997167	-13.972257
473.071806	-13.989806
473.146469	-14.037411
473.221155	-14.091552
473.295864	-14.093738
473.370597	-14.060701
473.445354	-14.025472
473.520134	-13.971755
473.594938	-13.954444
473.669766	-13.974182
473.744617	-14.007295
473.819492	-14.043746
473.894391	-14.036459
473.969313	-13.990912
474.044259	-13.973385
474.119229	-13.943492
474.194222	-13.963556
474.269240	-14.065332
474.344280	-14.154166
474.419345	-14.139289
474.494433	-14.069694
474.569546	-13.994574
474.644682	-13.901382
474.719841	-13.807998
474.795025	-13.759079
474.870232	-13.794008
474.945463	-13.935002
475.020718	-14.025526
475.095997	-14.073410
475.171300	-14.100033
475.246627	-14.045824
475.321977	-13.944318
475.397352	-13.822421
475.472750	-13.769316
475.548172	-13.758035
475.623618	-13.779110
475.699089	-13.756773
475.774583	-13.755640
475.850101	-13.763368
475.925643	-13.760540
476.001209	-13.812848
476.076799	-13.858763
476.152413	-13.877532
476.228051	-13.848315
476.303713	-13.785232
476.379399	-13.705611
476.455109	-13.620487
476.530843	-13.527881
476.606602	-13.490073
476.682384	-13.527119
476.758191	-13.570087
476.834021	-13.593401
476.909876	-13.581386
476.985755	-13.587531
477.061658	-13.592884
477.137585	-13.540446
477.213537	-13.467828
477.289512	-13.426446
477.365512	-13.420757
477.441536	-13.456623
477.517584	-13.473415
477.593656	-13.435601
477.669753	-13.418507
477.745874	-13.375454
477.822019	-13.367267
477.898189	-13.337526
477.974382	-13.281458
478.050600	-13.241244
478.126843	-13.203984
478.203109	-13.171338
478.279400	-13.127085
478.355716	-13.075799
478.432056	-13.063171
478.508420	-13.108972
478.584808	-13.117704
478.661221	-13.162218
478.737658	-13.178962
478.814120	-13.210261
478.890606	-13.175803
478.967117	-13.097810
479.043652	-13.051359
479.120211	-13.033230
479.196795	-13.001287
479.273403	-12.965999
479.350036	-12.966232
479.426694	-13.014376
479.503376	-13.032327
479.580082	-12.979708
479.656813	-12.930672
479.733569	-12.935966
479.810349	-12.975422
479.887154	-13.002452
479.963983	-12.983110
480.040837	-12.991611
480.117716	-13.016125
480.194619	-13.030499
480.271547	-12.975683
480.348499	-12.902130
480.425476	-12.919253
480.502478	-12.980748
480.579504	-13.017582
480.656556	-13.005701
480.733632	-13.016187
480.810732	-13.085204
480.887858	-13.141039
480.965008	-13.174571
481.042183	-13.171893
481.119382	-13.227004
481.196607	-13.305802
481.273856	-13.362923
481.351130	-13.361971
481.428429	-13.360274
481.505752	-13.405067
481.583101	-13.463492
481.660474	-13.464940
481.737873	-13.458421
481.815296	-13.478853
481.892744	-13.548002
481.970217	-13.612310
482.047714	-13.618185
482.125237	-13.623842
482.202785	-13.658660
482.280358	-13.771374
482.357955	-13.863369
482.435578	-13.906339
482.513225	-13.950556
482.590898	-13.999022
482.668595	-14.070537
482.746318	-14.134362
482.824066	-14.182790
482.901838	-14.260198
482.979636	-14.339731
483.057459	-14.403366
483.135307	-14.433114
483.213180	-14.421586
483.291078	-14.463653
483.369001	-14.492466
483.446949	-14.522607
483.524923	-14.575722
483.602922	-14.628249
483.680945	-14.670588
483.758994	-14.680804
483.837069	-14.676496
483.915168	-14.727927
483.993293	-14.799924
484.071442	-14.877028
484.149617	-14.885703
484.227818	-14.881709
484.306043	-14.946529
484.384294	-15.045119
484.462570	-15.131659
484.540872	-15.175304
484.619199	-15.185054
484.697551	-15.187881
484.775928	-15.239617
484.854331	-15.257329
484.932759	-15.305232
485.011213	-15.348130
485.089692	-15.350911
485.168196	-15.379185
485.246726	-15.407299
485.325281	-15.435385
485.403862	-15.512414
485.482468	-15.570213
485.561099	-15.608770
485.639756	-15.605811
485.718439	-15.531684
485.797147	-15.518478
485.875880	-15.573406
485.954639	-15.657563
486.033424	-15.691981
486.112234	-15.660899
486.191070	-15.626834
486.269931	-15.624628
486.348818	-15.628191
486.427730	-15.655947
486.506668	-15.676183
486.585632	-15.688588
486.664621	-15.682772
486.743636	-15.704559
486.822677	-15.741166
486.901743	-15.765747
486.980835	-15.747530
487.059953	-15.694911
487.139096	-15.645411
487.218265	-15.641048
487.297460	-15.647117
487.376681	-15.718271
487.455927	-15.796726
487.535199	-15.810893
487.614497	-15.774254
487.693821	-15.787996
487.773171	-15.777799
487.852546	-15.777963
487.931947	-15.764527
488.011374	-15.739677
488.090827	-15.742241
488.170306	-15.763666
488.249811	-15.756785
488.329341	-15.799157
488.408898	-15.807941
488.488480	-15.807963
488.568089	-15.850076
488.647723	-15.869067
488.727383	-15.805390
488.807069	-15.777681
488.886782	-15.828982
488.966520	-15.907641
489.046284	-15.970591
489.126074	-15.983939
489.205891	-15.932525
489.285733	-15.866450
489.365602	-15.894760
489.445496	-15.972025
489.525417	-16.011067
489.605364	-16.014308
489.685336	-15.999774
489.765335	-16.014708
489.845360	-16.059567
489.925412	-16.056610
490.005489	-16.051509
490.085593	-16.081535
490.165723	-16.160647
490.245879	-16.254029
490.326061	-16.307638
490.406269	-16.280238
490.486504	-16.250220
490.566765	-16.319893
490.647052	-16.436803
490.727366	-16.493043
490.807706	-16.498998
490.888072	-16.512713
490.968464	-16.547014
491.048883	-16.616622
491.129328	-16.699088
491.209800	-16.725250
491.290298	-16.723727
491.370822	-16.776166
491.451373	-16.841502
491.531950	-16.886123
491.612553	-16.963964
491.693183	-17.088033
491.773840	-17.187436
491.854523	-17.220842
491.935232	-17.231055
492.015968	-17.264724
492.096730	-17.381652
492.177519	-17.531205
492.258334	-17.626722
492.339176	-17.658276
492.420045	-17.722362
492.500940	-17.812018
492.581862	-17.876466
492.662810	-17.929654
492.743785	-17.995985
492.824786	-18.090919
492.905814	-18.204639
492.986869	-18.238538
493.067951	-18.221990
493.149059	-18.317507
493.230193	-18.490215
493.311355	-18.557222
493.392543	-18.549549
493.473758	-18.590976
493.555000	-18.645896
493.636268	-18.667787
493.717563	-18.711886
493.798885	-18.776350
493.880234	-18.889910
493.961610	-19.007632
494.043012	-19.026609
494.124441	-19.000898
494.205898	-19.100156
494.287380	-19.274359
494.368890	-19.380097
494.450427	-19.441625
494.531991	-19.501725
494.613581	-19.558776
494.695199	-19.604676
494.776843	-19.618317
494.858514	-19.679262
494.940213	-19.835296
495.021938	-19.952195
495.103690	-19.938081
495.185470	-19.947210
495.267276	-20.028451
495.349109	-20.026547
495.430970	-19.972218
495.512857	-19.948110
495.594772	-20.014239
495.676713	-20.142126
495.758682	-20.227746
495.840678	-20.269576
495.922701	-20.356391
496.004751	-20.396504
496.086828	-20.355088
496.168932	-20.396598
496.251064	-20.512880
496.333223	-20.618188
496.415409	-20.684480
496.497622	-20.744925
496.579863	-20.807468
496.662130	-20.799530
496.744425	-20.645447
496.826748	-20.563684
496.909097	-20.652311
496.991474	-20.703997
497.073878	-20.703277
497.156310	-20.769519
497.238768	-20.814267
497.321255	-20.754753
497.403768	-20.717153
497.486309	-20.801860
497.568878	-21.011701
497.651473	-21.136531
497.734096	-21.131807
497.816747	-21.150104
497.899425	-21.125785
497.982131	-20.953209
498.064864	-20.885269
498.147624	-20.977988
498.230412	-21.061316
498.313228	-21.052603
498.396071	-20.999860
498.478942	-21.055850
498.561840	-21.108335
498.644766	-21.081167
498.727719	-21.163764
498.810700	-21.335019
498.893709	-21.381772
498.976745	-21.393480
499.059809	-21.484435
499.142900	-21.491359
499.226019	-21.369743
499.309166	-21.264816
499.392341	-21.276600
499.475543	-21.349282
499.558773	-21.359902
499.642031	-21.468970
499.725317	-21.567715
499.808630	-21.467119
499.891971	-21.449707
499.975340	-21.610467
500.058737	-21.753787
500.142161	-21.798376
500.225614	-21.825183
500.309094	-21.837311
500.392602	-21.728783
500.476138	-21.619748
500.559702	-21.694328
500.643294	-21.760838
500.726913	-21.706981
500.810561	-21.808376
500.894236	-21.969979
500.977940	-21.988592
501.061672	-21.941157
501.145431	-21.916726
501.229219	-21.888961
501.313034	-21.845147
501.396878	-21.996039
501.480749	-22.255221
501.564649	-22.240785
501.648577	-22.123872
501.732533	-22.128121
501.816517	-22.113432
501.900529	-22.188267
501.984569	-22.463920
502.068638	-22.767672
502.152734	-22.853508
502.236859	-22.798391
502.321012	-22.755794
502.405193	-22.519140
502.489402	-22.316674
502.573640	-22.480225
502.657906	-22.812613
502.742200	-23.201293
502.826522	-23.559495
502.910873	-23.530093
502.995252	-23.078562
503.079659	-22.659905
503.164095	-22.565831
503.248559	-22.642991
503.333051	-22.911012
503.417572	-23.488270
503.502121	-23.945053
503.586698	-24.063095
503.671304	-23.947193
503.755939	-23.505184
503.840601	-23.087450
503.925293	-23.069051
504.010012	-23.443307
504.094761	-23.905274
504.179537	-24.374961
504.264343	-24.590652
504.349176	-24.231111
504.434039	-23.861122
504.518930	-23.611155
504.603849	-23.416654
504.688797	-23.662092
504.773774	-24.375776
504.858779	-25.035692
504.943813	-25.147628
505.028876	-24.858231
505.113967	-24.265067
505.199087	-23.812486
505.284235	-23.926358
505.369413	-24.308947
505.454619	-24.806991
505.539854	-25.620732
505.625117	-26.063374
505.710409	-25.629416
505.795731	-24.827418
505.881080	-24.185862
505.966459	-23.959350
506.051867	-24.341822
506.137303	-25.158986
506.222768	-25.941456
506.308262	-26.628303
506.393785	-26.457829
506.479337	-25.413107
506.564918	-24.602586
506.650528	-24.244751
506.736166	-24.397947
506.821834	-25.234573
506.907530	-26.467491
506.993256	-27.120502
507.079010	-26.983961
507.164794	-26.144901
507.250606	-24.934318
507.336448	-24.269382
507.422319	-24.249005
507.508219	-24.884201
507.594147	-26.204703
507.680105	-27.626772
507.766092	-28.018835
507.852109	-27.258780
507.938154	-25.917653
508.024228	-24.720320
508.110332	-24.363291
508.196465	-24.728081
508.282627	-25.723638
508.368818	-27.369196
508.455039	-28.475016
508.541289	-28.168153
508.627568	-27.010426
508.713876	-25.633368
508.800214	-24.686117
508.886581	-24.607094
508.972977	-25.238129
509.059403	-26.526771
509.145858	-28.282238
509.232342	-28.899739
509.318856	-28.136630
509.405399	-26.709970
509.491971	-25.372737
509.578573	-24.824107
509.665205	-25.119999
509.751866	-26.013923
509.838556	-27.562438
509.925276	-29.003667
510.012025	-29.009738
510.098804	-28.103070
510.185612	-26.506636
510.272450	-25.395809
510.359318	-25.240246
510.446215	-25.708919
510.533142	-26.650550
510.620098	-28.097161
510.707084	-29.023682
510.794100	-28.714279
510.881145	-27.453229
510.968220	-26.087223
511.055324	-25.668074
511.142459	-25.808123
511.229623	-26.385183
511.316817	-27.522034
511.404040	-28.680313
511.491293	-29.089526
511.578576	-28.418451
511.665889	-27.137993
511.753232	-26.428915
511.840604	-26.133487
511.928007	-25.987075
512.015439	-26.584790
512.102901	-27.534153
512.190393	-28.439297
512.277915	-28.854037
512.365466	-28.269370
512.453048	-27.556223
512.540660	-26.942626
512.628301	-26.325337
512.715973	-26.533017
512.803674	-27.309822
512.891406	-28.217689
512.979167	-29.204419
513.066959	-29.321627
513.154781	-28.735545
513.242632	-27.674326
513.330514	-26.821523
513.418426	-26.830071
513.506368	-27.156407
513.594340	-27.567246
513.682343	-28.483193
513.770375	-29.033381
513.858438	-29.314004
513.946531	-28.864233
514.034654	-28.175415
514.122807	-27.716129
514.210991	-27.143362
514.299204	-26.965060
514.387449	-27.579952
514.475723	-28.296815
514.564028	-28.987458
514.652363	-29.006624
514.740728	-28.581997
514.829124	-27.995957
514.917550	-27.321795
515.006006	-27.491231
515.094493	-27.918367
515.183010	-28.299713
515.271558	-28.889913
515.360136	-29.312735
515.448744	-29.524411
515.537383	-29.153879
515.626053	-28.360708
515.714753	-28.012367
515.803483	-27.529996
515.892244	-27.668054
515.981036	-28.430731
516.069858	-29.292544
516.158711	-29.940224
516.247594	-29.683363
516.336508	-29.006161
516.425453	-28.218676
516.514428	-27.633636
516.603434	-27.784429
516.692471	-27.735874
516.781538	-28.134543
516.870636	-29.032000
516.959765	-29.977378
517.048925	-30.464236
517.138115	-29.876751
517.227336	-29.271822
517.316588	-28.477826
517.405870	-27.786735
517.495184	-28.087953
517.584528	-28.434915
517.673903	-29.040970
517.763309	-29.525946
517.852746	-30.038180
517.942214	-30.264889
518.031713	-29.584708
518.121243	-28.969515
518.210803	-28.075145
518.300395	-27.755897
518.390017	-28.267249
518.479671	-28.779604
518.569356	-29.547744
518.659071	-29.923936
518.748818	-30.489810
518.838596	-30.101008
518.928404	-29.283365
519.018244	-28.868285
519.108115	-28.210272
519.198018	-28.275023
519.287951	-28.700739
519.377915	-29.579601
519.467911	-30.369420
519.557938	-30.444552
519.647996	-30.289465
519.738085	-29.422684
519.828206	-29.001053
519.918357	-28.386834
520.008540	-27.861060
520.098755	-28.053555
520.189000	-28.818490
520.279277	-30.231431
520.369586	-30.613344
520.459925	-31.135852
520.550296	-30.506538
520.640699	-29.720756
520.731133	-28.961563
520.821598	-28.172146
520.912095	-28.142798
521.002623	-28.501758
521.093182	-29.520630
521.183774	-29.978649
521.274396	-30.533173
521.365050	-30.787283
521.455736	-30.151217
521.546453	-29.583699
521.637202	-28.770239
521.727982	-28.284837
521.818794	-28.097015
521.909638	-28.682192
522.000513	-29.360178
522.091420	-30.112511
522.182359	-30.943409
522.273329	-30.661641
522.364331	-30.438098
522.455364	-29.744991
522.546430	-29.333345
522.637527	-28.831679
522.728656	-29.137532
522.819817	-29.456710
522.911009	-29.683483
523.002233	-30.323134
523.093490	-30.284642
523.184778	-30.732063
523.276097	-30.464617
523.367449	-29.825434
523.458833	-28.814297
523.550248	-28.860621
523.641696	-29.136349
523.733175	-29.538472
523.824687	-29.889902
523.916230	-29.773143
524.007806	-30.216400
524.099413	-30.391583
524.191053	-30.169461
524.282724	-29.339341
524.374428	-29.535766
524.466163	-29.417924
524.557931	-29.669194
524.649731	-29.888081
524.741563	-30.161245
524.833427	-30.584741
524.925324	-30.851930
525.017252	-30.676652
525.109213	-30.077021
525.201206	-30.011813
525.293231	-29.471906
525.385289	-29.567039
525.477378	-29.410459
525.569500	-29.533688
525.661655	-29.825693
525.753841	-30.385918
525.846060	-30.121856
525.938312	-30.332860
526.030595	-30.339464
526.122912	-30.217013
526.215260	-30.104211
526.307641	-29.904454
526.400054	-29.833056
526.492500	-29.880737
526.584979	-30.159220
526.677489	-30.081879
526.770033	-30.639509
526.862609	-30.210088
526.955217	-30.364870
527.047858	-30.039001
527.140531	-29.839564
527.233238	-29.709671
527.325976	-29.992329
527.418748	-29.737146
527.511552	-29.858514
527.604388	-30.079755
527.697258	-30.446253
527.790160	-30.627427
527.883095	-30.199453
527.976062	-29.748011
528.069063	-30.043478
528.162096	-30.250234
528.255161	-30.214629
528.348260	-30.144801
528.441391	-30.097570
528.534556	-31.286424
528.627753	-31.360798
528.720983	-30.617898
528.814246	-30.001893
528.907542	-30.347873
529.000870	-30.304572
529.094232	-30.211253
529.187627	-29.480888
529.281054	-29.838503
529.374515	-30.359392
529.468009	-30.759696
529.561535	-30.570302
529.655095	-30.448193
529.748688	-30.044955
529.842314	-30.569482
529.935973	-30.144308
530.029665	-30.100894
530.123390	-29.840368
530.217148	-29.858131
530.310940	-30.003270
530.404765	-30.369971
530.498623	-29.967514
530.592514	-30.293649
530.686438	-30.264922
530.780396	-30.720394
530.874387	-30.200767
530.968411	-30.005637
531.062468	-30.204607
531.156559	-30.334915
531.250683	-29.589156
531.344841	-29.866750
531.439032	-30.351559
531.533256	-31.352834
531.627514	-30.921182
531.721805	-30.319459
531.816130	-30.289403
531.910488	-30.687600
532.004880	-30.540586
532.099305	-30.356485
532.193764	-29.451059
532.288256	-29.672886
532.382782	-29.799474
532.477341	-30.571767
532.571934	-30.412303
532.666560	-29.776506
532.761221	-29.660229
532.855914	-30.735234
532.950642	-30.868618
533.045403	-30.632931
533.140198	-29.567369
533.235027	-29.601288
533.329889	-29.548345
533.424785	-30.189334
533.519715	-30.867043
533.614679	-30.604785
533.709676	-30.080472
533.804707	-30.328241
533.899773	-30.853815
533.994872	-31.327405
534.090005	-30.575334
534.185171	-29.948176
534.280372	-29.853587
534.375607	-29.472956
534.470875	-29.901365
534.566178	-29.971012
534.661515	-30.137424
534.756885	-29.698150
534.852290	-29.894093
534.947729	-30.600239
535.043201	-31.192244
535.138708	-30.665339
535.234249	-30.301516
535.329824	-29.230449
535.425433	-29.718831
535.521077	-30.467570
535.616754	-30.752268
535.712466	-29.727308
535.808212	-29.081115
535.903992	-29.802296
535.999807	-30.826403
536.095655	-31.737965
536.191538	-31.243036
536.287456	-30.292109
536.383407	-29.675189
536.479393	-30.205197
536.575414	-31.180893
536.671468	-31.469475
536.767557	-29.956146
536.863681	-29.496185
536.959839	-29.366690
537.056031	-30.319447
537.152258	-30.734613
537.248519	-30.717888
537.344815	-30.155595
537.441146	-29.378156
537.537510	-29.922962
537.633910	-29.955847
537.730344	-30.531925
537.826813	-30.164166
537.923316	-29.599472
538.019854	-29.190046
538.116427	-29.539454
538.213034	-30.462579
538.309676	-30.784134
538.406352	-30.662725
538.503064	-29.921761
538.599810	-29.551160
538.696591	-29.784184
538.793407	-30.713380
538.890257	-30.815271
538.987142	-29.799450
539.084063	-28.989553
539.181018	-29.433609
539.278008	-30.232074
539.375032	-31.091771
539.472092	-30.890299
539.569187	-29.873947
539.666316	-29.325167
539.763481	-29.488674
539.860681	-30.549209
539.957915	-30.481365
540.055185	-29.975029
540.152490	-28.951287
540.249829	-29.025540
540.347204	-29.831140
540.444614	-30.260804
540.542059	-30.304526
540.639540	-29.571542
540.737055	-29.668983
540.834606	-29.569332
540.932191	-30.401187
541.029812	-30.815859
541.127469	-30.241870
541.225160	-29.735232
541.322887	-29.312449
541.420649	-29.866026
541.518446	-30.031696
541.616279	-30.820040
541.714147	-30.332331
541.812051	-29.732932
541.909990	-29.867625
542.007964	-30.171249
542.105974	-30.558646
542.204019	-30.212133
542.302099	-30.146267
542.400216	-29.749923
542.498367	-29.809748
542.596554	-29.923417
542.694777	-30.344478
542.793035	-30.749452
542.891329	-30.207406
542.989659	-29.792223
543.088024	-29.762627
543.186425	-29.817222
543.284861	-30.160426
543.383333	-30.393490
543.481841	-30.007326
543.580384	-29.306244
543.678964	-28.962164
543.777579	-29.506523
543.876230	-29.757053
543.974916	-30.534825
544.073639	-30.107396
544.172397	-29.105477
544.271191	-29.012173
544.370021	-29.361729
544.468887	-30.196656
544.567789	-30.002828
544.666727	-29.956267
544.765700	-29.002886
544.864710	-29.030457
544.963756	-29.777848
545.062837	-30.318056
545.161955	-30.523378
545.261109	-29.740208
545.360299	-29.293880
545.459525	-29.169890
545.558787	-29.490877
545.658085	-30.051951
545.757419	-30.385261
545.856790	-30.068572
545.956197	-29.821567
546.055640	-29.102671
546.155119	-29.257043
546.254634	-29.458326
546.354186	-30.766999
546.453774	-30.759810
546.553398	-29.487844
546.653059	-29.015144
546.752756	-28.681516
546.852489	-29.572658
546.952259	-30.658219
547.052065	-30.665801
547.151908	-29.760418
547.251787	-29.313560
547.351702	-28.745589
547.451654	-28.891580
547.551643	-29.457300
547.651668	-31.067147
547.751730	-30.662631
547.851828	-29.557232
547.951963	-28.530050
548.052134	-28.679904
548.152342	-30.254341
548.252587	-31.170543
548.352868	-30.544585
548.453186	-29.653661
548.553541	-29.153267
548.653932	-29.344132
548.754360	-29.536885
548.854825	-29.868016
548.955327	-31.075163
549.055866	-30.476599
549.156441	-29.098748
549.257053	-27.857390
549.357703	-28.154781
549.458389	-29.647556
549.559112	-30.847903
549.659872	-29.665984
549.760668	-29.144031
549.861502	-28.948557
549.962373	-29.574449
550.063281	-29.060931
550.164226	-29.025491
550.265208	-29.857956
550.366227	-31.422548
550.467283	-30.357640
550.568376	-28.319096
550.669506	-27.688938
550.770674	-29.684802
550.871879	-31.139321
550.973121	-30.105203
551.074400	-28.504021
551.175716	-28.656102
551.277070	-30.244209
551.378461	-29.806351
551.479889	-28.241976
551.581354	-29.037452
551.682857	-31.371667
551.784398	-31.718692
551.885975	-28.558317
551.987590	-27.113093
552.089243	-28.476476
552.190933	-31.767280
552.292660	-31.048867
552.394425	-28.578408
552.496227	-28.232401
552.598067	-30.019477
552.699945	-30.867001
552.801860	-28.824352
552.903812	-27.945843
553.005802	-29.657623
553.107830	-31.929222
553.209896	-29.891346
553.311999	-27.526421
553.414140	-27.432617
553.516318	-29.689498
553.618535	-31.740136
553.720789	-29.598291
553.823081	-27.862440
553.925410	-28.185175
554.027778	-30.621291
554.130183	-30.471718
554.232627	-28.326559
554.335108	-27.637113
554.437627	-29.610744
554.540184	-31.781350
554.642778	-29.234696
554.745411	-27.011531
554.848082	-27.426058
554.950791	-30.000325
555.053538	-31.096329
555.156323	-28.267224
555.259146	-27.591995
555.362007	-28.673760
555.464906	-30.800353
555.567844	-29.246863
555.670819	-27.609468
555.773833	-27.757840
555.876885	-30.264208
555.979975	-30.771506
556.083103	-28.701637
556.186270	-27.598217
556.289475	-28.304213
556.392718	-29.788713
556.495999	-29.875213
556.599319	-28.419482
556.702678	-28.237850
556.806074	-29.115735
556.909509	-29.586788
557.012983	-28.689052
557.116495	-28.230525
557.220045	-28.659594
557.323634	-29.841029
557.427262	-30.177916
557.530928	-28.351715
557.634632	-28.447178
557.738376	-29.319008
557.842157	-29.688211
557.945978	-28.794860
558.049837	-28.466031
558.153735	-28.747903
558.257671	-29.960042
558.361646	-29.165877
558.465660	-28.239159
558.569713	-28.342368
558.673804	-29.343807
558.777934	-30.104318
558.882104	-29.398420
558.986311	-28.843369
559.090558	-28.634132
559.194844	-29.578680
559.299168	-29.776234
559.403532	-28.358166
559.507934	-27.712197
559.612376	-29.173583
559.716856	-29.763826
559.821376	-29.196421
559.925934	-27.998081
560.030532	-27.724578
560.135169	-28.263346
560.239844	-29.405626
560.344559	-29.661223
560.449313	-28.691441
560.554106	-28.350492
560.658939	-28.402848
560.763810	-29.419747
560.868721	-29.130394
560.973671	-28.318576
561.078661	-28.011149
561.183690	-29.578567
561.288758	-30.104727
561.393865	-29.116758
561.499012	-28.453904
561.604198	-28.102712
561.709424	-28.289415
561.814689	-29.302047
561.919993	-29.817467
562.025337	-28.475280
562.130721	-28.841005
562.236144	-29.295008
562.341606	-29.251290
562.447108	-28.485505
562.552650	-28.662831
562.658231	-28.680207
562.763852	-28.429540
562.869513	-29.949482
562.975213	-29.526888
563.080953	-28.577852
563.186733	-28.147343
563.292552	-28.824342
563.398412	-29.170549
563.504311	-28.738037
563.610250	-28.625166
563.716228	-28.573630
563.822247	-29.217470
563.928306	-29.275724
564.034404	-28.727234
564.140542	-28.242007
564.246721	-28.364895
564.352939	-28.795654
564.459197	-29.068576
564.565495	-28.737997
564.671834	-28.831418
564.778212	-28.953268
564.884630	-28.499913
564.991089	-28.772344
565.097588	-28.945228
565.204127	-28.695305
565.310706	-28.378409
565.417325	-29.046392
565.523984	-29.595292
565.630684	-28.825475
565.737424	-28.830398
565.844204	-28.262785
565.951025	-28.138845
566.057886	-28.740315
566.164787	-29.406734
566.271729	-28.813482
566.378711	-28.110916
566.485734	-29.287199
566.592796	-29.020261
566.699900	-28.674682
566.807044	-28.554696
566.914228	-28.378580
567.021453	-28.143196
567.128719	-28.360741
567.236025	-29.273388
567.343372	-28.722701
567.450759	-28.476532
567.558187	-28.418591
567.665656	-28.316652
567.773166	-28.850254
567.880716	-28.883704
567.988307	-28.518858
568.095939	-28.102778
568.203611	-28.356488
568.311325	-28.771695
568.419079	-28.618256
568.526874	-28.573319
568.634710	-27.815379
568.742587	-28.118700
568.850505	-28.962876
568.958463	-28.720466
569.066463	-28.309385
569.174504	-28.184113
569.282586	-28.264436
569.390709	-27.992983
569.498873	-28.118980
569.607078	-28.542991
569.715324	-27.866156
569.823611	-28.226351
569.931940	-28.378601
570.040309	-28.689023
570.148720	-28.679374
570.257172	-27.918650
570.365666	-27.816370
570.474201	-27.803133
570.582777	-28.645880
570.691394	-28.796026
570.800053	-28.437151
570.908753	-27.835060
571.017494	-27.558247
571.126277	-28.722146
571.235102	-28.601801
571.343968	-27.777699
571.452875	-27.392368
571.561824	-27.473768
571.670814	-28.084902
571.779846	-28.884920
571.888920	-27.930543
571.998035	-27.164994
572.107192	-27.471081
572.216391	-27.981991
572.325631	-27.744971
572.434913	-27.828796
572.544237	-28.285842
572.653602	-27.445594
572.763010	-28.086996
572.872459	-28.225993
572.981950	-28.025552
573.091482	-28.107450
573.201057	-27.714137
573.310674	-27.665640
573.420332	-27.797395
573.530033	-28.177914
573.639775	-28.315421
573.749560	-28.262846
573.859386	-27.280444
573.969255	-27.086396
574.079165	-27.279925
574.189118	-27.889792
574.299113	-27.985762
574.409150	-28.031753
574.519229	-27.138907
574.629351	-27.033674
574.739514	-28.502668
574.849720	-27.894318
574.959968	-27.412103
575.070259	-27.307023
575.180591	-27.371086
575.290966	-27.826106
575.401384	-28.182849
575.511844	-27.438469
575.622346	-27.512859
575.732891	-27.110809
575.843478	-27.099170
575.954108	-27.339244
576.064780	-27.172265
576.175494	-27.870347
576.286252	-27.906495
576.397052	-27.146386
576.507894	-26.805036
576.618779	-27.627253
576.729707	-27.576340
576.840678	-27.620549
576.951691	-27.326269
577.062747	-27.454929
577.173845	-27.327061
577.284987	-27.911128
577.396171	-27.706783
577.507398	-27.280932
577.618668	-26.790423
577.729981	-27.003398
577.841337	-27.444291
577.952736	-27.348870
578.064177	-27.470299
578.175662	-27.614654
578.287190	-27.230431
578.398760	-26.863631
578.510374	-27.445153
578.622031	-27.390031
578.733731	-27.733929
578.845474	-27.506303
578.957260	-27.443549
579.069090	-27.111619
579.180963	-27.146004
579.292878	-26.972366
579.404838	-27.384670
579.516840	-27.106353
579.628886	-27.731207
579.740975	-27.507953
579.853107	-27.082753
579.965283	-26.973734
580.077502	-27.370929
580.189765	-27.486889
580.302071	-27.410361
580.414421	-27.059422
580.526814	-27.673391
580.639251	-27.702010
580.751731	-27.086114
580.864255	-27.247909
580.976822	-27.281890
581.089433	-27.143745
581.202088	-26.777755
581.314786	-26.972285
581.427528	-27.447311
581.540314	-27.210831
581.653144	-27.027531
581.766017	-27.732761
581.878935	-27.274101
581.991896	-27.418216
582.104901	-27.367755
582.217950	-27.308891
582.331042	-27.633227
582.444179	-27.572236
582.557360	-27.348998
582.670584	-27.440865
582.783853	-26.745742
582.897166	-27.403508
583.010523	-27.487819
583.123924	-27.168866
583.237369	-27.412144
583.350858	-27.668136
583.464391	-28.025276
583.577969	-28.118224
583.691590	-26.940812
583.805257	-27.444341
583.918967	-27.386298
584.032721	-27.184810
584.146520	-27.268583
584.260364	-27.626652
584.374251	-27.274264
584.488184	-26.866586
584.602160	-26.937026
584.716181	-27.669548
584.830247	-27.582125
584.944357	-27.700253
585.058511	-27.048531
585.172710	-27.236366
585.286954	-27.322599
585.401242	-26.549080
585.515575	-27.014353
585.629953	-27.287525
585.744375	-26.637945
585.858842	-27.066795
585.973354	-27.020332
586.087910	-27.352773
586.202512	-27.031761
586.317158	-26.908553
586.431849	-27.544366
586.546585	-27.400417
586.661366	-27.142476
586.776191	-26.837025
586.891062	-26.948353
587.005978	-27.483341
587.120938	-26.662375
587.235944	-26.803896
587.350995	-27.370279
587.466091	-27.223552
587.581232	-27.506779
587.696418	-27.463748
587.811649	-28.001735
587.926926	-27.673094
588.042248	-26.775465
588.157615	-26.974564
588.273027	-27.278821
588.388484	-27.867916
588.503987	-27.429255
588.619536	-27.420171
588.735129	-27.545768
588.850768	-26.739198
588.966453	-26.907174
589.082183	-27.458932
589.197958	-28.296992
589.313779	-28.071274
589.429646	-27.352231
589.545558	-26.913145
589.661515	-26.460086
589.777519	-27.219943
589.893568	-27.789395
590.009662	-27.485481
590.125802	-27.829340
590.241989	-26.883180
590.358220	-26.816835
590.474498	-26.678328
590.590821	-27.607976
590.707191	-27.676145
590.823606	-27.002728
590.940067	-26.881575
591.056574	-26.677595
591.173127	-27.223955
591.289725	-27.501128
591.406370	-27.109144
591.523061	-27.504064
591.639798	-27.513770
591.756581	-27.193908
591.873410	-27.071861
591.990286	-27.611295
592.107207	-27.860594
592.224175	-26.730724
592.341189	-26.945553
592.458249	-26.991714
592.575355	-27.775056
592.692508	-27.593207
592.809707	-27.843075
592.926952	-27.481861
593.044244	-27.146978
593.161582	-27.581507
593.278967	-27.550363
593.396398	-27.958622
593.513876	-27.220336
593.631400	-27.301395
593.748970	-26.705873
593.866588	-26.921993
593.984252	-28.151687
594.101962	-27.765073
594.219719	-27.060888
594.337523	-26.774261
594.455374	-27.108187
594.573271	-27.082832
594.691215	-26.959084
594.809206	-27.464938
594.927244	-27.090538
595.045328	-27.154794
595.163460	-26.908655
595.281638	-27.131896
595.399863	-27.515587
595.518136	-27.455694
595.636455	-27.129917
595.754821	-26.576423
595.873235	-27.285244
595.991695	-27.377247
596.110203	-27.847881
596.228757	-27.146998
596.347359	-27.162153
596.466008	-27.314328
596.584705	-27.558619
596.703448	-27.580993
596.822239	-27.109993
596.941077	-27.667737
597.059963	-27.278427
597.178895	-27.848183
597.297876	-27.345999
597.416903	-27.255262
597.535978	-27.093744
597.655101	-27.444579
597.774271	-27.500963
597.893488	-26.775287
598.012754	-27.575164
598.132066	-27.186062
598.251427	-26.868239
598.370835	-26.485350
598.490290	-27.303497
598.609794	-27.061220
598.729345	-26.767068
598.848944	-26.929926
598.968590	-26.782203
599.088285	-27.396745
599.208027	-27.478213
599.327818	-27.321453
599.447656	-26.260775
599.567542	-26.836529
599.687476	-27.117413
599.807458	-27.657644
599.927488	-27.328093
600.047566	-26.991368
600.167692	-27.060973
600.287866	-27.173522
600.408089	-27.815343
600.528359	-27.153468
600.648678	-27.148884
600.769045	-26.768092
600.889460	-27.022918
601.009924	-26.874750
601.130436	-27.534665
601.250996	-27.526297
601.371604	-27.051241
601.492261	-26.792102
601.612967	-26.803851
601.733720	-26.767898
601.854523	-26.659714
601.975373	-27.191478
602.096273	-26.724512
602.217221	-27.092380
602.338217	-27.152263
602.459262	-27.140507
602.580356	-26.803507
602.701499	-27.070042
602.822690	-26.537680
602.943930	-26.570398
603.065219	-26.928307
603.186556	-27.367143
603.307943	-27.191792
603.429378	-27.348698
603.550862	-27.143970
603.672395	-26.625468
603.793977	-26.814168
603.915608	-27.099895
604.037288	-27.078925
604.159017	-26.887814
604.280795	-27.336905
604.402623	-26.793173
604.524499	-27.134415
604.646424	-26.914618
604.768399	-27.216421
604.890423	-26.373651
605.012496	-26.413131
605.134619	-26.713541
605.256791	-27.422454
605.379012	-27.449484
605.501282	-26.757739
605.623602	-26.364012
605.745972	-26.601607
605.868390	-26.836327
605.990859	-26.837141
606.113376	-26.482512
606.235944	-26.786157
606.358561	-26.938387
606.481227	-27.214791
606.603944	-27.270256
606.726709	-26.511616
606.849525	-26.597597
606.972390	-26.368229
607.095305	-26.927964
607.218270	-27.251075
607.341285	-27.307409
607.464349	-26.617181
607.587464	-27.012789
607.710628	-26.461767
607.833842	-26.246812
607.957107	-26.427156
608.080421	-26.803196
608.203785	-26.730905
608.327200	-27.146210
608.450664	-26.645877
608.574179	-26.736588
608.697743	-26.340692
608.821358	-26.524603
608.945023	-26.183088
609.068739	-26.409109
609.192504	-26.591772
609.316320	-27.427142
609.440187	-26.877953
609.564103	-26.480897
609.688070	-25.705663
609.812088	-26.451740
609.936156	-26.987922
610.060274	-27.128114
610.184443	-26.728992
610.308663	-26.494704
610.432933	-26.404217
610.557254	-27.004256
610.681625	-26.173283
610.806047	-25.851635
610.930520	-26.094784
611.055044	-27.229491
611.179618	-26.840016
611.304243	-26.751563
611.428919	-25.665649
611.553646	-26.076293
611.678424	-26.246051
611.803252	-26.352183
611.928132	-26.494498
612.053062	-26.653092
612.178044	-26.349995
612.303077	-26.737946
612.428160	-26.226458
612.553295	-26.159616
612.678481	-26.343231
612.803718	-26.895763
612.929007	-26.628744
613.054346	-26.468033
613.179737	-26.182068
613.305180	-26.580157
613.430673	-26.307285
613.556218	-26.232960
613.681814	-25.987307
613.807462	-26.738404
613.933161	-26.637922
614.058912	-26.157353
614.184714	-25.909698
614.310568	-25.860857
614.436473	-26.434718
614.562430	-26.498112
614.688439	-26.157666
614.814499	-26.130229
614.940611	-26.458815
615.066775	-26.062684
615.192991	-26.270714
615.319258	-25.916869
615.445577	-26.245734
615.571949	-26.706488
615.698372	-26.687721
615.824847	-25.953365
615.951373	-25.871284
616.077952	-25.808598
616.204583	-26.676922
616.331266	-26.454888
616.458001	-25.929755
616.584789	-25.871944
616.711628	-26.298355
616.838520	-26.156371
616.965464	-26.179930
617.092460	-25.927382
617.219508	-26.252660
617.346609	-26.695416
617.473762	-26.038972
617.600967	-25.796543
617.728225	-25.963089
617.855536	-26.513780
617.982898	-26.400732
618.110314	-26.425572
618.237782	-25.975664
618.365302	-26.271822
618.492875	-25.740423
618.620501	-26.191284
618.748179	-26.530105
618.875911	-26.265871
619.003694	-26.043439
619.131531	-26.350959
619.259421	-26.163657
619.387363	-25.814590
619.515358	-25.789417
619.643406	-25.942950
619.771507	-26.873780
619.899661	-26.112760
620.027868	-26.004368
620.156129	-25.349481
620.284442	-25.875020
620.412808	-26.786635
620.541227	-26.526070
620.669700	-25.744509
620.798226	-26.081322
620.926805	-26.091292
621.055437	-25.881222
621.184123	-25.962723
621.312862	-26.011661
621.441654	-26.994968
621.570500	-26.158202
621.699399	-25.793715
621.828352	-25.544774
621.957358	-25.642163
622.086417	-26.359519
622.215531	-26.435116
622.344698	-25.846552
622.473918	-25.780549
622.603192	-25.877035
622.732520	-25.600115
622.861902	-26.145199
622.991337	-26.112893
623.120826	-26.501253
623.250369	-26.006950
623.379966	-25.622866
623.509617	-26.061130
623.639322	-25.658895
623.769081	-26.276559
623.898893	-26.494058
624.028760	-26.209113
624.158681	-25.778721
624.288656	-25.406867
624.418685	-25.624299
624.548769	-26.186685
624.678906	-26.431830
624.809098	-25.727136
624.939344	-25.511751
625.069644	-25.289583
625.199999	-25.966961
625.330408	-25.632147
625.460871	-25.952627
625.591389	-26.396940
625.721962	-25.880312
625.852589	-25.560630
625.983270	-25.046445
626.114006	-25.910281
626.244797	-26.173866
626.375642	-26.216408
626.506542	-25.711441
626.637497	-25.119753
626.768507	-25.499324
626.899571	-25.512385
627.030690	-25.549937
627.161864	-25.827924
627.293093	-25.790275
627.424377	-25.385246
627.555716	-25.180670
627.687109	-25.424563
627.818558	-25.934934
627.950062	-26.164508
628.081621	-25.659082
628.213235	-25.811785
628.344904	-25.320789
628.476629	-25.526902
628.608409	-25.985513
628.740244	-25.778810
628.872134	-26.010716
629.004080	-25.197223
629.136081	-25.226347
629.268137	-25.176592
629.400249	-25.703323
629.532416	-26.133135
629.664639	-25.465093
629.796918	-25.688298
629.929252	-25.244713
630.061641	-25.587487
630.194087	-26.460468
630.326588	-25.870539
630.459145	-26.011610
630.591757	-25.273729
630.724425	-25.407864
630.857150	-25.502632
630.989930	-25.535535
631.122766	-26.015726
631.255657	-25.317166
631.388605	-25.287229
631.521609	-24.963918
631.654669	-25.024718
631.787785	-26.101706
631.920957	-25.754189
632.054185	-25.839981
632.187470	-25.085231
632.320811	-25.363549
632.454207	-26.138041
632.587661	-25.760929
632.721170	-25.822537
632.854736	-25.010546
632.988359	-25.142205
633.122037	-25.509655
633.255773	-25.205270
633.389564	-25.623701
633.523413	-25.155681
633.657318	-25.389629
633.791279	-25.038642
633.925297	-25.311093
634.059372	-26.172885
634.193504	-25.390669
634.327692	-25.568151
634.461937	-25.271353
634.596239	-25.496338
634.730598	-25.976046
634.865014	-25.277279
634.999486	-25.369699
635.134016	-25.348024
635.268603	-25.310048
635.403246	-25.118640
635.537947	-25.111361
635.672705	-25.809396
635.807520	-25.208141
635.942392	-25.213187
636.077322	-25.319919
636.212309	-25.468284
636.347353	-25.729658
636.482454	-25.365716
636.617613	-25.112421
636.752829	-25.235951
636.888103	-25.283764
637.023434	-25.026639
637.158823	-25.367060
637.294269	-25.095707
637.429773	-24.877891
637.565335	-24.955485
637.700954	-25.074936
637.836631	-25.614155
637.972365	-25.119234
638.108158	-25.026498
638.244008	-24.716723
638.379916	-25.212721
638.515882	-25.750655
638.651906	-25.137424
638.787988	-25.326589
638.924127	-24.961497
639.060325	-25.050742
639.196581	-25.518609
639.332895	-25.192716
639.469268	-25.319419
639.605698	-24.963137
639.742187	-24.717892
639.878734	-25.188594
640.015339	-25.938543
640.152003	-25.007535
640.288725	-24.766733
640.425505	-24.993585
640.562344	-25.122717
640.699241	-25.677113
640.836197	-25.118812
640.973211	-25.203539
641.110284	-24.777063
641.247416	-24.984745
641.384606	-25.216105
641.521855	-25.292018
641.659163	-24.871355
641.796530	-24.385713
641.933955	-24.728808
642.071439	-25.306705
642.208982	-25.362475
642.346585	-24.752794
642.484246	-24.717591
642.621966	-24.971097
642.759745	-25.108731
642.897583	-25.522275
643.035481	-25.041838
643.173437	-24.767289
643.311453	-24.405437
643.449528	-25.109798
643.587662	-25.416308
643.725856	-25.099387
643.864109	-24.773522
644.002421	-24.670093
644.140793	-24.839223
644.279224	-25.401744
644.417715	-25.496420
644.556265	-24.708993
644.694875	-24.706808
644.833545	-24.575278
644.972274	-25.191676
645.111063	-25.361320
645.249912	-24.902454
645.388820	-24.651796
645.527788	-24.531443
645.666817	-24.576332
645.805905	-25.129572
645.945053	-25.061432
646.084260	-24.233137
646.223528	-24.588778
646.362856	-24.769831
646.502245	-24.985429
646.641693	-25.087951
646.781201	-24.575839
646.920770	-24.639115
647.060399	-25.033640
647.200088	-25.290950
647.339837	-24.986938
647.479647	-24.663099
647.619517	-24.032735
647.759448	-24.667854
647.899439	-24.967055
648.039491	-25.030523
648.179603	-24.373097
648.319776	-24.467939
648.460010	-24.838156
648.600304	-25.331288
648.740659	-25.240687
648.881074	-24.602036
649.021551	-24.432428
649.162088	-24.506152
649.302686	-24.767601
649.443345	-24.362993
649.584065	-24.397642
649.724846	-23.810634
649.865688	-24.568591
650.006592	-25.057450
650.147556	-24.850944
650.288581	-24.415309
650.429668	-24.824001
650.570816	-24.672014
650.712025	-25.021563
650.853295	-24.643832
650.994627	-24.067997
651.136020	-24.274960
651.277475	-24.177826
651.418991	-24.550989
651.560568	-24.824803
651.702208	-24.613376
651.843908	-24.419447
651.985671	-25.202488
652.127495	-24.765243
652.269380	-24.624672
652.411328	-24.223887
652.553337	-24.394650
652.695408	-24.042014
652.837541	-24.246770
652.979736	-24.279585
653.121993	-24.176667
653.264312	-24.053020
653.406693	-24.768890
653.549136	-24.713931
653.691641	-24.507182
653.834208	-24.480183
653.976838	-24.368947
654.119530	-24.357285
654.262284	-24.125182
654.405100	-24.223593
654.547979	-24.005463
654.690920	-24.231484
654.833923	-24.466622
654.976989	-24.600149
655.120118	-24.150200
655.263309	-24.535479
655.406563	-24.321207
655.549879	-24.384526
655.693258	-23.870940
655.836700	-23.805659
655.980205	-24.179542
656.123772	-24.274363
656.267402	-24.010044
656.411095	-24.266607
656.554851	-24.008127
656.698670	-24.099844
656.842553	-24.240477
656.986498	-24.182180
657.130506	-23.704408
657.274577	-24.038489
657.418712	-24.301614
657.562910	-24.082424
657.707171	-23.724853
657.851495	-24.340100
657.995883	-24.411513
658.140334	-24.390832
658.284849	-23.898569
658.429427	-24.007723
658.574068	-23.853032
658.718773	-23.835793
658.863542	-23.959815
659.008375	-23.570568
659.153271	-23.613124
659.298230	-24.274673
659.443254	-24.310913
659.588341	-23.848956
659.733493	-23.968544
659.878708	-23.825094
660.023987	-23.830949
660.169330	-23.519231
660.314737	-23.685146
660.460208	-23.530922
660.605744	-23.732168
660.751343	-24.264667
660.897007	-24.257873
661.042735	-24.086396
661.188527	-23.889784
661.334383	-24.122240
661.480304	-23.782645
661.626289	-23.284357
661.772339	-23.347091
661.918453	-23.378480
662.064632	-23.531497
662.210875	-23.820449
662.357183	-23.519210
662.503556	-23.573274
662.649993	-23.777692
662.796495	-23.765032
662.943062	-23.590856
663.089694	-23.254747
663.236390	-23.463314
663.383152	-23.826554
663.529978	-23.569683
663.676870	-23.516788
663.823826	-23.561109
663.970848	-24.039099
664.117934	-23.580755
664.265086	-23.519699
664.412303	-23.220953
664.559586	-23.450589
664.706934	-23.439707
664.854347	-23.470950
665.001825	-23.377087
665.149369	-23.208707
665.296978	-23.335894
665.444653	-23.698775
665.592394	-23.009695
665.740200	-23.333112
665.888072	-23.396516
666.036009	-23.627549
666.184013	-23.374191
666.332082	-23.577530
666.480216	-23.483023
666.628417	-23.548515
666.776684	-23.357532
666.925016	-23.334166
667.073415	-22.973225
667.221880	-23.067509
667.370411	-23.074210
667.519008	-23.316428
667.667671	-23.336344
667.816400	-23.379557
667.965196	-23.415505
668.114058	-23.282892
668.262986	-23.474013
668.411981	-22.734769
668.561042	-22.965310
668.710170	-23.099261
668.859364	-23.336867
669.008625	-23.085370
669.157952	-23.368707
669.307346	-23.475950
669.456807	-23.546131
669.606335	-23.175169
669.755929	-23.052985
669.905590	-22.848526
670.055319	-22.969849
670.205114	-22.796767
670.354976	-23.073263
670.504905	-22.918024
670.654901	-23.159855
670.804965	-23.264947
670.955095	-22.995081
671.105293	-23.170373
671.255558	-22.669878
671.405890	-23.100215
671.556290	-22.842880
671.706757	-22.999256
671.857291	-22.656005
672.007893	-23.046863
672.158563	-23.203689
672.309300	-23.099574
672.460105	-22.924582
672.610977	-22.658928
672.761917	-23.173326
672.912925	-22.729449
673.064001	-22.648572
673.215144	-22.695481
673.366356	-23.087387
673.517635	-23.057989
673.668982	-22.684436
673.820398	-22.667754
673.971881	-22.884125
674.123433	-22.977521
674.275053	-22.717552
674.426741	-22.658802
674.578497	-22.904102
674.730321	-23.185854
674.882214	-22.776501
675.034176	-22.619765
675.186205	-22.676846
675.338304	-22.650907
675.490470	-22.350133
675.642706	-22.424394
675.795010	-22.422925
675.947383	-22.939435
676.099824	-22.984692
676.252334	-22.711355
676.404913	-22.783995
676.557561	-22.640854
676.710278	-22.615793
676.863064	-22.438413
677.015918	-22.318489
677.168842	-22.612967
677.321835	-22.952300
677.474897	-22.607391
677.628029	-22.657091
677.781229	-22.747365
677.934499	-22.723491
678.087838	-22.136705
678.241246	-21.930865
678.394724	-22.203343
678.548272	-22.537976
678.701889	-22.643086
678.855575	-22.470654
679.009331	-22.731612
679.163157	-22.928363
679.317053	-22.597594
679.471018	-22.180041
679.625053	-22.296514
679.779158	-22.303719
679.933333	-22.127407
680.087578	-22.390458
680.241892	-22.443020
680.396277	-22.350012
680.550732	-22.335566
680.705257	-22.145827
680.859852	-22.339719
681.014518	-22.421365
681.169254	-22.248520
681.324060	-22.430732
681.478936	-22.240028
681.633883	-22.634131
681.788900	-22.275637
681.943988	-22.109963
682.099147	-21.860710
682.254376	-22.051446
682.409676	-22.461091
682.565046	-22.174150
682.720487	-22.432076
682.876000	-22.104026
683.031582	-22.143924
683.187236	-21.750403
683.342961	-22.031357
683.498757	-22.027271
683.654624	-22.325538
683.810562	-22.098479
683.966571	-22.131158
684.122651	-22.543979
684.278803	-22.312808
684.435026	-21.930830
684.591320	-21.814203
684.747685	-21.563594
684.904122	-21.808007
685.060631	-22.240658
685.217211	-22.354173
685.373863	-22.583544
685.530586	-22.052280
685.687381	-21.817281
685.844248	-21.660555
686.001187	-21.820169
686.158197	-21.925347
686.315279	-22.110520
686.472433	-21.816586
686.629660	-22.037345
686.786958	-22.382063
686.944328	-22.069274
687.101771	-21.971761
687.259285	-21.662650
687.416872	-21.726247
687.574531	-21.482111
687.732263	-21.910006
687.890067	-22.228271
688.047943	-22.286620
688.205892	-21.794826
688.363913	-21.547060
688.522007	-21.495554
688.680174	-21.879341
688.838413	-21.619908
688.996725	-22.336694
689.155110	-22.006270
689.313568	-21.911402
689.472098	-21.604614
689.630701	-21.242283
689.789378	-21.485930
689.948127	-21.639391
690.106950	-21.680565
690.265846	-22.129984
690.424814	-21.888440
690.583857	-21.931971
690.742972	-21.594311
690.902161	-21.266864
691.061423	-21.534437
691.220758	-21.500027
691.380167	-21.560583
691.539650	-21.658532
691.699206	-21.991935
691.858836	-21.916656
692.018540	-21.693877
692.178317	-21.602297
692.338168	-21.256093
692.498093	-20.910721
692.658092	-21.190347
692.818164	-21.496927
692.978311	-22.071014
693.138532	-21.922673
693.298827	-21.964110
693.459196	-21.537269
693.619639	-20.886655
693.780157	-20.930515
693.940749	-21.200170
694.101415	-21.417615
694.262156	-22.090955
694.422971	-21.757977
694.583860	-21.731508
694.744825	-21.398185
694.905863	-20.925701
695.066977	-20.913131
695.228165	-21.034507
695.389428	-21.438648
695.550766	-21.958445
695.712179	-21.500775
695.873666	-21.699689
696.035229	-21.283878
696.196867	-20.840847
696.358579	-21.080922
696.520367	-21.150996
696.682230	-21.217127
696.844169	-21.541785
697.006182	-21.339956
697.168271	-21.448730
697.330436	-21.007035
697.492676	-20.962743
697.654991	-21.124273
697.817382	-21.044314
697.979849	-21.303504
698.142391	-21.525126
698.305009	-21.239966
698.467702	-21.408644
698.630472	-20.932519
698.793317	-20.876644
698.956239	-21.021639
699.119236	-21.229032
699.282309	-21.355689
699.445459	-21.309012
699.608685	-21.190286
699.771986	-21.241857
699.935364	-20.786663
700.098819	-21.025799
700.262350	-21.018667
700.425957	-20.935100
700.589640	-21.191407
700.753401	-21.402628
700.917237	-21.133674
701.081151	-21.204557
701.245141	-20.922415
701.409207	-20.957439
701.573351	-20.949313
701.737571	-20.927183
701.901869	-21.060170
702.066243	-21.174937
702.230694	-21.103588
702.395223	-21.288134
702.559828	-21.016085
702.724511	-20.986546
702.889270	-20.976845
703.054107	-20.590570
703.219022	-21.005403
703.384014	-20.998958
703.549083	-20.795451
703.714230	-21.211876
703.879454	-21.188198
704.044756	-20.960521
704.210135	-21.228340
704.375593	-20.873047
704.541128	-20.948418
704.706741	-20.584000
704.872431	-20.761135
705.038200	-20.915514
705.204047	-20.956631
705.369971	-21.040074
705.535974	-21.167343
705.702055	-20.840079
705.868214	-20.811553
706.034452	-20.673600
706.200768	-20.854303
706.367162	-20.775849
706.533634	-20.910484
706.700185	-20.894667
706.866815	-20.687779
707.033523	-20.783058
707.200310	-20.454679
707.367175	-20.824541
707.534120	-20.787457
707.701143	-20.631940
707.868245	-20.864886
708.035426	-20.827859
708.202686	-20.464916
708.370025	-20.802000
708.537443	-20.480333
708.704940	-20.482707
708.872516	-20.323143
709.040172	-20.555717
709.207907	-20.548569
709.375721	-20.412717
709.543615	-20.778606
709.711588	-20.525119
709.879641	-20.695133
710.047774	-20.614057
710.215986	-20.449091
710.384278	-20.250041
710.552649	-20.062854
710.721101	-19.963484
710.889632	-20.383038
711.058243	-20.402175
711.226935	-20.550868
711.395706	-20.536585
711.564558	-20.482873
711.733489	-20.226099
711.902501	-20.192800
712.071593	-20.389926
712.240766	-19.796819
712.410019	-20.158179
712.579352	-20.021007
712.748766	-19.825020
712.918260	-19.829788
713.087836	-19.914917
713.257491	-20.019163
713.427228	-20.196777
713.597045	-20.495453
713.766943	-20.273735
713.936922	-20.155310
714.106983	-19.775211
714.277124	-19.550422
714.447346	-19.358957
714.617649	-19.379601
714.788034	-19.398475
714.958500	-19.850632
715.129047	-19.815778
715.299675	-19.799277
715.470386	-20.027284
715.641177	-19.617936
715.812050	-19.735666
715.983005	-19.675021
716.154041	-19.760641
716.325159	-19.433419
716.496359	-19.566339
716.667641	-19.473460
716.839005	-19.166586
717.010450	-19.505677
717.181978	-19.363611
717.353588	-19.501711
717.525279	-19.404171
717.697054	-19.554050
717.868910	-19.537832
718.040849	-19.420814
718.212870	-19.528595
718.384973	-19.397350
718.557159	-19.320658
718.729428	-19.229220
718.901779	-19.400368
719.074213	-19.257160
719.246729	-19.321149
719.419329	-19.775075
719.592011	-19.645228
719.764776	-19.455352
719.937624	-19.540099
720.110556	-19.348637
720.283570	-19.201813
720.456667	-19.434730
720.629848	-19.330417
720.803112	-19.222979
720.976459	-19.492430
721.149890	-19.481514
721.323404	-19.285386
721.497002	-19.305196
721.670683	-19.477715
721.844448	-19.502183
722.018296	-19.598072
722.192229	-19.616723
722.366245	-19.819692
722.540345	-19.759370
722.714529	-19.723239
722.888797	-19.872326
723.063149	-19.520870
723.237585	-19.548431
723.412105	-19.687154
723.586710	-19.619860
723.761399	-19.627940
723.936172	-19.805435
724.111030	-19.491516
724.285972	-19.229224
724.460999	-19.514923
724.636110	-19.475544
724.811306	-19.540472
724.986587	-19.780376
725.161952	-19.934912
725.337403	-19.921512
725.512938	-19.676701
725.688558	-19.636335
725.864264	-19.631094
726.040054	-19.773006
726.215930	-20.006737
726.391891	-20.043994
726.567937	-19.917564
726.744068	-19.988103
726.920285	-19.748995
727.096588	-19.619511
727.272976	-19.945110
727.449449	-19.725819
727.626008	-19.784847
727.802653	-19.968165
727.979384	-19.858348
728.156200	-19.701742
728.333103	-19.832073
728.510091	-19.955283
728.687166	-19.777800
728.864326	-19.941062
729.041573	-19.794167
729.218906	-19.925572
729.396325	-19.924931
729.573831	-19.913023
729.751423	-19.944020
729.929102	-19.567564
730.106867	-19.831877
730.284718	-19.668772
730.462657	-19.683385
730.640682	-19.983831
730.818794	-19.717103
730.996992	-19.830828
731.175278	-19.792778
731.353651	-19.407075
731.532110	-19.362302
731.710657	-19.505827
731.889291	-19.622111
732.068012	-19.619264
732.246821	-19.631209
732.425717	-19.645792
732.604700	-19.300428
732.783771	-19.300039
732.962929	-19.318602
733.142175	-19.282193
733.321509	-19.424381
733.500930	-19.545426
733.680440	-19.412273
733.860037	-19.196473
734.039722	-19.200071
734.219495	-19.026755
734.399356	-19.299421
734.579306	-19.356314
734.759343	-19.238902
734.939469	-19.297147
735.119683	-19.194213
735.299986	-18.972749
735.480377	-18.876436
735.660856	-19.024308
735.841425	-18.968098
736.022081	-19.248547
736.202827	-19.058865
736.383661	-18.913825
736.564585	-18.768710
736.745597	-18.822270
736.926698	-18.716265
737.107888	-18.569724
737.289167	-18.855472
737.470536	-18.621858
737.651993	-18.738659
737.833541	-18.765273
738.015177	-18.651784
738.196903	-18.563202
738.378718	-18.557982
738.560623	-18.303747
738.742618	-18.316607
738.924702	-18.498332
739.106876	-18.474981
739.289140	-18.453069
739.471494	-18.352270
739.653938	-18.169299
739.836472	-18.204132
740.019096	-18.423222
740.201810	-18.287472
740.384615	-18.326625
740.567510	-18.202355
740.750495	-18.006845
740.933570	-18.011451
741.116737	-18.074281
741.299993	-18.089514
741.483341	-18.367480
741.666779	-18.269225
741.850308	-18.221926
742.033927	-17.961455
742.217638	-17.921514
742.401440	-18.033825
742.585332	-17.900935
742.769316	-18.222712
742.953391	-18.073042
743.137557	-18.121509
743.321815	-18.092144
743.506164	-17.894282
743.690604	-17.862651
743.875136	-17.999409
744.059760	-17.884511
744.244475	-18.175038
744.429282	-18.070265
744.614181	-18.059665
744.799172	-18.177718
744.984254	-17.972131
745.169429	-18.044364
745.354696	-18.121300
745.540054	-18.135359
745.725505	-18.124057
745.911049	-18.136194
746.096684	-18.078436
746.282412	-18.107769
746.468233	-18.197795
746.654146	-18.083484
746.840152	-18.126229
747.026250	-18.367729
747.212442	-18.158485
747.398726	-18.391046
747.585103	-18.036230
747.771573	-18.048424
747.958136	-18.234226
748.144792	-18.260320
748.331541	-18.328781
748.518384	-18.476161
748.705320	-18.303454
748.892349	-18.220213
749.079472	-18.110541
749.266688	-18.128775
749.453998	-18.318733
749.641401	-18.521790
749.828899	-18.417548
750.016490	-18.231766
750.204175	-18.322316
750.391954	-18.151259
750.579827	-18.418671
750.767794	-18.424979
750.955855	-18.327192
751.144011	-18.560816
751.332260	-18.407458
751.520605	-18.323237
751.709043	-18.428715
751.897576	-18.405110
752.086204	-18.473962
752.274927	-18.450167
752.463744	-18.494921
752.652656	-18.298370
752.841663	-18.533943
753.030764	-18.103310
753.219961	-18.211819
753.409253	-18.325409
753.598640	-18.269940
753.788123	-18.412644
753.977700	-18.269661
754.167373	-18.097817
754.357142	-18.189692
754.547006	-18.036372
754.736965	-18.161140
754.927020	-18.156261
755.117171	-18.236497
755.307418	-18.199416
755.497761	-18.134132
755.688200	-17.996681
755.878734	-18.126978
756.069365	-18.068181
756.260092	-18.102886
756.450915	-18.207919
756.641835	-18.100572
756.832851	-18.088401
757.023963	-18.088339
757.215172	-17.861208
757.406478	-18.199252
757.597880	-17.995754
757.789379	-17.977891
757.980975	-17.855038
758.172668	-17.888480
758.364457	-17.767820
758.556344	-17.820570
758.748328	-17.927501
758.940409	-17.901122
759.132588	-17.976745
759.324864	-17.606368
759.517237	-17.613777
759.709707	-17.641950
759.902276	-17.719105
760.094942	-17.882497
760.287705	-17.616840
760.480567	-17.815763
760.673526	-17.608373
760.866583	-17.544154
761.059738	-17.467501
761.252992	-17.541244
761.446343	-17.386177
761.639793	-17.470832
761.833341	-17.451339
762.026988	-17.433239
762.220733	-17.524261
762.414576	-17.197292
762.608518	-17.292045
762.802559	-17.280490
762.996699	-17.479171
763.190937	-17.318953
763.385274	-17.123025
763.579711	-17.164600
763.774246	-17.291097
763.968881	-17.280732
764.163615	-17.308732
764.358448	-17.279544
764.553380	-16.982192
764.748412	-16.984847
764.943544	-16.991565
765.138775	-17.166529
765.334105	-17.338770
765.529536	-17.141735
765.725066	-17.160224
765.920696	-16.891934
766.116427	-17.058139
766.312257	-17.023462
766.508187	-17.046930
766.704218	-17.129351
766.900349	-17.250338
767.096580	-17.109674
767.292912	-17.008349
767.489344	-17.093897
767.685877	-17.014784
767.882511	-17.146947
768.079245	-16.981448
768.276080	-17.312123
768.473016	-17.133377
768.670053	-17.130035
768.867191	-17.138050
769.064430	-17.130619
769.261771	-17.179844
769.459213	-17.133317
769.656756	-17.172821
769.854401	-17.168085
770.052147	-17.202524
770.249994	-17.147179
770.447944	-17.348030
770.645995	-17.244619
770.844148	-17.376955
771.042403	-17.130222
771.240760	-17.130515
771.439219	-17.293004
771.637780	-17.374137
771.836444	-17.466992
772.035210	-17.312376
772.234078	-17.320546
772.433049	-17.258740
772.632122	-17.262417
772.831298	-17.373318
773.030576	-17.607634
773.229958	-17.362671
773.429442	-17.346972
773.629029	-17.208475
773.828720	-17.529485
774.028513	-17.513210
774.228410	-17.416877
774.428409	-17.449007
774.628513	-17.339243
774.828719	-17.385616
775.029029	-17.341936
775.229443	-17.499418
775.429961	-17.531806
775.630582	-17.528397
775.831307	-17.422081
776.032136	-17.554419
776.233069	-17.189715
776.434106	-17.264002
776.635247	-17.199052
776.836492	-17.671492
777.037842	-17.654318
777.239296	-17.411259
777.440855	-17.212503
777.642518	-17.081302
777.844286	-17.261550
778.046158	-17.341632
778.248136	-17.432169
778.450218	-17.346387
778.652405	-17.203705
778.854698	-17.180226
779.057095	-17.312408
779.259598	-17.146340
779.462206	-17.154132
779.664919	-17.079075
779.867738	-17.402167
780.070662	-17.341348
780.273692	-17.166325
780.476828	-17.058033
780.680070	-17.015559
780.883417	-17.067645
781.086870	-17.045931
781.290430	-17.009304
781.494095	-17.162398
781.697867	-16.985196
781.901745	-17.148784
782.105729	-16.949370
782.309820	-16.964250
782.514018	-16.785667
782.718322	-16.843016
782.922732	-17.036473
783.127250	-17.030696
783.331874	-16.963250
783.536606	-16.828933
783.741444	-16.725161
783.946390	-16.843520
784.151442	-16.818071
784.356602	-17.007337
784.561870	-16.801273
784.767245	-16.740934
784.972727	-16.715313
785.178317	-16.783325
785.384015	-16.812164
785.589821	-16.748402
785.795734	-16.803983
786.001756	-16.754439
786.207885	-16.603592
786.414123	-16.697293
786.620469	-16.830150
786.826923	-16.925006
787.033486	-16.722454
787.240157	-16.638050
787.446936	-16.731053
787.653825	-16.688257
787.860822	-16.745666
788.067928	-16.762438
788.275142	-16.885998
788.482466	-16.838873
788.689899	-16.703451
788.897441	-16.668607
789.105092	-16.598365
789.312853	-16.841385
789.520723	-16.969556
789.728703	-16.937023
789.936792	-16.674163
790.144991	-16.631902
790.353300	-16.857260
790.561718	-16.874924
790.770247	-16.834996
790.978885	-16.896020
791.187634	-17.013895
791.396493	-16.991393
791.605462	-16.783319
791.814541	-16.895921
792.023731	-16.876307
792.233032	-17.017049
792.442443	-16.894051
792.651965	-16.918172
792.861598	-16.797055
793.071342	-16.900743
793.281196	-17.000301
793.491162	-16.971270
793.701239	-16.778403
793.911427	-16.813784
794.121727	-16.876206
794.332138	-17.040120
794.542661	-16.791976
794.753295	-16.887753
794.964041	-16.691399
795.174898	-16.911597
795.385868	-16.930098
795.596949	-17.057346
795.808143	-16.857932
796.019449	-16.710767
796.230867	-16.911144
796.442397	-16.972837
796.654040	-16.981824
796.865795	-16.813842
797.077663	-16.785767
797.289644	-16.798016
797.501737	-16.853013
797.713943	-17.029925
797.926262	-17.001666
798.138695	-16.828121
798.351240	-16.610272
798.563899	-16.549178
798.776671	-16.803906
798.989556	-16.893290
799.202555	-16.965621
799.415667	-16.730467
799.628893	-16.677283
799.842233	-16.503363
800.055687	-16.690149
800.269255	-16.806326
800.482937	-16.908419
800.696733	-16.851722
800.910643	-16.573778
801.124667	-16.462308
801.338806	-16.412310
801.553060	-16.915671
801.767428	-16.759941
801.981910	-16.637476
802.196508	-16.409163
802.411220	-16.603845
802.626047	-16.592941
802.840990	-16.582021
803.056047	-16.592416
803.271220	-16.509166
803.486508	-16.541357
803.701912	-16.509101
803.917431	-16.621949
804.133066	-16.447112
804.348816	-16.613518
804.564682	-16.615535
804.780664	-16.520882
804.996763	-16.370286
805.212977	-16.449514
805.429307	-16.565944
805.645754	-16.487951
805.862317	-16.515984
806.078996	-16.459829
806.295792	-16.508431
806.512705	-16.510833
806.729734	-16.589324
806.946881	-16.475647
807.164144	-16.556114
807.381524	-16.610602
807.599021	-16.440362
807.816636	-16.321411
808.034368	-16.360891
808.252217	-16.657931
808.470184	-16.639175
808.688268	-16.642667
808.906470	-16.521238
809.124790	-16.510964
809.343227	-16.426130
809.561783	-16.582474
809.780457	-16.650190
809.999249	-16.579851
810.218159	-16.562120
810.437187	-16.396587
810.656334	-16.459161
810.875600	-16.442811
811.094984	-16.738739
811.314487	-16.766142
811.534108	-16.720361
811.753849	-16.451352
811.973709	-16.412726
812.193688	-16.458960
812.413786	-16.579037
812.634003	-16.734631
812.854340	-16.461956
813.074796	-16.593813
813.295372	-16.604500
813.516068	-16.637589
813.736883	-16.476116
813.957818	-16.665200
814.178874	-16.706266
814.400049	-16.641894
814.621345	-16.605502
814.842761	-16.573808
815.064297	-16.627777
815.285954	-16.623501
815.507731	-16.708254
815.729630	-16.665425
815.951648	-16.682952
816.173788	-16.775053
816.396049	-16.731266
816.618431	-16.552447
816.840934	-16.632738
817.063558	-16.726698
817.286304	-16.734393
817.509171	-16.503418
817.732160	-16.578795
817.955270	-16.497368
818.178503	-16.689459
818.401857	-16.597604
818.625333	-16.573148
818.848931	-16.748511
819.072651	-16.794759
819.296494	-16.596751
819.520459	-16.382562
819.744547	-16.577760
819.968757	-16.637216
820.193089	-16.591555
820.417545	-16.616601
820.642123	-16.606324
820.866825	-16.534121
821.091649	-16.489480
821.316597	-16.521937
821.541668	-16.590919
821.766862	-16.431896
821.992180	-16.496153
822.217622	-16.388704
822.443187	-16.451024
822.668876	-16.459401
822.894689	-16.448532
823.120625	-16.387605
823.346686	-16.377200
823.572872	-16.543187
823.799181	-16.616390
824.025615	-16.522317
824.252173	-16.365590
824.478856	-16.100142
824.705664	-16.259240
824.932596	-16.468230
825.159654	-16.395791
825.386836	-16.249244
825.614144	-16.183161
825.841577	-16.280216
826.069135	-16.297027
826.296819	-16.480422
826.524628	-16.516673
826.752562	-16.305128
826.980623	-16.160196
827.208809	-16.028374
827.437122	-16.178107
827.665560	-16.474379
827.894125	-16.272253
828.122816	-16.076598
828.351633	-16.027769
828.580577	-16.247940
828.809647	-16.359597
829.038844	-16.299315
829.268168	-16.310133
829.497619	-16.239117
829.727196	-16.066199
829.956901	-16.071198
830.186733	-16.155049
830.416693	-16.348304
830.646780	-16.129594
830.876994	-15.971661
831.107336	-16.147485
831.337806	-16.324313
831.568403	-16.251582
831.799129	-16.140127
832.029982	-16.135726
832.260964	-16.121938
832.492074	-15.967520
832.723313	-16.167429
832.954680	-16.198162
833.186175	-16.122322
833.417800	-16.083805
833.649553	-16.017490
833.881435	-16.035065
834.113446	-16.185690
834.345586	-16.099344
834.577856	-16.018628
834.810255	-15.999258
835.042783	-16.205716
835.275441	-16.232190
835.508228	-16.037922
835.741146	-15.895750
835.974193	-15.967616
836.207370	-15.965488
836.440677	-16.083320
836.674115	-16.092966
836.907683	-16.009904
837.141381	-15.943734
837.375210	-15.959332
837.609170	-16.117711
837.843260	-16.231301
838.077481	-16.031797
838.311834	-15.840156
838.546317	-15.751924
838.780931	-15.976407
839.015677	-16.186524
839.250555	-15.981762
839.485563	-15.861972
839.720704	-15.982210
839.955976	-15.919228
840.191380	-15.889391
840.426916	-16.100696
840.662584	-16.089926
840.898385	-15.857808
841.134318	-15.777069
841.370383	-15.943028
841.606580	-15.964526
841.842911	-15.862817
842.079374	-15.908629
842.315970	-15.995660
842.552699	-15.938319
842.789561	-15.907723
843.026556	-15.844933
843.263685	-15.888250
843.500947	-15.924070
843.738342	-15.892890
843.975872	-15.898596
844.213535	-15.969891
844.451332	-15.853274
844.689263	-15.794114
844.927328	-15.884468
845.165527	-15.951078
845.403860	-15.870938
845.642329	-15.723442
845.880931	-15.817629
846.119668	-15.950515
846.358541	-15.788363
846.597548	-15.844697
846.836690	-15.844830
847.075967	-15.639733
847.315379	-15.834443
847.554927	-15.944436
847.794611	-15.683407
848.034429	-15.768565
848.274384	-15.804753
848.514475	-15.515453
848.754701	-15.805940
848.995063	-15.953867
849.235562	-15.543240
849.476197	-15.548178
849.716968	-15.830189
849.957876	-15.588673
850.198921	-15.579620
850.440102	-15.850920
850.681420	-15.644570
850.922875	-15.449505
851.164467	-15.617807
851.406197	-15.675521
851.648064	-15.547054
851.890068	-15.528002
852.132210	-15.486090
852.374489	-15.611086
852.616907	-15.522314
852.859462	-15.394159
853.102155	-15.468434
853.344987	-15.540605
853.587957	-15.504577
853.831065	-15.460077
854.074311	-15.409643
854.317697	-15.355876
854.561221	-15.439678
854.804884	-15.441131
855.048686	-15.434982
855.292627	-15.368216
855.536707	-15.222459
855.780927	-15.280959
856.025286	-15.497506
856.269784	-15.311705
856.514423	-15.205089
856.759201	-15.318912
857.004119	-15.227451
857.249177	-15.151342
857.494376	-15.416475
857.739714	-15.365676
857.985194	-15.028797
858.230813	-15.183203
858.476574	-15.352442
858.722475	-15.133879
858.968517	-15.120489
859.214700	-15.326847
859.461024	-15.111183
859.707490	-14.962457
859.954097	-15.218214
860.200845	-15.163792
860.447735	-15.037946
860.694767	-15.133360
860.941941	-15.058557
861.189257	-14.989807
861.436714	-15.104414
861.684315	-15.088693
861.932057	-15.036345
862.179942	-15.061685
862.427970	-14.927813
862.676140	-15.002133
862.924453	-15.132624
863.172909	-14.930764
863.421509	-14.954481
863.670251	-15.104645
863.919137	-14.867806
864.168167	-14.833270
864.417340	-15.101975
864.666657	-14.996008
864.916117	-14.874253
865.165722	-14.895617
865.415470	-14.910778
865.665363	-14.869465
865.915401	-14.986312
866.165582	-15.029255
866.415909	-14.857982
866.666380	-14.739492
866.916996	-14.950184
867.167757	-15.171521
867.418663	-14.896345
867.669714	-14.753729
867.920911	-15.037847
868.172253	-14.992048
868.423741	-14.874878
868.675374	-15.058306
868.927154	-15.023377
869.179079	-14.823116
869.431151	-14.960713
869.683369	-15.067569
869.935733	-14.984141
870.188243	-15.002122
870.440901	-14.918644
870.693705	-14.932550
870.946656	-15.091026
871.199753	-14.932065
871.452999	-14.990223
871.706391	-15.120703
871.959931	-14.876704
872.213618	-14.882774
872.467453	-15.185139
872.721436	-15.037278
872.975566	-14.871349
873.229845	-15.007786
873.484272	-15.063539
873.738847	-15.052712
873.993570	-14.966531
874.248443	-14.989431
874.503464	-15.129763
874.758633	-14.994516
875.013952	-14.971925
875.269420	-15.067550
875.525036	-15.068222
875.780803	-15.105183
876.036719	-15.020570
876.292784	-14.874713
876.548999	-15.153444
876.805364	-15.196156
877.061879	-14.919607
877.318544	-14.984900
877.575359	-15.064849
877.832325	-15.041449
878.089442	-15.125589
878.346708	-15.009459
878.604126	-14.945862
878.861695	-15.010913
879.119415	-15.022543
879.377286	-15.133770
879.635308	-15.056974
879.893482	-14.842492
880.151807	-14.950357
880.410284	-15.182831
880.668913	-14.986367
880.927694	-14.918704
881.186627	-15.034706
881.445712	-14.953358
881.704950	-14.935673
881.964340	-15.015406
882.223883	-15.041396
882.483579	-14.925740
882.743427	-14.898873
883.003429	-15.001644
883.263584	-14.940880
883.523892	-14.901497
883.784354	-15.046374
884.044969	-14.966247
884.305738	-14.821788
884.566661	-14.934381
884.827738	-14.872860
885.088969	-15.028165
885.350355	-14.974256
885.611895	-14.725332
885.873589	-14.873797
886.135438	-15.008958
886.397442	-14.868812
886.659601	-14.807882
886.921915	-14.792737
887.184385	-14.901671
887.447009	-15.005845
887.709790	-14.739815
887.972726	-14.726222
888.235817	-14.780161
888.499065	-14.914982
888.762469	-14.907654
889.026029	-14.697388
889.289745	-14.789714
889.553618	-14.786993
889.817647	-14.724499
890.081834	-14.778026
890.346177	-14.793659
890.610677	-14.791408
890.875335	-14.748152
891.140149	-14.652150
891.405122	-14.830820
891.670252	-14.725226
891.935539	-14.648045
892.200985	-14.821874
892.466588	-14.639615
892.732350	-14.856280
892.998270	-14.793786
893.264349	-14.526641
893.530586	-14.707519
893.796982	-14.815142
894.063537	-14.709581
894.330251	-14.764473
894.597124	-14.697332
894.864156	-14.772071
895.131348	-14.737275
895.398699	-14.730339
895.666211	-14.760717
895.933882	-14.665582
896.201713	-14.840759
896.469704	-14.795504
896.737856	-14.768367
897.006168	-14.868215
897.274640	-14.763534
897.543274	-14.711094
897.812068	-14.871185
898.081024	-14.814434
898.350140	-14.892707
898.619418	-14.773697
898.888857	-14.860935
899.158459	-14.992793
899.428221	-14.816543
899.698146	-14.870575
899.968233	-14.809365
900.238482	-14.805012
900.508893	-15.052403
900.779467	-14.864748
901.050203	-14.838800
901.321103	-14.995819
901.592165	-14.866931
901.863390	-14.975508
902.134779	-14.870099
902.406331	-14.874899
902.678046	-14.899161
902.949925	-14.919045
903.221968	-15.045995
903.494175	-14.941300
903.766546	-14.944790
904.039081	-14.979747
904.311781	-14.936475
904.584645	-15.087968
904.857674	-14.895853
905.130868	-14.857533
905.404227	-14.983751
905.677751	-15.042482
905.951440	-15.067957
906.225295	-14.874565
906.499316	-14.968305
906.773502	-15.060908
907.047854	-15.006412
907.322372	-14.992644
907.597057	-14.834409
907.871907	-14.917466
908.146925	-15.115174
908.422109	-14.894948
908.697459	-15.043663
908.972977	-14.950550
909.248662	-14.990183
909.524514	-15.126316
909.800534	-15.000304
910.076721	-14.997776
910.353076	-14.942117
910.629599	-14.933936
910.906289	-15.017584
911.183148	-14.944257
911.460176	-14.941617
911.737372	-14.862693
912.014736	-14.990813
912.292270	-14.998086
912.569972	-14.950683
912.847843	-14.983033
913.125884	-14.869006
913.404094	-14.964026
913.682474	-14.888673
913.961023	-14.880326
914.239742	-14.846211
914.518632	-14.802621
914.797691	-14.830699
915.076921	-14.758507
915.356322	-14.846683
915.635893	-14.792172
915.915635	-14.808912
916.195548	-14.859268
916.475632	-14.700052
916.755887	-14.834801
917.036314	-14.842287
917.316912	-14.795011
917.597683	-14.710271
917.878625	-14.657192
918.159739	-14.678102
918.441025	-14.766983
918.722484	-14.709064
919.004116	-14.526875
919.285920	-14.679194
919.567897	-14.630828
919.850047	-14.685732
920.132370	-14.722302
920.414867	-14.661381
920.697537	-14.658483
920.980381	-14.715622
921.263398	-14.642549
921.546590	-14.761838
921.829956	-14.681825
922.113496	-14.732812
922.397210	-14.597275
922.681100	-14.746575
922.965164	-14.620100
923.249403	-14.717193
923.533817	-14.787481
923.818406	-14.652092
924.103171	-14.612941
924.388111	-14.705209
924.673228	-14.630060
924.958520	-14.864497
925.243988	-14.678345
925.529633	-14.683448
925.815453	-14.721095
926.101451	-14.819612
926.387625	-14.744496
926.673976	-14.857463
926.960505	-14.836697
927.247210	-14.844730
927.534093	-14.836770
927.821154	-14.773834
928.108392	-14.915493
928.395808	-14.943910
928.683402	-14.993289
928.971175	-14.832292
929.259126	-14.951626
929.547255	-14.867360
929.835563	-14.999109
930.124050	-14.912675
930.412716	-15.031722
930.701562	-14.938643
930.990586	-15.010066
931.279791	-14.858592
931.569175	-15.102820
931.858739	-14.959936
932.148483	-15.025398
932.438407	-15.151735
932.728512	-14.943734
933.018797	-15.082121
933.309263	-14.941077
933.599910	-15.218309
933.890738	-15.131410
934.181747	-15.060423
934.472938	-15.195948
934.764310	-15.145785
935.055864	-15.150319
935.347600	-15.076279
935.639518	-15.226288
935.931618	-15.307147
936.223901	-15.189106
936.516366	-15.260622
936.809014	-15.182257
937.101845	-15.277399
937.394859	-15.228906
937.688057	-15.240377
937.981438	-15.407241
938.275003	-15.248569
938.568751	-15.351223
938.862683	-15.314460
939.156800	-15.273925
939.451101	-15.273128
939.745586	-15.394581
940.040256	-15.313722
940.335111	-15.472146
940.630151	-15.217391
940.925376	-15.464571
941.220787	-15.335373
941.516383	-15.265332
941.812165	-15.396549
942.108133	-15.378630
942.404286	-15.467779
942.700626	-15.298147
942.997153	-15.459423
943.293866	-15.259059
943.590766	-15.509819
943.887853	-15.218136
944.185127	-15.443023
944.482588	-15.490951
944.780237	-15.301716
945.078073	-15.585533
945.376097	-15.231897
945.674309	-15.517269
945.972710	-15.348665
946.271299	-15.462567
946.570076	-15.386407
946.869042	-15.531413
947.168197	-15.446283
947.467541	-15.510199
947.767075	-15.513659
948.066798	-15.321053
948.366710	-15.725239
948.666812	-15.315113
948.967105	-15.653932
949.267587	-15.450574
949.568260	-15.610667
949.869123	-15.664667
950.170177	-15.477262
950.471422	-15.566864
950.772858	-15.618617
951.074486	-15.590577
951.376304	-15.448822
951.678315	-15.746865
951.980517	-15.472085
952.282911	-15.795128
952.585497	-15.451227
952.888276	-15.715584
953.191247	-15.614383
953.494411	-15.552516
953.797768	-15.683695
954.101318	-15.624363
954.405061	-15.650898
954.708997	-15.673231
955.013128	-15.849582
955.317452	-15.548994
955.621970	-15.991858
955.926682	-15.571810
956.231589	-16.004734
956.536690	-15.609898
956.841986	-15.972637
957.147477	-15.896530
957.453163	-15.792916
957.759045	-16.015045
958.065122	-15.945445
958.371394	-15.955620
958.677863	-15.936898
958.984527	-16.036765
959.291388	-15.987604
959.598445	-15.947900
959.905699	-16.084616
960.213150	-16.113871
960.520798	-16.162291
960.828643	-16.124046
961.136685	-16.288086
961.444925	-16.298122
961.753363	-16.291516
962.061998	-16.481485
962.370832	-16.203139
962.679864	-16.551731
962.989095	-16.374062
963.298524	-16.558402
963.608153	-16.396597
963.917980	-16.581732
964.228007	-16.553177
964.538233	-16.624501
964.848659	-16.630549
965.159285	-16.714205
965.470110	-16.699536
965.781136	-16.766538
966.092363	-16.764689
966.403790	-16.891831
966.715418	-16.844252
967.027247	-16.773897
967.339278	-16.995859
967.651510	-16.935089
967.963943	-16.873568
968.276578	-17.005895
968.589415	-16.912421
968.902455	-17.131708
969.215697	-16.959793
969.529141	-17.153196
969.842788	-17.041445
970.156639	-17.053154
970.470692	-17.193758
970.784949	-17.141131
971.099409	-17.122120
971.414074	-17.231453
971.728942	-17.085187
972.044014	-17.187209
972.359291	-17.229581
972.674772	-17.372288
972.990459	-17.196115
973.306350	-17.314658
973.622446	-17.442339
973.938748	-17.270433
974.255255	-17.352062
974.571968	-17.523770
974.888887	-17.206040
975.206012	-17.501586
975.523344	-17.298712
975.840882	-17.560689
976.158627	-17.458051
976.476579	-17.582282
976.794738	-17.512494
977.113105	-17.570629
977.431679	-17.557775
977.750461	-17.695827
978.069451	-17.464543
978.388649	-17.716757
978.708056	-17.551546
979.027671	-17.628266
979.347495	-17.659525
979.667528	-17.808311
979.987770	-17.688510
980.308222	-17.711401
980.628883	-17.826542
980.949755	-17.574328
981.270836	-17.779577
981.592127	-17.765055
981.913629	-17.817607
982.235342	-17.847938
982.557265	-17.833956
982.879400	-17.832278
983.201746	-17.955505
983.524303	-17.800681
983.847073	-18.054720
984.170054	-17.832360
984.493247	-18.071409
984.816652	-17.915540
985.140270	-17.983233
985.464101	-18.060725
985.788145	-18.052527
986.112402	-18.110507
986.436872	-18.185292
986.761556	-18.202914
987.086454	-18.270732
987.411566	-18.156668
987.736892	-18.445028
988.062432	-18.242077
988.388187	-18.280580
988.714157	-18.467965
989.040342	-18.386864
989.366743	-18.583761
989.693359	-18.583413
990.020190	-18.867600
990.347238	-18.585024
990.674501	-18.861679
991.001981	-18.702013
991.329678	-18.753251
991.657591	-18.940476
991.985722	-18.863991
992.314069	-18.902192
992.642634	-19.200892
992.971417	-18.918195
993.300418	-19.241372
993.629636	-19.238930
993.959073	-19.265371
994.288729	-19.089907
994.618603	-19.361289
994.948696	-19.245295
995.279009	-19.242712
995.609540	-19.580854
995.940292	-19.241687
996.271263	-19.609446
996.602454	-19.598880
996.933866	-19.629822
997.265498	-19.570915
997.597350	-19.462267
997.929424	-19.447842
998.261719	-19.680517
998.594235	-19.680961
998.926973	-19.599021
999.259932	-19.552598
999.593114	-19.973827
999.926518	-19.698574
1000.260144	-20.134073
1000.593993	-19.845075
1000.928065	-19.845651
1001.262360	-19.792482
1001.596879	-19.904398
1001.931621	-19.892918
1002.266587	-19.691714
1002.601777	-20.061279
1002.937191	-19.964501
1003.272830	-20.158182
1003.608693	-20.120699
1003.944782	-19.973753
1004.281095	-19.989520
1004.617634	-20.066445
1004.954399	-20.004133
1005.291389	-19.752314
1005.628606	-19.954025
1005.966049	-19.967657
1006.303718	-20.268817
1006.641614	-20.232692
1006.979737	-19.949888
1007.318088	-20.158581
1007.656666	-20.061000
1007.995471	-20.046140
1008.334505	-19.775659
1008.673766	-19.746276
1009.013256	-19.721960
1009.352975	-19.969746
1009.692922	-19.929570
1010.033098	-20.035392
1010.373504	-20.039671
1010.714139	-20.030714
1011.055004	-19.903018
1011.396099	-19.883340
1011.737425	-19.415934
1012.078980	-19.774314
1012.420767	-19.486661
1012.762784	-19.528002
1013.105032	-19.622768
1013.447512	-19.846763
1013.790224	-19.903604
1014.133167	-20.047765
1014.476343	-19.810753
1014.819750	-19.692715
1015.163391	-19.732743
1015.507264	-19.495302
1015.851370	-19.238696
1016.195710	-19.226243
1016.540283	-19.359446
1016.885089	-19.654023
1017.230130	-19.773217
1017.575405	-19.831488
1017.920914	-20.034442
1018.266659	-19.963167
1018.612638	-19.901135
1018.958852	-19.373691
1019.305302	-19.318443
1019.651987	-19.145244
1019.998908	-19.182937
1020.346066	-19.096547
1020.693460	-19.450243
1021.041090	-19.703924
1021.388958	-19.844399
1021.737062	-19.909211
1022.085404	-20.039870
1022.433983	-19.623603
1022.782801	-19.474007
1023.131856	-19.093998
1023.481150	-18.868287
1023.830682	-18.910630
1024.180453	-18.792362
1024.530463	-19.065028
1024.880713	-19.230749
1025.231202	-19.634529
1025.581931	-19.824501
1025.932899	-19.951488
1026.284109	-19.575960
1026.635558	-19.764676
1026.987249	-19.032498
1027.339180	-18.839918
1027.691353	-18.631519
1028.043768	-18.429631
1028.396424	-18.740133
1028.749322	-18.805039
1029.102462	-19.296881
1029.455845	-19.551967
1029.809471	-20.004807
1030.163340	-19.944414
1030.517452	-19.985732
1030.871808	-19.310162
1031.226407	-19.028733
1031.581250	-18.727252
1031.936338	-18.479846
1032.291670	-18.456591
1032.647247	-18.551244
1033.003070	-18.889504
1033.359137	-19.515383
1033.715450	-19.850208
1034.072009	-19.873343
1034.428813	-20.338334
1034.785865	-19.715579
1035.143162	-19.423312
1035.500707	-18.743370
1035.858498	-18.478786
1036.216537	-18.249660
1036.574824	-17.974778
1036.933358	-18.146927
1037.292141	-18.261347
1037.651171	-18.635337
1038.010451	-18.901914
1038.369979	-19.004584
1038.729757	-18.906721
1039.089784	-18.920172
1039.450060	-18.354568
1039.810587	-17.938041
1040.171363	-17.589355
1040.532390	-17.230114
1040.893668	-17.125988
1041.255197	-16.928369
1041.616977	-17.086212
1041.979008	-17.452689
1042.341292	-17.675131
1042.703827	-18.018996
1043.066614	-18.318507
1043.429654	-18.444194
1043.792947	-18.379750
1044.156493	-18.157852
1044.520292	-17.775802
1044.884345	-17.653486
1045.248652	-17.218212
1045.613213	-17.225508
1045.978028	-17.155041
1046.343098	-17.223012
1046.708423	-17.714189
1047.074002	-17.791951
1047.439838	-18.192807
1047.805929	-18.398176
1048.172276	-18.419803
1048.538880	-18.207880
1048.905740	-17.861701
1049.272856	-17.471469
1049.640230	-17.058680
1050.007861	-16.675043
1050.375750	-16.441277
1050.743897	-16.295409
1051.112302	-16.205381
1051.480965	-16.262788
1051.849887	-16.479751
1052.219068	-16.497809
1052.588508	-16.752786
1052.958207	-16.726157
1053.328167	-16.891357
1053.698386	-16.670701
1054.068866	-16.559000
1054.439607	-16.358527
1054.810608	-16.232092
1055.181871	-16.178203
1055.553395	-16.018240
1055.925180	-16.159355
1056.297228	-16.275991
1056.669538	-16.417168
1057.042110	-16.803908
1057.414946	-17.014951
1057.788044	-17.444279
1058.161406	-17.601134
1058.535031	-17.938938
1058.908921	-17.948279
1059.283074	-17.812769
1059.657492	-17.809080
1060.032175	-17.422016
1060.407123	-17.509136
1060.782336	-17.009500
1061.157815	-17.021320
1061.533560	-17.011550
1061.909571	-16.765971
1062.285849	-17.008720
1062.662393	-16.887244
1063.039204	-16.942750
1063.416283	-16.904560
1063.793629	-16.786687
1064.171243	-16.752333
1064.549125	-16.422875
1064.927276	-16.205727
1065.305696	-15.907409
1065.684384	-15.696359
1066.063342	-15.431024
1066.442569	-15.276149
1066.822067	-15.185390
1067.201834	-15.171070
1067.581872	-15.134180
1067.962181	-15.352924
1068.342761	-15.411541
1068.723612	-15.680439
1069.104735	-15.759340
1069.486130	-15.997144
1069.867797	-16.171798
1070.249736	-16.116474
1070.631948	-16.365438
1071.014434	-16.200810
1071.397193	-16.267328
1071.780225	-16.296352
1072.163531	-16.120717
1072.547112	-16.327681
1072.930967	-16.329762
1073.315097	-16.318432
1073.699503	-16.397199
1074.084183	-16.442675
1074.469140	-16.519404
1074.854372	-16.252996
1075.239881	-16.461216
1075.625666	-16.058666
1076.011729	-15.955231
1076.398068	-15.715890
1076.784685	-15.405522
1077.171580	-15.265681
1077.558753	-15.009660
1077.946205	-14.795214
1078.333935	-14.688741
1078.721944	-14.568459
1079.110233	-14.559011
1079.498801	-14.461979
1079.887649	-14.460271
1080.276778	-14.531326
1080.666187	-14.470236
1081.055876	-14.476576
1081.445847	-14.521797
1081.836100	-14.584880
1082.226634	-14.549887
1082.617450	-14.570551
1083.008549	-14.634538
1083.399930	-14.638445
1083.791594	-14.706601
1084.183542	-14.814780
1084.575773	-14.804048
1084.968288	-14.913916
1085.361087	-15.066553
1085.754170	-14.946754
1086.147539	-15.045023
1086.541193	-15.157585
1086.935132	-15.033257
1087.329357	-15.151533
1087.723868	-14.968338
1088.118665	-15.109938
1088.513749	-14.866910
1088.909120	-14.949037
1089.304778	-14.769430
1089.700724	-14.819964
1090.096958	-14.716997
1090.493481	-14.766177
1090.890291	-14.638378
1091.287391	-14.660427
1091.684780	-14.569278
1092.082458	-14.634915
1092.480426	-14.649582
1092.878685	-14.555930
1093.277234	-14.622590
1093.676073	-14.658667
1094.075204	-14.576320
1094.474626	-14.614238
1094.874340	-14.655676
1095.274346	-14.618583
1095.674644	-14.702626
1096.075236	-14.702274
1096.476120	-14.801144
1096.877297	-14.675893
1097.278768	-14.803618
1097.680533	-14.767589
1098.082593	-14.803603
1098.484947	-14.718940
1098.887596	-14.821877
1099.290540	-14.732497
1099.693780	-14.758684
1100.097316	-14.663486
1100.501148	-14.560677
1100.905277	-14.545675
1101.309703	-14.392890
1101.714426	-14.381221
1102.119446	-14.275863
1102.524765	-14.244405
1102.930381	-14.161920
1103.336296	-14.171629
1103.742510	-14.131056
1104.149024	-14.116609
1104.555837	-14.004074
1104.962949	-14.055877
1105.370362	-14.076167
1105.778076	-13.997574
1106.186090	-14.028497
1106.594406	-14.072560
1107.003023	-14.013033
1107.411942	-14.057270
1107.821163	-14.028082
1108.230687	-14.082134
1108.640514	-13.976790
1109.050643	-14.000132
1109.461077	-13.981942
1109.871814	-14.060841
1110.282856	-13.998157
1110.694202	-14.044391
1111.105853	-14.024047
1111.517809	-14.044159
1111.930071	-14.040366
1112.342639	-13.963721
1112.755513	-14.011777
1113.168694	-13.984011
1113.582182	-13.986731
1113.995977	-13.861420
1114.410079	-14.017569
1114.824490	-14.002593
1115.239209	-13.957923
1115.654236	-13.898082
1116.069573	-13.950198
1116.485219	-14.045690
1116.901174	-13.978460
1117.317440	-13.968048
1117.734016	-14.054955
1118.150903	-14.073416
1118.568101	-14.035992
1118.985610	-14.013965
1119.403431	-14.148655
1119.821565	-14.170900
1120.240010	-14.211032
1120.658769	-14.076230
1121.077841	-14.159463
1121.497226	-14.210406
1121.916926	-14.238907
1122.336939	-14.145763
1122.757267	-14.138570
1123.177910	-14.251259
1123.598869	-14.195231
1124.020143	-14.184202
1124.441733	-14.055709
1124.863639	-14.311885
1125.285862	-14.232881
1125.708402	-14.198815
1126.131260	-14.163200
1126.554436	-14.145535
1126.977929	-14.259946
1127.401741	-14.178510
1127.825872	-14.118455
1128.250323	-14.148268
1128.675093	-14.164570
1129.100182	-14.015871
1129.525593	-14.028447
1129.951323	-14.061490
1130.377375	-13.954128
1130.803749	-14.038797
1131.230444	-14.041016
1131.657461	-13.895185
1132.084801	-13.891689
1132.512463	-14.031865
1132.940449	-13.939986
1133.368758	-13.817002
1133.797392	-14.027398
1134.226349	-13.880686
1134.655632	-13.884070
1135.085239	-13.910841
1135.515172	-13.767157
1135.945431	-13.873578
1136.376016	-13.880254
1136.806927	-13.778081
1137.238166	-13.811327
1137.669732	-13.910561
1138.101625	-13.883492
1138.533846	-13.704334
1138.966396	-13.794888
1139.399275	-13.895212
1139.832483	-13.776449
1140.266020	-13.777181
1140.699887	-13.934175
1141.134085	-13.742107
1141.568613	-13.796836
1142.003472	-14.016127
1142.438663	-13.707700
1142.874186	-13.730291
1143.310040	-13.962652
1143.746227	-13.740855
1144.182748	-13.846509
1144.619601	-13.966971
1145.056789	-13.771408
1145.494310	-13.916927
1145.932166	-13.992727
1146.370356	-13.946152
1146.808882	-13.930552
1147.247744	-14.080136
1147.686942	-13.995490
1148.126476	-14.096954
1148.566346	-14.115198
1149.006554	-14.280618
1149.447100	-14.150935
1149.887983	-14.154550
1150.329205	-14.278494
1150.770766	-14.303661
1151.212665	-14.155730
1151.654904	-14.311446
1152.097484	-14.181004
1152.540403	-14.230300
1152.983663	-14.425179
1153.427264	-14.236115
1153.871207	-14.219657
1154.315491	-14.408908
1154.760118	-14.239736
1155.205087	-14.212967
1155.650400	-14.323233
1156.096056	-14.283467
1156.542056	-14.260195
1156.988400	-14.325214
1157.435088	-14.216159
1157.882122	-14.329830
1158.329501	-14.339230
1158.777226	-14.301795
1159.225298	-14.284677
1159.673715	-14.399373
1160.122480	-14.297338
1160.571593	-14.357314
1161.021053	-14.294648
1161.470862	-14.280742
1161.921019	-14.350976
1162.371525	-14.321286
1162.822381	-14.282725
1163.273587	-14.314338
1163.725143	-14.314411
1164.177049	-14.314238
1164.629307	-14.343200
1165.081916	-14.290959
1165.534878	-14.340330
1165.988191	-14.358632
1166.441858	-14.278668
1166.895877	-14.309906
1167.350250	-14.307519
1167.804977	-14.340989
1168.260059	-14.348140
1168.715495	-14.295938
1169.171286	-14.370323
1169.627434	-14.366731
1170.083937	-14.440787
1170.540797	-14.446049
1170.998013	-14.557328
1171.455587	-14.509610
1171.913519	-14.593093
1172.371809	-14.587702
1172.830457	-14.697271
1173.289464	-14.734919
1173.748831	-14.813649
1174.208558	-14.748961
1174.668645	-14.772457
1175.129093	-14.882228
1175.589901	-14.947711
1176.051072	-14.931141
1176.512604	-14.987646
1176.974499	-15.001456
1177.436756	-15.079681
1177.899377	-15.162397
1178.362361	-15.131175
1178.825710	-15.174973
1179.289423	-15.233877
1179.753501	-15.391083
1180.217944	-15.274372
1180.682753	-15.404427
1181.147929	-15.385652
1181.613471	-15.500470
1182.079380	-15.570974
1182.545657	-15.546781
1183.012302	-15.504852
1183.479315	-15.632973
1183.946697	-15.719155
1184.414449	-15.780228
1184.882570	-15.726728
1185.351061	-15.738554
1185.819923	-15.761923
1186.289156	-15.821208
1186.758761	-15.858217
1187.228737	-15.749970
1187.699086	-15.831453
1188.169808	-15.825103
1188.640903	-15.879146
1189.112372	-15.777561
1189.584215	-15.783847
1190.056432	-15.830712
1190.529025	-15.895624
1191.001993	-15.913441
1191.475337	-15.791770
1191.949057	-15.854230
1192.423154	-15.838661
1192.897629	-15.972746
1193.372481	-15.924156
1193.847711	-15.848019
1194.323320	-15.902335
1194.799309	-15.932012
1195.275676	-15.946784
1195.752424	-16.033011
1196.229552	-15.957245
1196.707061	-16.076381
1197.184952	-16.136484
1197.663224	-16.084034
1198.141879	-16.230236
1198.620916	-16.022881
1199.100337	-16.232512
1199.580141	-16.289035
1200.060329	-16.301315
1200.540902	-16.428120
1201.021860	-16.293717
1201.503204	-16.424562
1201.984933	-16.614961
1202.467049	-16.605700
1202.949552	-16.643316
1203.432443	-16.701328
1203.915721	-16.669966
1204.399387	-16.881284
1204.883442	-16.881007
1205.367887	-16.943103
1205.852721	-17.040501
1206.337945	-17.063003
1206.823560	-17.223174
1207.309566	-17.261073
1207.795964	-17.281693
1208.282754	-17.200078
1208.769936	-17.409548
1209.257511	-17.525671
1209.745480	-17.530589
1210.233843	-17.694145
1210.722600	-17.586779
1211.211752	-17.598320
1211.701300	-17.772484
1212.191244	-17.770949
1212.681583	-17.825681
1213.172320	-17.957335
1213.663454	-17.876891
1214.154986	-18.069671
1214.646916	-18.149332
1215.139245	-17.975145
1215.631974	-18.109075
1216.125102	-18.139960
1216.618630	-18.164277
1217.112559	-18.381602
1217.606889	-18.379009
1218.101621	-18.190136
1218.596755	-18.245071
1219.092292	-18.330665
1219.588232	-18.255567
1220.084575	-18.450665
1220.581323	-18.469373
1221.078476	-18.271329
1221.576033	-18.456515
1222.073996	-18.485081
1222.572366	-18.383106
1223.071142	-18.533921
1223.570325	-18.562774
1224.069916	-18.449684
1224.569915	-18.799004
1225.070323	-18.751699
1225.571139	-18.594450
1226.072366	-18.844691
1226.574002	-18.637466
1227.076049	-18.747335
1227.578508	-19.063934
1228.081378	-18.982222
1228.584660	-18.860360
1229.088355	-19.135415
1229.592463	-18.978248
1230.096984	-19.066037
1230.601920	-19.458803
1231.107271	-19.228177
1231.613037	-19.288861
1232.119218	-19.635921
1232.625816	-19.512941
1233.132831	-19.722980
1233.640262	-20.022633
1234.148112	-19.758550
1234.656380	-19.768324
1235.165067	-20.108193
1235.674173	-20.132085
1236.183699	-20.270781
1236.693645	-20.654626
1237.204012	-20.436483
1237.714801	-20.531512
1238.226011	-20.827977
1238.737644	-20.905829
1239.249700	-20.950755
1239.762180	-21.151445
1240.275083	-21.137103
1240.788411	-21.194042
1241.302165	-21.396366
1241.816343	-21.619025
1242.330948	-21.527993
1242.845980	-21.543203
1243.361439	-21.660995
1243.877325	-21.764116
1244.393640	-21.742528
1244.910384	-22.086451
1245.427557	-22.030561
1245.945160	-21.766538
1246.463193	-22.028715
1246.981657	-21.976520
1247.500553	-21.873557
1248.019881	-22.034060
1248.539641	-22.060235
1249.059835	-21.930707
1249.580462	-22.001906
1250.101523	-22.062922
1250.623019	-22.049232
1251.144950	-21.879537
1251.667318	-21.967713
1252.190121	-21.790518
1252.713361	-21.776806
1253.237039	-21.797541
1253.761155	-21.894940
1254.285710	-22.017749
1254.810703	-21.730012
1255.336136	-21.752523
1255.862010	-21.834994
1256.388324	-21.768516
1256.915080	-21.794733
1257.442277	-21.881321
1257.969917	-21.776851
1258.498000	-21.702463
1259.026526	-21.854011
1259.555497	-21.974413
1260.084912	-21.902474
1260.614773	-22.069977
1261.145079	-21.995497
1261.675831	-21.793051
1262.207031	-22.006358
1262.738678	-22.004885
1263.270773	-22.051246
1263.803317	-22.213886
1264.336310	-22.381536
1264.869752	-22.282132
1265.403645	-22.267572
1265.937989	-22.520300
1266.472784	-22.348663
1267.008032	-22.360670
1267.543732	-22.594223
1268.079885	-22.654604
1268.616492	-22.796713
1269.153553	-23.124443
1269.691069	-23.282903
1270.229041	-23.316520
1270.767468	-23.307543
1271.306353	-23.331420
1271.845694	-23.356461
1272.385494	-23.286970
1272.925752	-23.220185
1273.466469	-22.946585
1274.007645	-23.065212
1274.549282	-22.932310
1275.091379	-22.735390
1275.633937	-22.790673
1276.176958	-22.721069
1276.720441	-22.566046
1277.264387	-22.352584
1277.808797	-22.471762
1278.353671	-22.435137
1278.899010	-22.328355
1279.444815	-22.425035
1279.991085	-22.611350
1280.537822	-22.425052
1281.085027	-22.436521
1281.632699	-22.346848
1282.180840	-22.300394
1282.729450	-22.126186
1283.278530	-21.922481
1283.828080	-21.815233
1284.378100	-21.679704
1284.928592	-21.510805
1285.479557	-21.444108
1286.030994	-21.377085
1286.582904	-21.445075
1287.135288	-21.472485
1287.688147	-21.290762
1288.241481	-21.311069
1288.795291	-21.366411
1289.349577	-21.287979
1289.904340	-21.304626
1290.459580	-21.381519
1291.015299	-21.328842
1291.571497	-21.233099
1292.128174	-21.139187
1292.685331	-21.187607
1293.242969	-21.170940
1293.801088	-21.015953
1294.359689	-20.908825
1294.918773	-20.831195
1295.478340	-20.728328
1296.038390	-20.703657
1296.598925	-20.739795
1297.159946	-20.662384
1297.721451	-20.722921
1298.283444	-20.877426
1298.845923	-20.919202
1299.408890	-20.813536
1299.972345	-20.996139
1300.536288	-21.050984
1301.100722	-21.011945
1301.665645	-20.916620
1302.231060	-21.035460
1302.796965	-21.094274
1303.363363	-21.184321
1303.930254	-21.186227
1304.497637	-21.411766
1305.065515	-21.470574
1305.633888	-21.395501
1306.202755	-21.434285
1306.772119	-21.561279
1307.341979	-21.529259
1307.912337	-21.373700
1308.483192	-21.415319
1309.054546	-21.312419
1309.626399	-21.125466
1310.198752	-20.848297
1310.771606	-20.737925
1311.344960	-20.395153
1311.918816	-20.083776
1312.493175	-19.833624
1313.068037	-19.551510
1313.643403	-19.224410
1314.219273	-18.985828
1314.795649	-18.962541
1315.372530	-18.704930
1315.949917	-18.472047
1316.527812	-18.402908
1317.106214	-18.417398
1317.685125	-18.250737
1318.264545	-18.190942
1318.844475	-18.341876
1319.424916	-18.406559
1320.005867	-18.483906
1320.587330	-18.559239
1321.169306	-18.799315
1321.751795	-18.912421
1322.334798	-18.955010
1322.918315	-19.124832
1323.502348	-19.188822
1324.086896	-19.155234
1324.671961	-19.072879
1325.257543	-19.198368
1325.843644	-19.257265
1326.430262	-19.114962
1327.017401	-19.026848
1327.605059	-19.025849
1328.193238	-19.053396
1328.781938	-18.784529
1329.371161	-18.602915
1329.960906	-18.674675
1330.551174	-18.641032
1331.141967	-18.509573
1331.733285	-18.343140
1332.325128	-18.333664
1332.917498	-18.298414
1333.510395	-18.101131
1334.103819	-17.975989
1334.697772	-17.844268
1335.292253	-17.712379
1335.887265	-17.563163
1336.482807	-17.428703
1337.078881	-17.422947
1337.675486	-17.324750
1338.272624	-17.201397
1338.870295	-17.177114
1339.468500	-17.115004
1340.067241	-17.054761
1340.666516	-16.951649
1341.266328	-16.861795
1341.866677	-16.907211
1342.467564	-16.924009
1343.068988	-16.883089
1343.670953	-16.823512
1344.273456	-16.784165
1344.876501	-16.845670
1345.480087	-16.811102
1346.084214	-16.726720
1346.688885	-16.780535
1347.294099	-16.737660
1347.899857	-16.643391
1348.506160	-16.674775
1349.113009	-16.665809
1349.720405	-16.596599
1350.328347	-16.519792
1350.936837	-16.466504
1351.545877	-16.488018
1352.155465	-16.472482
1352.765603	-16.384646
1353.376293	-16.314722
1353.987534	-16.301497
1354.599327	-16.344918
1355.211674	-16.324660
1355.824574	-16.192053
1356.438030	-16.138583
1357.052040	-16.186680
1357.666607	-16.135188
1358.281730	-16.041768
1358.897411	-16.045952
1359.513651	-15.980305
1360.130449	-15.909760
1360.747808	-15.913242
1361.365727	-15.856814
1361.984208	-15.824467
1362.603251	-15.830239
1363.222857	-15.752464
1363.843027	-15.654415
1364.463761	-15.722894
1365.085060	-15.685025
1365.706926	-15.578632
1366.329358	-15.580248
1366.952358	-15.533938
1367.575927	-15.510409
1368.200064	-15.572377
1368.824772	-15.458666
1369.450050	-15.334908
1370.075900	-15.394742
1370.702322	-15.382124
1371.329317	-15.312904
1371.956886	-15.306479
1372.585030	-15.248875
1373.213749	-15.224840
1373.843045	-15.189930
1374.472917	-15.192628
1375.103367	-15.184409
1375.734396	-15.156652
1376.366005	-15.160748
1376.998193	-15.074873
1377.630963	-15.010345
1378.264314	-15.065848
1378.898248	-15.009500
1379.532765	-15.006326
1380.167867	-14.959477
1380.803554	-14.827028
1381.439826	-14.924090
1382.076685	-14.870439
1382.714132	-14.796753
1383.352167	-14.833892
1383.990791	-14.674959
1384.630005	-14.717575
1385.269810	-14.741835
1385.910206	-14.605438
1386.551194	-14.691982
1387.192776	-14.609742
1387.834952	-14.563666
1388.477723	-14.582182
1389.121089	-14.431921
1389.765052	-14.495746
1390.409612	-14.426410
1391.054770	-14.393702
1391.700527	-14.375627
1392.346885	-14.267427
1392.993842	-14.298458
1393.641402	-14.239062
1394.289563	-14.238214
1394.938328	-14.220120
1395.587697	-14.145598
1396.237671	-14.182982
1396.888250	-14.082584
1397.539436	-14.100918
1398.191229	-14.007970
1398.843631	-13.939795
1399.496642	-14.016605
1400.150262	-13.880398
1400.804494	-13.956769
1401.459337	-13.878839
1402.114793	-13.867310
1402.770862	-13.933400
1403.427545	-13.765457
1404.084844	-13.806739
1404.742758	-13.672938
1405.401290	-13.709055
1406.060439	-13.747303
1406.720206	-13.661664
1407.380594	-13.729483
1408.041601	-13.561811
1408.703230	-13.608130
1409.365480	-13.539428
1410.028354	-13.520767
1410.691851	-13.561815
1411.355974	-13.523184
1412.020722	-13.566183
1412.686096	-13.474181
1413.352098	-13.431777
1414.018728	-13.337371
1414.685987	-13.337678
1415.353876	-13.352491
1416.022396	-13.376975
1416.691548	-13.426672
1417.361332	-13.378253
1418.031751	-13.369385
1418.702803	-13.232339
1419.374492	-13.199129
1420.046816	-13.160169
1420.719778	-13.133984
1421.393378	-13.207073
1422.067617	-13.206006
1422.742496	-13.330412
1423.418015	-13.258034
1424.094177	-13.227474
1424.770981	-13.094620
1425.448429	-13.010939
1426.126521	-12.985392
1426.805259	-12.965142
1427.484643	-13.059174
1428.164675	-13.119301
1428.845355	-13.206344
1429.526684	-13.196358
1430.208663	-13.142921
1430.891292	-13.006465
1431.574574	-12.876505
1432.258509	-12.780930
1432.943098	-12.821144
1433.628341	-12.874591
1434.314240	-13.023365
1435.000796	-13.111539
1435.688009	-13.158173
1436.375881	-13.080010
1437.064412	-12.956806
1437.753604	-12.866188
1438.443457	-12.747652
1439.133972	-12.776114
1439.825150	-12.802913
1440.516993	-12.943999
1441.209501	-12.973324
1441.902675	-13.025791
1442.596517	-12.945594
1443.291026	-12.845715
1443.986204	-12.770020
1444.682053	-12.713634
1445.378572	-12.728536
1446.075763	-12.744844
1446.773628	-12.818194
1447.472166	-12.801957
1448.171379	-12.794441
1448.871268	-12.737800
1449.571833	-12.666203
1450.273077	-12.663354
1450.974999	-12.710525
1451.677601	-12.827161
1452.380884	-12.951784
1453.084848	-13.036811
1453.789496	-12.990721
1454.494827	-12.804663
1455.200842	-12.578438
1455.907544	-12.292763
1456.614932	-12.152691
1457.323008	-12.109576
1458.031773	-12.232390
1458.741228	-12.493179
1459.451373	-12.810525
1460.162210	-13.072317
1460.873740	-13.171788
1461.585963	-13.040132
1462.298881	-12.725416
1463.012496	-12.377407
1463.726807	-12.098118
1464.441816	-11.970703
1465.157523	-12.081389
1465.873931	-12.355260
1466.591040	-12.778098
1467.308850	-13.187421
1468.027364	-13.342811
1468.746581	-13.206948
1469.466504	-12.723939
1470.187133	-12.142456
1470.908469	-11.652050
1471.630513	-11.310256
1472.353266	-11.267155
1473.076730	-11.453895
1473.800905	-11.934853
1474.525792	-12.626054
1475.251393	-13.354419
1475.977708	-13.928185
1476.704739	-14.057979
1477.432486	-13.720310
1478.160951	-13.137342
1478.890135	-12.449615
1479.620038	-11.935614
1480.350662	-11.586992
1481.082009	-11.469653
1481.814078	-11.536923
1482.546871	-11.651793
1483.280389	-11.821394
1484.014634	-11.919610
1484.749606	-11.987564
1485.485306	-12.034685
1486.221736	-12.090408
1486.958896	-12.265871
1487.696788	-12.577280
1488.435412	-13.020444
1489.174770	-13.547632
1489.914864	-13.983511
1490.655693	-14.181372
1491.397259	-13.984188
1492.139564	-13.385963
1492.882607	-12.541128
1493.626392	-11.686969
1494.370917	-10.938092
1495.116186	-10.513031
1495.862198	-10.366778
1496.608954	-10.594373
1497.356457	-11.077616
1498.104707	-11.650479
1498.853705	-12.091182
1499.603453	-12.270443
1500.353951	-12.269628
1501.105200	-12.385679
1501.857202	-12.788940
1502.609958	-13.551849
1503.363469	-14.739230
1504.117736	-16.043683
1504.872760	-17.066316
1505.628543	-16.967972
1506.385085	-15.620498
1507.142388	-13.786310
1507.900453	-11.915864
1508.659280	-10.227940
1509.418872	-8.785720
1510.179229	-7.585100
1510.940353	-6.663806
1511.702244	-6.081982
1512.464903	-5.850414
1513.228333	-6.032850
1513.992534	-6.709018
1514.757507	-7.946858
1515.523253	-9.844100
1516.289775	-12.268623
1517.057071	-13.927366
1517.825145	-12.609536
1518.593997	-9.918484
1519.363628	-7.588883
1520.134040	-5.829210
1520.905234	-4.552570
1521.677210	-3.640425
1522.449970	-3.055604
1523.223516	-2.732285
1523.997848	-2.655119
1524.772968	-2.828473
1525.548877	-3.254381
1526.325575	-3.948458
1527.103065	-4.922146
1527.881348	-6.181279
1528.660424	-7.540588
1529.440295	-8.546284
1530.220963	-8.548585
1531.002427	-7.482633
1531.784690	-5.997770
1532.567753	-4.582088
1533.351617	-3.436150
1534.136284	-2.588719
1534.921754	-1.996247
1535.708028	-1.646716
1536.495109	-1.512773
1537.282996	-1.570283
1538.071692	-1.802823
1538.861198	-2.213700
1539.651515	-2.823852
1540.442644	-3.617891
1541.234586	-4.610743
1542.027343	-5.821671
1542.820916	-7.178592
1543.615306	-8.478581
1544.410515	-9.291531
1545.206544	-9.220967
1546.003393	-8.379359
1546.801065	-7.203286
1547.599560	-6.063892
1548.398880	-5.123795
1549.199026	-4.396387
1550.000000	-3.878512
1550.801802	-3.542135
1551.604435	-3.380296
1552.407898	-3.397457
1553.212194	-3.581958
1554.017324	-3.963774
1554.823289	-4.585180
1555.630090	-5.479600
1556.437730	-6.717979
1557.246208	-8.394957
1558.055526	-10.667920
1558.865687	-13.876529
1559.676690	-18.801157
1560.488537	-28.825301
1561.301231	-26.070031
1562.114771	-19.062951
1562.929159	-15.676518
1563.744397	-13.687464
1564.560486	-12.456155
1565.377427	-11.707532
1566.195221	-11.349401
1567.013871	-11.314167
1567.833377	-11.611536
1568.653740	-12.313470
1569.474962	-13.422725
1570.297045	-15.011051
1571.119989	-17.236047
1571.943797	-19.746905
1572.768469	-20.940988
1573.594006	-19.300957
1574.420411	-16.732579
1575.247684	-14.591376
1576.075826	-13.031750
1576.904840	-11.942498
1577.734727	-11.180594
1578.565488	-10.706747
1579.397124	-10.509267
1580.229636	-10.491454
1581.063027	-10.629695
1581.897297	-10.958978
1582.732448	-11.407129
1583.568482	-11.916091
1584.405399	-12.466042
1585.243201	-12.985847
1586.081890	-13.386567
1586.921467	-13.586896
1587.761933	-13.556821
1588.603289	-13.394453
1589.445538	-13.127793
1590.288680	-12.813954
1591.132718	-12.597439
1591.977652	-12.472921
1592.823483	-12.395549
1593.670214	-12.433177
1594.517846	-12.620890
1595.366379	-12.894703
1596.215817	-13.271138
1597.066159	-13.782839
1597.917408	-14.422899
1598.769565	-15.167145
1599.622631	-15.955959
1600.476608	-16.793885
1601.331497	-17.654901
1602.187300	-18.348123
1603.044018	-18.805231
1603.901653	-19.156798
1604.760207	-19.281285
1605.619679	-19.159185
1606.480073	-19.020200
1607.341390	-18.901939
1608.203630	-18.670456
1609.066796	-18.399571
1609.930890	-18.184541
1610.795911	-17.903234
1611.661863	-17.518502
1612.528747	-17.122344
1613.396563	-16.701528
1614.265314	-16.231012
1615.135001	-15.742574
1616.005626	-15.278835
1616.877190	-14.872591
1617.749694	-14.488411
1618.623141	-14.141518
1619.497531	-13.859484
1620.372867	-13.652783
1621.249149	-13.488562
1622.126380	-13.357351
1623.004560	-13.273180
1623.883692	-13.245706
1624.763776	-13.269318
1625.644816	-13.283682
1626.526811	-13.328609
1627.409763	-13.423259
1628.293675	-13.522422
1629.178548	-13.592640
1630.064383	-13.685918
1630.951181	-13.794700
1631.838945	-13.894649
1632.727676	-13.957360
1633.617376	-14.008955
1634.508046	-14.095175
1635.399687	-14.162757
1636.292302	-14.167464
1637.185892	-14.172171
1638.080458	-14.222441
1638.976002	-14.233980
1639.872526	-14.200910
1640.770032	-14.153063
1641.668520	-14.140109
1642.567993	-14.131168
1643.468452	-14.061450
1644.369899	-13.978245
1645.272336	-13.915373
1646.175763	-13.853659
1647.080184	-13.776489
1647.985598	-13.677675
1648.892009	-13.609132
1649.799417	-13.585625
1650.707824	-13.526940
1651.617232	-13.471866
1652.527643	-13.442850
1653.439058	-13.442281
1654.351479	-13.454922
1655.264908	-13.460912
1656.179346	-13.479622
1657.094794	-13.544315
1658.011256	-13.615774
1658.928731	-13.694754
1659.847223	-13.774770
1660.766732	-13.871017
1661.687260	-14.008251
1662.608810	-14.121724
1663.531382	-14.242897
1664.454979	-14.366312
1665.379601	-14.500705
1666.305252	-14.649919
1667.231932	-14.760007
1668.159644	-14.880755
1669.088388	-14.998493
1670.018167	-15.102866
1670.948983	-15.210685
1671.880837	-15.281718
1672.813731	-15.356776
1673.747666	-15.430360
1674.682645	-15.476083
1675.618669	-15.507936
1676.555740	-15.506280
1677.493860	-15.508556
1678.433030	-15.482987
1679.373252	-15.426906
1680.314528	-15.370739
1681.256860	-15.296075
1682.200250	-15.248375
1683.144699	-15.161320
1684.090209	-15.050530
1685.036782	-14.956342
1685.984419	-14.854453
1686.933123	-14.780761
1687.882895	-14.693908
1688.833738	-14.594351
1689.785652	-14.504064
1690.738640	-14.437566
1691.692703	-14.368138
1692.647844	-14.280912
1693.604064	-14.224594
1694.561365	-14.158359
1695.519749	-14.097454
1696.479217	-14.055534
1697.439772	-13.997846
1698.401415	-13.948872
1699.364149	-13.909331
1700.327974	-13.897446
1701.292894	-13.853366
1702.258909	-13.822755
1703.226022	-13.814846
1704.194235	-13.806501
1705.163549	-13.801276
1706.133966	-13.792816
1707.105488	-13.805123
1708.078117	-13.800533
1709.051856	-13.815611
1710.026705	-13.838935
1711.002667	-13.863355
1711.979743	-13.879871
1712.957937	-13.911980
1713.937248	-13.968229
1714.917680	-13.995507
1715.899235	-14.032935
1716.881913	-14.083446
1717.865718	-14.145085
1718.850651	-14.189290
1719.836714	-14.244978
1720.823909	-14.293597
1721.812238	-14.341032
1722.801703	-14.385888
1723.792305	-14.408966
1724.784048	-14.451994
1725.776932	-14.468654
1726.770961	-14.479947
1727.766135	-14.478818
1728.762456	-14.483516
1729.759928	-14.474337
1730.758551	-14.450353
1731.758328	-14.414226
1732.759260	-14.394032
1733.761350	-14.358886
1734.764600	-14.314748
1735.769012	-14.254400
1736.774588	-14.191374
1737.781329	-14.156674
1738.789238	-14.093921
1739.798317	-14.036986
1740.808568	-13.956657
1741.819993	-13.898261
1742.832593	-13.839536
1743.846372	-13.794063
1744.861331	-13.712235
1745.877472	-13.642229
1746.894797	-13.585421
1747.913309	-13.532664
1748.933008	-13.474196
1749.953899	-13.401837
1750.975982	-13.334178
1751.999259	-13.281100
1753.023733	-13.241441
1754.049406	-13.180906
1755.076280	-13.131522
1756.104357	-13.073226
1757.133639	-13.031452
1758.164128	-12.992585
1759.195827	-12.950075
1760.228737	-12.899038
1761.262861	-12.875925
1762.298201	-12.855875
1763.334759	-12.843396
1764.372536	-12.826230
1765.411536	-12.802864
1766.451761	-12.788223
1767.493212	-12.783573
1768.535892	-12.779811
1769.579802	-12.781254
1770.624946	-12.772938
1771.671325	-12.779841
1772.718942	-12.795526
1773.767798	-12.828356
1774.817896	-12.843073
1775.869238	-12.868580
1776.921826	-12.882722
1777.975663	-12.906363
1779.030751	-12.942076
1780.087092	-12.981387
1781.144688	-13.009588
1782.203541	-13.041313
1783.263654	-13.061424
1784.325029	-13.097820
1785.387668	-13.122769
1786.451574	-13.154155
1787.516748	-13.170886
1788.583193	-13.180214
1789.650912	-13.185979
1790.719906	-13.204816
1791.790177	-13.209818
1792.861729	-13.226258
1793.934564	-13.232875
1795.008683	-13.237024
1796.084089	-13.243979
1797.160785	-13.263159
1798.238772	-13.272942
1799.318053	-13.280063
