
; Yb-germanosilicate.inc: spectroscopic data of ytterbium-doped germanosilicate glass
; Source: R. Paschotta et al., "Ytterbium-doped fiber amplifiers", IEEE J. Quantum Electron. 33 (7), 1049 (1997)

tau_Yb:=0.943 ms
N_Yb := 10e24

defarray s12[850,1140,1]
defarray s21[850,1140,1]
;min_em:=850e-9
;max_em:=1140e-9

ld1 := 900
ld2 := 1247
dld := 1 
defarray D_Yb_f[ld1,ld2,dld]

s_a_Yb(l):=if 850e-9<=l<=1140e-9 then 1e-27*s12~~[1e9*l]
s_e_Yb(l):=if 850e-9<=l<=1140e-9 then 1e-27*s21~~[1e9*l]

readlist l, s12[l], s21[l]:
 850,22,0.014
 851,24.31,0.0174
 852,27.54,0.02107
 853,30.33,0.02479
 854,32.8,0.02864
 855,35.86,0.03345
 856,39.58,0.03943
 857,44.73,0.04758
 858,51.55,0.05854
 859,58.83,0.07131
 860,65.34,0.08454
 861,71.57,0.09882
 862,78.64,0.1159
 863,87.04,0.1368
 864,96.41,0.1616
 865,106.9,0.1911
 866,118.7,0.2263
 867,130.5,0.2653
 868,141.4,0.3064
 869,152.5,0.3522
 870,166.4,0.4096
 871,180.1,0.4724
 872,195,0.5449
 873,211.7,0.6302
 874,228.8,0.7255
 875,244.7,0.8263
 876,261,0.9384
 877,279.4,1.07
 878,299.4,1.22
 879,319.8,1.387
 880,341.7,1.577
 881,367.7,1.806
 882,390.4,2.04
 883,412.2,2.291
 884,434.6,2.569
 885,456.4,2.869
 886,476.8,3.187
 887,497.4,3.535
 888,519.5,3.924
 889,541.1,4.344
 890,560.2,4.78
 891,578.4,5.244
 892,598.2,5.762
 893,615.1,6.293
 894,631.9,6.867
 895,649.7,7.498
 896,667.2,8.176
 897,682.8,8.884
 898,697.3,9.631
 899,711.5,10.43
 900,724.7,11.28
 901,736.6,12.16
 902,748,13.1
 903,760.4,14.13
 904,770.5,15.19
 905,779.9,16.3
 906,789.3,17.5
 907,797.9,18.76
 908,805.3,20.07
 909,811.8,21.44
 910,817.7,22.89
 911,822.1,24.39
 912,824.5,25.92
 913,825.1,27.49
 914,823.3,29.05
 915,819.9,30.65
 916,814.8,32.26
 917,807.7,33.86
 918,798.9,35.46
 919,789.2,37.09
 920,778.1,38.71
 921,764.4,40.25
 922,748.9,41.73
 923,732.7,43.2
 924,715.2,44.62
 925,695.4,45.9
 926,674.7,47.1
 927,654.6,48.33
 928,633.5,49.47
 929,608.2,50.22
 930,585.2,51.09
 931,561.3,51.8
 932,535.3,52.22
 933,509.5,52.53
 934,486.1,52.96
 935,464.1,53.43
 936,442.2,53.79
 937,421.7,54.18
 938,403.4,54.75
 939,385.6,55.27
 940,365.7,55.36
 941,348.7,55.73
 942,332.5,56.11
 943,316.3,56.35
 944,301.9,56.77
 945,290.2,57.59
 946,279.9,58.62
 947,270.3,59.73
 948,261.8,61.04
 949,254.6,62.62
 950,248.2,64.4
 951,242,66.22
 952,238.1,68.71
 953,235.8,71.75
 954,235.6,75.59
 955,237.5,80.33
 956,240.6,85.78
 957,244.5,91.88
 958,249.1,98.65
 959,254.3,106.1
 960,259.6,114.2
 961,268.7,124.5
 962,282,137.6
 963,290.1,149.1
 964,296.7,160.6
 965,319.6,182.2
 966,344.2,206.6
 967,365,230.7
 968,413.5,275.1
 969,511.9,358.5
 970,703.8,518.8
 971,1.005e3,779.8
 972,1.41e3,1.151e3
 973,1.914e3,1.644e3
 974,2.364e3,2.136e3
 975,2.633e3,2.503e3
 976,2.585e3,2.585e3
 977,2.246e3,2.362e3
 978,1.765e3,1.952e3
 979,1.289e3,1.499e3
 980,892.2,1.091e3
 981,607.9,781.6
 982,431.6,583.3
 983,321.6,456.9
 984,253.2,378
 985,212.4,333.2
 986,185,305
 987,163.5,283.3
 988,146.9,267.4
 989,135.7,259.4
 990,127.8,256.6
 991,121.2,255.5
 992,114,252.4
 993,109.7,255.2
 994,106.7,260.6
 995,103.6,265.5
 996,100.8,271.2
 997,98.5,278.2
 998,97.02,287.6
 999,96.08,298.9
 1000,94.53,308.6
 1001,94.22,322.7
 1002,92.64,332.9
 1003,90.49,341.1
 1004,88.77,351
 1005,88.4,366.6
 1006,87.16,379.1
 1007,87.79,400.4
 1008,87.32,417.6
 1009,86.38,433.1
 1010,86.18,453
 1011,86.23,475.1
 1012,85.05,491.2
 1013,83.8,507.2
 1014,81.94,519.7
 1015,80.38,534.2
 1016,79,550.1
 1017,76.54,558.4
 1018,75.3,575.5
 1019,73.36,587.3
 1020,70.9,594.5
 1021,69.24,608
 1022,66.91,615.3
 1023,64.51,621.1
 1024,62.85,633.6
 1025,59.86,631.7
 1026,57.61,636.5
 1027,55.58,642.7
 1028,52.95,640.8
 1029,50.43,638.8
 1030,47.88,634.6
 1031,45.08,625.2
 1032,42.58,617.9
 1033,40.45,614
 1034,37.59,596.9
 1035,35.25,585.4
 1036,33.11,575.1
 1037,30.65,556.9
 1038,28.5,541.5
 1039,26.57,527.7
 1040,24.68,512.5
 1041,23.25,504.9
 1042,21.68,492
 1043,19.92,472.6
 1044,18.52,459.2
 1045,17.19,445.5
 1046,15.99,432.9
 1047,14.96,423.4
 1048,13.94,412
 1049,12.97,400.7
 1050,12.19,393.4
 1051,11.43,385.1
 1052,10.64,374.7
 1053,10.02,368.4
 1054,9.33,358.2
 1055,8.703,348.9
 1056,8.333,348.8
 1057,7.821,341.8
 1058,7.315,333.7
 1059,6.927,329.9
 1060,6.516,323.9
 1061,6.12,317.5
 1062,5.77,312.4
 1063,5.487,310
 1064,5.128,302.3
 1065,4.914,302.3
 1066,4.722,303
 1067,4.408,295.1
 1068,4.173,291.4
 1069,3.994,290.9
 1070,3.76,285.6
 1071,3.566,282.5
 1072,3.404,281.2
 1073,3.194,275.1
 1074,2.985,268.1
 1075,2.889,270.5
 1076,2.69,262.6
 1077,2.55,259.5
 1078,2.438,258.6
 1079,2.295,253.7
 1080,2.154,248.1
 1081,2.046,245.6
 1082,1.905,238.3
 1083,1.775,231.3
 1084,1.693,229.9
 1085,1.601,226.5
 1086,1.474,217.1
 1087,1.423,218.4
 1088,1.353,216.3
 1089,1.247,207.5
 1090,1.192,206.6
 1091,1.129,203.7
 1092,1.049,197.2
 1093,0.987,193.1
 1094,0.9407,191.6
 1095,0.8829,187.2
 1096,0.8374,184.8
 1097,0.7936,182.3
 1098,0.7471,178.6
 1099,0.6877,171.1
 1100,0.6632,171.7
 1101,0.6315,170.1
 1102,0.5887,165
 1103,0.5621,163.9
 1104,0.5248,159.2
 1105,0.4954,156.3
 1106,0.4625,151.8
 1107,0.4377,149.4
 1108,0.4025,142.9
 1109,0.3784,139.7
 1110,0.3595,138
 1111,0.3335,133.1
 1112,0.3005,124.7
 1113,0.2832,122.2
 1114,0.2702,121.2
 1115,0.252,117.5
 1116,0.2286,110.8
 1117,0.213,107.3
 1118,0.2031,106.3
 1119,0.1848,100.5
 1120,0.1739,98.28
 1121,0.1617,94.97
 1122,0.1498,91.4
 1123,0.1427,90.49
 1124,0.1381,90.93
 1125,0.12,82.07
 1126,0.1068,75.92
 1127,0.103,76
 1128,0.09881,75.74
 1129,0.0917,72.99
 1130,0.0823,68.03
 1131,0.07903,67.83
 1132,0.07261,64.71
 1133,0.06564,60.73
 1134,0.06175,59.31
 1135,0.05673,56.56
 1136,0.05198,53.8
 1137,0.04566,49.05
 1138,0.0486,54.18
 1139,0.04494,52
 1140,0.04164,50
 

readlist l, D_Yb_f[l]:
 900, -30.728767
 901, -30.619937
 902, -30.511669
 903, -30.40396
 904, -30.296806
 905, -30.190206
 906, -30.084155
 907, -29.97865
 908, -29.873689
 909, -29.769268
 910, -29.665384
 911, -29.562035
 912, -29.459216
 913, -29.356926
 914, -29.255161
 915, -29.153918
 916, -29.053198
 917, -28.952994
 918, -28.853304
 919, -28.754123
 920, -28.655449
 921, -28.557279
 922, -28.45961
 923, -28.36244
 924, -28.265765
 925, -28.169582
 926, -28.073889
 927, -27.978682
 928, -27.883959
 929, -27.789717
 930, -27.695953
 931, -27.602663
 932, -27.509847
 933, -27.417499
 934, -27.325618
 935, -27.234201
 936, -27.143245
 937, -27.052747
 938, -26.962704
 939, -26.873114
 940, -26.783974
 941, -26.695281
 942, -26.607032
 943, -26.519225
 944, -26.431857
 945, -26.344928
 946, -26.258433
 947, -26.172369
 948, -26.086733
 949, -26.001522
 950, -25.916734
 951, -25.832366
 952, -25.748415
 953, -25.66488
 954, -25.581756
 955, -25.499042
 956, -25.416735
 957, -25.334832
 958, -25.253332
 959, -25.17223
 960, -25.091525
 961, -25.011214
 962, -24.931295
 963, -24.851765
 964, -24.772621
 965, -24.693862
 966, -24.615484
 967, -24.537484
 968, -24.459862
 969, -24.382614
 970, -24.305737
 971, -24.229229
 972, -24.153088
 973, -24.077312
 974, -24.001899
 975, -23.926846
 976, -23.852151
 977, -23.77781
 978, -23.703822
 979, -23.630184
 980, -23.556893
 981, -23.483947
 982, -23.411345
 983, -23.339082
 984, -23.267158
 985, -23.19557
 986, -23.124316
 987, -23.053393
 988, -22.982799
 989, -22.912532
 990, -22.842589
 991, -22.772968
 992, -22.703668
 993, -22.634686
 994, -22.566019
 995, -22.497665
 996, -22.429623
 997, -22.36189
 998, -22.294464
 999, -22.227342
 1000, -22.160523
 1001, -22.094004
 1002, -22.027784
 1003, -21.96186
 1004, -21.896232
 1005, -21.830897
  1006, -21.76585
 1007, -21.701092
 1008, -21.636619
 1009, -21.57243
 1010, -21.508522
 1011, -21.444894
 1012, -21.381544
 1013, -21.318468
 1014, -21.255667
 1015, -21.193136
 1016, -21.130875
 1017, -21.068882
 1018, -21.007154
 1019, -20.945689
 1020, -20.884486
 1021, -20.823543
 1022, -20.762857
 1023, -20.702427
 1024, -20.642251
 1025, -20.582327
 1026, -20.522653
 1027, -20.463228
 1028, -20.404048
 1029, -20.345113
 1030, -20.286421
 1031, -20.227969
 1032, -20.169757
 1033, -20.111783
 1034, -20.054045
 1035, -19.99654
 1036, -19.939267
 1037, -19.882224
 1038, -19.825409
 1039, -19.768821
 1040, -19.712457
 1041, -19.656316
 1042, -19.600396
 1043, -19.544696
 1044, -19.489213
 1045, -19.433947
 1046, -19.378895
 1047, -19.324056
 1048, -19.269427
 1049, -19.215008
 1050, -19.160797
 1051, -19.106792
 1052, -19.052992
 1053, -18.999394
 1054, -18.945998
 1055, -18.892801
 1056, -18.839802
 1057, -18.787
 1058, -18.734393
 1059, -18.681979
 1060, -18.629757
 1061, -18.577725
 1062, -18.525883
 1063, -18.474229
 1064, -18.422761
 1065, -18.371477
 1066, -18.320375
 1067, -18.269455
 1068, -18.218715
 1069, -18.168153
 1070, -18.117768
 1071, -18.067559
 1072, -18.017523
 1073, -17.967661
 1074, -17.917969
 1075, -17.868448
 1076, -17.819095
 1077, -17.769909
 1078, -17.720889
 1079, -17.672033
 1080, -17.62334
 1081, -17.574809
 1082, -17.526439
 1083, -17.478227
 1084, -17.430174
 1085, -17.382277
 1086, -17.334535
 1087, -17.286947
 1088, -17.239512
 1089, -17.192228
 1090, -17.145095
 1091, -17.09811
 1092, -17.051275
 1093, -17.004586
 1094, -16.958042
 1095, -16.911643
 1096, -16.865386
 1097, -16.819271
 1098, -16.773297
 1099, -16.727463
 1100, -16.681766
 1101, -16.636207
 1102, -16.590785
 1103, -16.545497
 1104, -16.500343
 1105, -16.455322
 1106, -16.410432
 1107, -16.365674
 1108, -16.321044
 1109, -16.276544
 1110, -16.232171
 1111, -16.187925
 1112, -16.143804
 1113, -16.099807
 1114, -16.055934
 1115, -16.012184
 1116, -15.968555
 1117, -15.925047
 1118, -15.881658
 1119, -15.838388
 1120, -15.795236
 1121, -15.752201
 1122, -15.709283
 1123, -15.666479
 1124, -15.62379
 1125, -15.581213
 1126, -15.538749
 1127, -15.496397
 1128, -15.454155
 1129, -15.412023
 1130, -15.37
 1131, -15.328084
 1132, -15.286277
 1133, -15.244575
 1134, -15.20298
 1135, -15.161489
 1136, -15.120103
 1137, -15.07882
 1138, -15.037639
 1139, -14.996561
 1140, -14.955583
 1141, -14.914706
 1142, -14.873929
 1143, -14.833251
 1144, -14.792671
 1145, -14.752189
 1146, -14.711804
 1147, -14.671515
 1148, -14.631322
 1149, -14.591224
 1150, -14.551221
 1151, -14.511312
 1152, -14.471496
 1153, -14.431773
 1154, -14.392141
 1155, -14.352601
 1156, -14.313152
 1157, -14.273793
 1158, -14.234524
 1159, -14.195344
 1160, -14.156253
 1161, -14.11725
 1162, -14.078335
 1163, -14.039507
 1164, -14.000765
 1165, -13.962109
 1166, -13.92354
 1167, -13.885055
 1168, -13.846656
 1169, -13.80834
 1170, -13.770109 
 1171, -13.731961
 1172, -13.693896
 1173, -13.655914
 1174, -13.618015
 1175, -13.580197
 1176, -13.542461
 1177, -13.504806
 1178, -13.467232
 1179, -13.429739
 1180, -13.392327
 1181, -13.354994
 1182, -13.317741
 1183, -13.280568
 1184, -13.243473
 1185, -13.206458
 1186, -13.16952
 1187, -13.132661
 1188, -13.09588
 1189, -13.059177
 1190, -13.022551
 1191, -12.986003
 1192, -12.949532
 1193, -12.913137
 1194, -12.87682
 1195, -12.840579
 1196, -12.804414
 1197, -12.768326
 1198, -12.732314
 1199, -12.696378
 1200, -12.660517
 1201, -12.624733
 1202, -12.589024
 1203, -12.553391
 1204, -12.517833
 1205, -12.48235
 1206, -12.446943
 1207, -12.411612
 1208, -12.376355
 1209, -12.341175
 1210, -12.306069
 1211, -12.271039
 1212, -12.236084
 1213, -12.201204
 1214, -12.1664
 1215, -12.13167
 1216, -12.097016
 1217, -12.062438
 1218, -12.027935
 1219, -11.993507
 1220, -11.959155
 1221, -11.924878
 1222, -11.890678
 1223, -11.856553
 1224, -11.822504
 1225, -11.788532
 1226, -11.754635
 1227, -11.720815
 1228, -11.687072
 1229, -11.653405
 1230, -11.619816
 1231, -11.586303
 1232, -11.552868
 1233, -11.519511
 1234, -11.486231
 1235, -11.453029
 1236, -11.419905
 1237, -11.38686
 1238, -11.353895
 1239, -11.321008
 1240, -11.288201
 1241, -11.255474
 1242, -11.222826
 1243, -11.190259
 1244, -11.157772
 1245, -11.125366
 1246, -11.093042
 1247, -11.060799
 
 
 (* readlist l, D_Yb_f[l]:
1150.000000, -30.728767
1151.000000, -30.619937
1152.000000, -30.511669
1153.000000, -30.403960
1154.000000, -30.296806
1155.000000, -30.190206
1156.000000, -30.084155
1157.000000, -29.978650
1158.000000, -29.873689
1159.000000, -29.769268
1160.000000, -29.665384
1161.000000, -29.562035
1162.000000, -29.459216
1163.000000, -29.356926
1164.000000, -29.255161
1165.000000, -29.153918
1166.000000, -29.053198
1167.000000, -28.952994
1168.000000, -28.853304
1169.000000, -28.754123
1170.000000, -28.655449
1171.000000, -28.557279
1172.000000, -28.459610
1173.000000, -28.362440
1174.000000, -28.265765
1175.000000, -28.169582
1176.000000, -28.073889
1177.000000, -27.978682
1178.000000, -27.883959
1179.000000, -27.789717
1180.000000, -27.695953
1181.000000, -27.602663
1182.000000, -27.509847
1183.000000, -27.417499
1184.000000, -27.325618
1185.000000, -27.234201
1186.000000, -27.143245
1187.000000, -27.052747
1188.000000, -26.962704
1189.000000, -26.873114
1190.000000, -26.783974
1191.000000, -26.695281
1192.000000, -26.607032
1193.000000, -26.519225
1194.000000, -26.431857
1195.000000, -26.344928
1196.000000, -26.258433
1197.000000, -26.172369
1198.000000, -26.086733
1199.000000, -26.001522
1200.000000, -25.916734
1201.000000, -25.832366
1202.000000, -25.748415
1203.000000, -25.664880
1204.000000, -25.581756
1205.000000, -25.499042
1206.000000, -25.416735
1207.000000, -25.334832
1208.000000, -25.253332
1209.000000, -25.172230
1210.000000, -25.091525
1211.000000, -25.011214
1212.000000, -24.931295
1213.000000, -24.851765
1214.000000, -24.772621
1215.000000, -24.693862
1216.000000, -24.615484
1217.000000, -24.537484
1218.000000, -24.459862
1219.000000, -24.382614
1220.000000, -24.305737
1221.000000, -24.229229
1222.000000, -24.153088
1223.000000, -24.077312
1224.000000, -24.001899
1225.000000, -23.926846
1226.000000, -23.852151
1227.000000, -23.777810
1228.000000, -23.703822
1229.000000, -23.630184
1230.000000, -23.556893
1231.000000, -23.483947
1232.000000, -23.411345
1233.000000, -23.339082
1234.000000, -23.267158
1235.000000, -23.195570
1236.000000, -23.124316
1237.000000, -23.053393
1238.000000, -22.982799
1239.000000, -22.912532
1240.000000, -22.842589
1241.000000, -22.772968
1242.000000, -22.703668
1243.000000, -22.634686
1244.000000, -22.566019
1245.000000, -22.497665
1246.000000, -22.429623
1247.000000, -22.361890
1248.000000, -22.294464
1249.000000, -22.227342
1250.000000, -22.160523
1251.000000, -22.094004
1252.000000, -22.027784
1253.000000, -21.961860
1254.000000, -21.896232
1255.000000, -21.830897
1256.000000, -21.765850
1257.000000, -21.701092
1258.000000, -21.636619
1259.000000, -21.572430
1260.000000, -21.508522
1261.000000, -21.444894
1262.000000, -21.381544
1263.000000, -21.318468
1264.000000, -21.255667
1265.000000, -21.193136
1266.000000, -21.130875
1267.000000, -21.068882
1268.000000, -21.007154
1269.000000, -20.945689
1270.000000, -20.884486
1271.000000, -20.823543
1272.000000, -20.762857
1273.000000, -20.702427
1274.000000, -20.642251
1275.000000, -20.582327
1276.000000, -20.522653
1277.000000, -20.463228
1278.000000, -20.404048
1279.000000, -20.345113
1280.000000, -20.286421
1281.000000, -20.227969
1282.000000, -20.169757
1283.000000, -20.111783
1284.000000, -20.054045
1285.000000, -19.996540
1286.000000, -19.939267
1287.000000, -19.882224
1288.000000, -19.825409
1289.000000, -19.768821
1290.000000, -19.712457
1291.000000, -19.656316
1292.000000, -19.600396
1293.000000, -19.544696
1294.000000, -19.489213
1295.000000, -19.433947
1296.000000, -19.378895
1297.000000, -19.324056
1298.000000, -19.269427
1299.000000, -19.215008
1300.000000, -19.160797
1301.000000, -19.106792
1302.000000, -19.052992
1303.000000, -18.999394
1304.000000, -18.945998
1305.000000, -18.892801
1306.000000, -18.839802
1307.000000, -18.787000
1308.000000, -18.734393
1309.000000, -18.681979
1310.000000, -18.629757
1311.000000, -18.577725
1312.000000, -18.525883
1313.000000, -18.474229
1314.000000, -18.422761
1315.000000, -18.371477
1316.000000, -18.320375
1317.000000, -18.269455
1318.000000, -18.218715
1319.000000, -18.168153
1320.000000, -18.117768
1321.000000, -18.067559
1322.000000, -18.017523
1323.000000, -17.967661
1324.000000, -17.917969
1325.000000, -17.868448
1326.000000, -17.819095
1327.000000, -17.769909
1328.000000, -17.720889
1329.000000, -17.672033
1330.000000, -17.623340
1331.000000, -17.574809
1332.000000, -17.526439
1333.000000, -17.478227
1334.000000, -17.430174
1335.000000, -17.382277
1336.000000, -17.334535
1337.000000, -17.286947
1338.000000, -17.239512
1339.000000, -17.192228
1340.000000, -17.145095
1341.000000, -17.098110
1342.000000, -17.051275
1343.000000, -17.004586
1344.000000, -16.958042
1345.000000, -16.911643
1346.000000, -16.865386
1347.000000, -16.819271
1348.000000, -16.773297
1349.000000, -16.727463
1350.000000, -16.681766
1351.000000, -16.636207
1352.000000, -16.590785
1353.000000, -16.545497
1354.000000, -16.500343
1355.000000, -16.455322
1356.000000, -16.410432
1357.000000, -16.365674
1358.000000, -16.321044
1359.000000, -16.276544
1360.000000, -16.232171
1361.000000, -16.187925
1362.000000, -16.143804
1363.000000, -16.099807
1364.000000, -16.055934
1365.000000, -16.012184
1366.000000, -15.968555
1367.000000, -15.925047
1368.000000, -15.881658
1369.000000, -15.838388
1370.000000, -15.795236
1371.000000, -15.752201
1372.000000, -15.709283
1373.000000, -15.666479
1374.000000, -15.623790
1375.000000, -15.581213
1376.000000, -15.538749
1377.000000, -15.496397
1378.000000, -15.454155
1379.000000, -15.412023
1380.000000, -15.370000
1381.000000, -15.328084
1382.000000, -15.286277
1383.000000, -15.244575
1384.000000, -15.202980
1385.000000, -15.161489
1386.000000, -15.120103
1387.000000, -15.078820
1388.000000, -15.037639
1389.000000, -14.996561
1390.000000, -14.955583
1391.000000, -14.914706
1392.000000, -14.873929
1393.000000, -14.833251
1394.000000, -14.792671
1395.000000, -14.752189
1396.000000, -14.711804
1397.000000, -14.671515
1398.000000, -14.631322
1399.000000, -14.591224
1400.000000, -14.551221
1401.000000, -14.511312
1402.000000, -14.471496
1403.000000, -14.431773
1404.000000, -14.392141
1405.000000, -14.352601
1406.000000, -14.313152
1407.000000, -14.273793
1408.000000, -14.234524
1409.000000, -14.195344
1410.000000, -14.156253
1411.000000, -14.117250
1412.000000, -14.078335
1413.000000, -14.039507
1414.000000, -14.000765
1415.000000, -13.962109
1416.000000, -13.923540
1417.000000, -13.885055
1418.000000, -13.846656
1419.000000, -13.808340
1420.000000, -13.770109
1421.000000, -13.731961
1422.000000, -13.693896
1423.000000, -13.655914
1424.000000, -13.618015
1425.000000, -13.580197
1426.000000, -13.542461
1427.000000, -13.504806
1428.000000, -13.467232
1429.000000, -13.429739
1430.000000, -13.392327
1431.000000, -13.354994
1432.000000, -13.317741
1433.000000, -13.280568
1434.000000, -13.243473
1435.000000, -13.206458
1436.000000, -13.169520
1437.000000, -13.132661
1438.000000, -13.095880
1439.000000, -13.059177
1440.000000, -13.022551
1441.000000, -12.986003
1442.000000, -12.949532
1443.000000, -12.913137
1444.000000, -12.876820
1445.000000, -12.840579
1446.000000, -12.804414
1447.000000, -12.768326
1448.000000, -12.732314
1449.000000, -12.696378
1450.000000, -12.660517
1451.000000, -12.624733
1452.000000, -12.589024
1453.000000, -12.553391
1454.000000, -12.517833
1455.000000, -12.482350
1456.000000, -12.446943
1457.000000, -12.411612
1458.000000, -12.376355
1459.000000, -12.341175
1460.000000, -12.306069
1461.000000, -12.271039
1462.000000, -12.236084
1463.000000, -12.201204
1464.000000, -12.166400
1465.000000, -12.131670
1466.000000, -12.097016
1467.000000, -12.062438
1468.000000, -12.027935
1469.000000, -11.993507
1470.000000, -11.959155
1471.000000, -11.924878
1472.000000, -11.890678
1473.000000, -11.856553
1474.000000, -11.822504
1475.000000, -11.788532
1476.000000, -11.754635
1477.000000, -11.720815
1478.000000, -11.687072
1479.000000, -11.653405
1480.000000, -11.619816
1481.000000, -11.586303
1482.000000, -11.552868
1483.000000, -11.519511
1484.000000, -11.486231
1485.000000, -11.453029
1486.000000, -11.419905
1487.000000, -11.386860
1488.000000, -11.353895
1489.000000, -11.321008
1490.000000, -11.288201
1491.000000, -11.255474
1492.000000, -11.222826
1493.000000, -11.190259
1494.000000, -11.157772
1495.000000, -11.125366
1496.000000, -11.093042
1497.000000, -11.060799
1498.000000, -11.028638
1499.000000, -10.996559
1500.000000, -10.964564
1501.000000, -10.932651
1502.000000, -10.900822
1503.000000, -10.869077
1504.000000, -10.837416
1505.000000, -10.805840
1506.000000, -10.774350
1507.000000, -10.742945
1508.000000, -10.711626
1509.000000, -10.680394
1510.000000, -10.649250
1511.000000, -10.618193
1512.000000, -10.587224
1513.000000, -10.556343
1514.000000, -10.525552
1515.000000, -10.494851
1516.000000, -10.464240
1517.000000, -10.433721
1518.000000, -10.403293
1519.000000, -10.372957
1520.000000, -10.342714
1521.000000, -10.312564
1522.000000, -10.282508
1523.000000, -10.252547
1524.000000, -10.222680
1525.000000, -10.192909
1526.000000, -10.163235
1527.000000, -10.133658
1528.000000, -10.104178
1529.000000, -10.074797
1530.000000, -10.045515
1531.000000, -10.016332
1532.000000, -9.987250
1533.000000, -9.958270
1534.000000, -9.929391
1535.000000, -9.900615
1536.000000, -9.871942
1537.000000, -9.843374
1538.000000, -9.814911
1539.000000, -9.786553
1540.000000, -9.758302
1541.000000, -9.730158
1542.000000, -9.702123
1543.000000, -9.674196
1544.000000, -9.646379
1545.000000, -9.618673
1546.000000, -9.591079
1547.000000, -9.563598
1548.000000, -9.536230
1549.000000, -9.508976
1550.000000, -9.481837
1551.000000, -9.454815
1552.000000, -9.427909
1553.000000, -9.401121
1554.000000, -9.374452
1555.000000, -9.347902
1556.000000, -9.321473
1557.000000, -9.295166
1558.000000, -9.268981
1559.000000, -9.242920
1560.000000, -9.216983
1561.000000, -9.191172
1562.000000, -9.165487
1563.000000, -9.139930
1564.000000, -9.114502
1565.000000, -9.089204
1566.000000, -9.064036
1567.000000, -9.039000
1568.000000, -9.014097
1569.000000, -8.989328
1570.000000, -8.964694
1571.000000, -8.940196
1572.000000, -8.915835
1573.000000, -8.891613
1574.000000, -8.867531
1575.000000, -8.843589
1576.000000, -8.819790
1577.000000, -8.796135
1578.000000, -8.772623
1579.000000, -8.749257
1580.000000, -8.726038
1581.000000, -8.702967
1582.000000, -8.680044
1583.000000, -8.657272
1584.000000, -8.634652
1585.000000, -8.612184
1586.000000, -8.589870
1587.000000, -8.567712
1588.000000, -8.545710
1589.000000, -8.523866
1590.000000, -8.502181
1591.000000, -8.480657
1592.000000, -8.459295
1593.000000, -8.438096
1594.000000, -8.417061
1595.000000, -8.396192
1596.000000, -8.375491
1597.000000, -8.354958
1598.000000, -8.334595
1599.000000, -8.314403
*)
