# 2022-03-21_14.12.03
# shape = sech2
# FWHM_ps = 0.1
# carrier_nm = 1542
# frep_MHz = 12126
# pow_mW = 8000
# GDD = 0.0
# propa_len = 0.12111111111111113
# untap_len = 0.01
# taper_len = 0.061111111111111116
# waist_len = 0.02
# uptap_len = 0.02
# untap_scale = 1.0
# waist_scale = 0.1
# workingDir = NL_20110305_12 (Spirou)
# axis = slow
# window_ps = 10.0
# steps = 200
# points = 13000
# 
# wavelength [nm]	 power spectral density [dB]
1000.248639	-21.985957
1000.582480	-21.897941
1000.916545	-21.892334
1001.250832	-21.947606
1001.585343	-21.888312
1001.920077	-21.850632
1002.255035	-21.889340
1002.590218	-21.871930
1002.925624	-21.811774
1003.261255	-21.815064
1003.597111	-21.849296
1003.933192	-21.762390
1004.269497	-21.752631
1004.606029	-21.799442
1004.942785	-21.726005
1005.279768	-21.692657
1005.616977	-21.735404
1005.954412	-21.698307
1006.292074	-21.634658
1006.629962	-21.673063
1006.968077	-21.669838
1007.306420	-21.583812
1007.644990	-21.614465
1007.983787	-21.627764
1008.322813	-21.548759
1008.662067	-21.552888
1009.001549	-21.577718
1009.341259	-21.520761
1009.681199	-21.481256
1010.021367	-21.526362
1010.361765	-21.484120
1010.702392	-21.412564
1011.043250	-21.467583
1011.384337	-21.435155
1011.725654	-21.349093
1012.067202	-21.396636
1012.408980	-21.380307
1012.750989	-21.286835
1013.093230	-21.319456
1013.435702	-21.315348
1013.778405	-21.228613
1014.121341	-21.234427
1014.464508	-21.249575
1014.807908	-21.165878
1015.151540	-21.151244
1015.495405	-21.175682
1015.839503	-21.101732
1016.183835	-21.069762
1016.528400	-21.097408
1016.873198	-21.036526
1017.218231	-20.989395
1017.563498	-21.013746
1017.908999	-20.969218
1018.254735	-20.909889
1018.600707	-20.931199
1018.946913	-20.897450
1019.293354	-20.836851
1019.640032	-20.841945
1019.986945	-20.829643
1020.334094	-20.761493
1020.681480	-20.759123
1021.029102	-20.759139
1021.376961	-20.688470
1021.725058	-20.679140
1022.073391	-20.687138
1022.421962	-20.622924
1022.770772	-20.598015
1023.119819	-20.624325
1023.469104	-20.549186
1023.818628	-20.530627
1024.168391	-20.554453
1024.518393	-20.486763
1024.868634	-20.467362
1025.219115	-20.485952
1025.569836	-20.429310
1025.920796	-20.405730
1026.271997	-20.420566
1026.623438	-20.381417
1026.975121	-20.342854
1027.327044	-20.366611
1027.679208	-20.330324
1028.031614	-20.285479
1028.384262	-20.318345
1028.737152	-20.278778
1029.090284	-20.237356
1029.443659	-20.270193
1029.797276	-20.227431
1030.151137	-20.197835
1030.505240	-20.216512
1030.859587	-20.188449
1031.214178	-20.153477
1031.569013	-20.167307
1031.924093	-20.150996
1032.279417	-20.104779
1032.634985	-20.126684
1032.990799	-20.111576
1033.346858	-20.056930
1033.703162	-20.092221
1034.059712	-20.059806
1034.416509	-20.021389
1034.773551	-20.047034
1035.130841	-20.015248
1035.488377	-19.983950
1035.846160	-19.996859
1036.204190	-19.974497
1036.562468	-19.937254
1036.920994	-19.950355
1037.279768	-19.931215
1037.638790	-19.884716
1037.998061	-19.907815
1038.357581	-19.875114
1038.717350	-19.838011
1039.077368	-19.855940
1039.437636	-19.820340
1039.798154	-19.789005
1040.158922	-19.797707
1040.519940	-19.764290
1040.881209	-19.732261
1041.242729	-19.738996
1041.604501	-19.705511
1041.966524	-19.672641
1042.328798	-19.678014
1042.691325	-19.641213
1043.054103	-19.610060
1043.417135	-19.614399
1043.780419	-19.574772
1044.143956	-19.545035
1044.507746	-19.548904
1044.871791	-19.502905
1045.236088	-19.480773
1045.600641	-19.479574
1045.965447	-19.433287
1046.330508	-19.413453
1046.695824	-19.407683
1047.061395	-19.361883
1047.427222	-19.343224
1047.793304	-19.340889
1048.159642	-19.288881
1048.526237	-19.277851
1048.893088	-19.270080
1049.260196	-19.214833
1049.627561	-19.216077
1049.995183	-19.197171
1050.363063	-19.152406
1050.731201	-19.150866
1051.099597	-19.129278
1051.468251	-19.089370
1051.837164	-19.091495
1052.206336	-19.065734
1052.575767	-19.030463
1052.945458	-19.034202
1053.315409	-19.003498
1053.685619	-18.977057
1054.056090	-18.980180
1054.426821	-18.951141
1054.797814	-18.925835
1055.169067	-18.928660
1055.540582	-18.896246
1055.912359	-18.880207
1056.284398	-18.884735
1056.656698	-18.845454
1057.029262	-18.840991
1057.402088	-18.835513
1057.775177	-18.801789
1058.148530	-18.803533
1058.522146	-18.791769
1058.896027	-18.760939
1059.270171	-18.767772
1059.644580	-18.746826
1060.019254	-18.725947
1060.394193	-18.731365
1060.769397	-18.706931
1061.144867	-18.692231
1061.520602	-18.695635
1061.896604	-18.663427
1062.272872	-18.658155
1062.649407	-18.656858
1063.026210	-18.624290
1063.403279	-18.625204
1063.780616	-18.614014
1064.158221	-18.582195
1064.536094	-18.584605
1064.914235	-18.569447
1065.292645	-18.537704
1065.671325	-18.545581
1066.050273	-18.515055
1066.429491	-18.491905
1066.808979	-18.497157
1067.188738	-18.459597
1067.568766	-18.448020
1067.949066	-18.439913
1068.329636	-18.399782
1068.710478	-18.396156
1069.091592	-18.376729
1069.472977	-18.343046
1069.854635	-18.344610
1070.236565	-18.308252
1070.618768	-18.284035
1071.001243	-18.279828
1071.383993	-18.237265
1071.767016	-18.228438
1072.150313	-18.210775
1072.533884	-18.169668
1072.917730	-18.164369
1073.301850	-18.135103
1073.686246	-18.104588
1074.070917	-18.095892
1074.455864	-18.061629
1074.841087	-18.033732
1075.226586	-18.022793
1075.612362	-17.985272
1075.998415	-17.969020
1076.384745	-17.950440
1076.771353	-17.911070
1077.158238	-17.899186
1077.545401	-17.870374
1077.932843	-17.843727
1078.320564	-17.833229
1078.708564	-17.800426
1079.096842	-17.778796
1079.485401	-17.766744
1079.874240	-17.729236
1080.263358	-17.723803
1080.652757	-17.703890
1081.042438	-17.672970
1081.432399	-17.669098
1081.822641	-17.642147
1082.213166	-17.625385
1082.603972	-17.619734
1082.995061	-17.595104
1083.386433	-17.580698
1083.778087	-17.571646
1084.170025	-17.545296
1084.562246	-17.546639
1084.954751	-17.527433
1085.347541	-17.511541
1085.740615	-17.509818
1086.133973	-17.481643
1086.527617	-17.479945
1086.921546	-17.470668
1087.315761	-17.449790
1087.710262	-17.447837
1088.105050	-17.433392
1088.500124	-17.413468
1088.895485	-17.422824
1089.291134	-17.391953
1089.687070	-17.396740
1090.083294	-17.378740
1090.479806	-17.362996
1090.876607	-17.366754
1091.273696	-17.347249
1091.671075	-17.342576
1092.068744	-17.337391
1092.466702	-17.313969
1092.864950	-17.315149
1093.263489	-17.306330
1093.662319	-17.289060
1094.061440	-17.294560
1094.460852	-17.268736
1094.860555	-17.267712
1095.260551	-17.256881
1095.660840	-17.241434
1096.061421	-17.239865
1096.462295	-17.219167
1096.863462	-17.206747
1097.264923	-17.199879
1097.666678	-17.179320
1098.068727	-17.171781
1098.471071	-17.153451
1098.873710	-17.130758
1099.276644	-17.120076
1099.679874	-17.098392
1100.083400	-17.081694
1100.487222	-17.064799
1100.891340	-17.036679
1101.295756	-17.021120
1101.700468	-16.995751
1102.105478	-16.975680
1102.510787	-16.956854
1102.916393	-16.927123
1103.322298	-16.904571
1103.728502	-16.886974
1104.135005	-16.857018
1104.541807	-16.843033
1104.948909	-16.814168
1105.356312	-16.787058
1105.764015	-16.774617
1106.172019	-16.739410
1106.580324	-16.735885
1106.988931	-16.700373
1107.397840	-16.682145
1107.807051	-16.664678
1108.216564	-16.638541
1108.626380	-16.624805
1109.036500	-16.606528
1109.446923	-16.575091
1109.857649	-16.570692
1110.268680	-16.536970
1110.680016	-16.533840
1111.091657	-16.505342
1111.503602	-16.483684
1111.915854	-16.468908
1112.328411	-16.448231
1112.741275	-16.429677
1113.154445	-16.417381
1113.567922	-16.381919
1113.981706	-16.372926
1114.395798	-16.346856
1114.810198	-16.330995
1115.224906	-16.314105
1115.639923	-16.281406
1116.055249	-16.267343
1116.470884	-16.249201
1116.886829	-16.219884
1117.303084	-16.215896
1117.719650	-16.167785
1118.136526	-16.168834
1118.553713	-16.138880
1118.971212	-16.123233
1119.389022	-16.105790
1119.807145	-16.070457
1120.225580	-16.065535
1120.644328	-16.041252
1121.063389	-16.021221
1121.482763	-16.013520
1121.902452	-15.976908
1122.322454	-15.977239
1122.742771	-15.947786
1123.163404	-15.941296
1123.584351	-15.921521
1124.005614	-15.898985
1124.427193	-15.894511
1124.849089	-15.878583
1125.271301	-15.858215
1125.693830	-15.848076
1126.116677	-15.821760
1126.539842	-15.826067
1126.963324	-15.800781
1127.387126	-15.787852
1127.811246	-15.774638
1128.235685	-15.747500
1128.660444	-15.751636
1129.085522	-15.721696
1129.510922	-15.711870
1129.936641	-15.694855
1130.362682	-15.669645
1130.789044	-15.671480
1131.215728	-15.629356
1131.642734	-15.631745
1132.070063	-15.598811
1132.497714	-15.589532
1132.925689	-15.570177
1133.353987	-15.540637
1133.782610	-15.530449
1134.211556	-15.499771
1134.640827	-15.495863
1135.070424	-15.463566
1135.500345	-15.446252
1135.930593	-15.423128
1136.361166	-15.407895
1136.792067	-15.389262
1137.223294	-15.368121
1137.654848	-15.347668
1138.086730	-15.333745
1138.518940	-15.316736
1138.951479	-15.294725
1139.384346	-15.284864
1139.817543	-15.264066
1140.251069	-15.260704
1140.684925	-15.234713
1141.119111	-15.227577
1141.553628	-15.213998
1141.988475	-15.205364
1142.423655	-15.200541
1142.859166	-15.174817
1143.295009	-15.182635
1143.731185	-15.163811
1144.167694	-15.165637
1144.604536	-15.152588
1145.041711	-15.140685
1145.479221	-15.152104
1145.917065	-15.128962
1146.355245	-15.134311
1146.793759	-15.119020
1147.232609	-15.122255
1147.671795	-15.119150
1148.111317	-15.101185
1148.551177	-15.104510
1148.991373	-15.094912
1149.431907	-15.093782
1149.872779	-15.080277
1150.313989	-15.074277
1150.755538	-15.067862
1151.197426	-15.063704
1151.639653	-15.045024
1152.082220	-15.042679
1152.525128	-15.033926
1152.968376	-15.017449
1153.411966	-15.016429
1153.855897	-14.985214
1154.300169	-15.002156
1154.744784	-14.966157
1155.189742	-14.960798
1155.635042	-14.953155
1156.080687	-14.923724
1156.526674	-14.938556
1156.973007	-14.885088
1157.419683	-14.904866
1157.866705	-14.874045
1158.314072	-14.854089
1158.761786	-14.856845
1159.209845	-14.813097
1159.658251	-14.835765
1160.107004	-14.780680
1160.556104	-14.784786
1161.005553	-14.775241
1161.455349	-14.737625
1161.905494	-14.747820
1162.355989	-14.698184
1162.806832	-14.718775
1163.258026	-14.679351
1163.709570	-14.661190
1164.161464	-14.666309
1164.613710	-14.622011
1165.066307	-14.634916
1165.519256	-14.590189
1165.972558	-14.599011
1166.426212	-14.572872
1166.880219	-14.545291
1167.334580	-14.555712
1167.789295	-14.516171
1168.244364	-14.517514
1168.699788	-14.486132
1169.155567	-14.483387
1169.611702	-14.471276
1170.068193	-14.436271
1170.525041	-14.442842
1170.982245	-14.414720
1171.439807	-14.408456
1171.897726	-14.385186
1172.356004	-14.373343
1172.814640	-14.367947
1173.273635	-14.335309
1173.732989	-14.338057
1174.192703	-14.313566
1174.652778	-14.303288
1175.113213	-14.286897
1175.574009	-14.273217
1176.035167	-14.264392
1176.496687	-14.237266
1176.958569	-14.237907
1177.420814	-14.216206
1177.883422	-14.200522
1178.346394	-14.191518
1178.809730	-14.174583
1179.273430	-14.163010
1179.737496	-14.141252
1180.201927	-14.141198
1180.666723	-14.113930
1181.131886	-14.104069
1181.597416	-14.094557
1182.063312	-14.074674
1182.529576	-14.062165
1182.996209	-14.046945
1183.463209	-14.039110
1183.930579	-14.013700
1184.398317	-14.008170
1184.866426	-13.992619
1185.334904	-13.973826
1185.803754	-13.963789
1186.272974	-13.948197
1186.742566	-13.934054
1187.212529	-13.916195
1187.682865	-13.909941
1188.153574	-13.886534
1188.624656	-13.876233
1189.096112	-13.864747
1189.567942	-13.845279
1190.040147	-13.832264
1190.512726	-13.821448
1190.985681	-13.804718
1191.459012	-13.787545
1191.932720	-13.780813
1192.406804	-13.761368
1192.881265	-13.747498
1193.356104	-13.737703
1193.831322	-13.720268
1194.306918	-13.707296
1194.782893	-13.696051
1195.259248	-13.679581
1195.735982	-13.666448
1196.213097	-13.657239
1196.690593	-13.637049
1197.168471	-13.628805
1197.646730	-13.615453
1198.125371	-13.599587
1198.604395	-13.586981
1199.083803	-13.578196
1199.563594	-13.557989
1200.043769	-13.550377
1200.524329	-13.536424
1201.005273	-13.520078
1201.486604	-13.512292
1201.968320	-13.494940
1202.450422	-13.483688
1202.932912	-13.471079
1203.415789	-13.458046
1203.899054	-13.442106
1204.382707	-13.435291
1204.866748	-13.414916
1205.351179	-13.407516
1205.836000	-13.392794
1206.321211	-13.376924
1206.806812	-13.370022
1207.292805	-13.350353
1207.779189	-13.342308
1208.265965	-13.325998
1208.753134	-13.316542
1209.240696	-13.298667
1209.728651	-13.292035
1210.217000	-13.272861
1210.705744	-13.265544
1211.194883	-13.249390
1211.684417	-13.237116
1212.174347	-13.227746
1212.664673	-13.209571
1213.155396	-13.203791
1213.646516	-13.185535
1214.138034	-13.177803
1214.629951	-13.163492
1215.122266	-13.151728
1215.614980	-13.140699
1216.108095	-13.128213
1216.601609	-13.117328
1217.095524	-13.103879
1217.589841	-13.096633
1218.084559	-13.078770
1218.579679	-13.076379
1219.075202	-13.054764
1219.571128	-13.054769
1220.067458	-13.034384
1220.564191	-13.029952
1221.061330	-13.016867
1221.558874	-13.004703
1222.056823	-12.999743
1222.555178	-12.980819
1223.053940	-12.980519
1223.553109	-12.961107
1224.052686	-12.958673
1224.552671	-12.943358
1225.053065	-12.936780
1225.553867	-12.925968
1226.055079	-12.916874
1226.556702	-12.906816
1227.058735	-12.899353
1227.561179	-12.888042
1228.064035	-12.881961
1228.567303	-12.870626
1229.070983	-12.864206
1229.575077	-12.855794
1230.079585	-12.845839
1230.584506	-12.842166
1231.089842	-12.828832
1231.595594	-12.829071
1232.101761	-12.813806
1232.608345	-12.815320
1233.115345	-12.801644
1233.622762	-12.801598
1234.130597	-12.791362
1234.638851	-12.787968
1235.147523	-12.783525
1235.656615	-12.775107
1236.166126	-12.776472
1236.676058	-12.763957
1237.186411	-12.769671
1237.697185	-12.755401
1238.208381	-12.762307
1238.719999	-12.749221
1239.232040	-12.754533
1239.744505	-12.745743
1240.257394	-12.745696
1240.770708	-12.743945
1241.284446	-12.737689
1241.798610	-12.742043
1242.313201	-12.730997
1242.828218	-12.738854
1243.343662	-12.726862
1243.859534	-12.733475
1244.375834	-12.724545
1244.892563	-12.726660
1245.409721	-12.722633
1245.927309	-12.719996
1246.445327	-12.718719
1246.963777	-12.714436
1247.482657	-12.712940
1248.001970	-12.709251
1248.521716	-12.705212
1249.041894	-12.703466
1249.562506	-12.697143
1250.083553	-12.695601
1250.605034	-12.689015
1251.126950	-12.685382
1251.649302	-12.681002
1252.172091	-12.673056
1252.695316	-12.671751
1253.218979	-12.660117
1253.743079	-12.660350
1254.267619	-12.647117
1254.792597	-12.646181
1255.318015	-12.634214
1255.843874	-12.630073
1256.370173	-12.620532
1256.896913	-12.612272
1257.424095	-12.606062
1257.951720	-12.593669
1258.479787	-12.589848
1259.008298	-12.574475
1259.537254	-12.572178
1260.066654	-12.554914
1260.596499	-12.552830
1261.126790	-12.534637
1261.657527	-12.532629
1262.188711	-12.513419
1262.720342	-12.511113
1263.252422	-12.491591
1263.784950	-12.488523
1264.317928	-12.468857
1264.851355	-12.464980
1265.385232	-12.444788
1265.919560	-12.440521
1266.454340	-12.420266
1266.989572	-12.414103
1267.525256	-12.395004
1268.061394	-12.386806
1268.597985	-12.368227
1269.135031	-12.358816
1269.672531	-12.340269
1270.210487	-12.329341
1270.748899	-12.311575
1271.287768	-12.298785
1271.827094	-12.281385
1272.366877	-12.267326
1272.907119	-12.250405
1273.447820	-12.234518
1273.988981	-12.218465
1274.530601	-12.201242
1275.072683	-12.185003
1275.615226	-12.167366
1276.158230	-12.151095
1276.701697	-12.132260
1277.245627	-12.116805
1277.790021	-12.096971
1278.334879	-12.081585
1278.880202	-12.061365
1279.425991	-12.046299
1279.972245	-12.025299
1280.518966	-12.010632
1281.066155	-11.989563
1281.613811	-11.974739
1282.161936	-11.954007
1282.710529	-11.938668
1283.259593	-11.918994
1283.809126	-11.902565
1284.359131	-11.884243
1284.909607	-11.866940
1285.460555	-11.849718
1286.011976	-11.831736
1286.563870	-11.815748
1287.116237	-11.796765
1287.669080	-11.782236
1288.222397	-11.762502
1288.776191	-11.749075
1289.330460	-11.729006
1289.885207	-11.716131
1290.440431	-11.696531
1290.996133	-11.683407
1291.552314	-11.664778
1292.108975	-11.651063
1292.666115	-11.633765
1293.223737	-11.619570
1293.781839	-11.603099
1294.340424	-11.589085
1294.899491	-11.573206
1295.459041	-11.559517
1296.019075	-11.544062
1296.579593	-11.530810
1297.140597	-11.515926
1297.702086	-11.503169
1298.264061	-11.488598
1298.826524	-11.477052
1299.389474	-11.462490
1299.952912	-11.451878
1300.516839	-11.438276
1301.081255	-11.427631
1301.646162	-11.415575
1302.211559	-11.405061
1302.777448	-11.394272
1303.343829	-11.383927
1303.910702	-11.374621
1304.478069	-11.364742
1305.045930	-11.356344
1305.614285	-11.347421
1306.183136	-11.339544
1306.752483	-11.332174
1307.322326	-11.324132
1307.892666	-11.318251
1308.463504	-11.310870
1309.034841	-11.305464
1309.606677	-11.299446
1310.179012	-11.293986
1310.751849	-11.289550
1311.325186	-11.284150
1311.899025	-11.280898
1312.473366	-11.275785
1313.048211	-11.273495
1313.623559	-11.269054
1314.199412	-11.266981
1314.775770	-11.263927
1315.352634	-11.261453
1315.930004	-11.260014
1316.507881	-11.257672
1317.086266	-11.256417
1317.665159	-11.255794
1318.244562	-11.253787
1318.824474	-11.254805
1319.404897	-11.252782
1319.985831	-11.254483
1320.567276	-11.253364
1321.149234	-11.254963
1321.731706	-11.255184
1322.314691	-11.256387
1322.898190	-11.258068
1323.482205	-11.258992
1324.066736	-11.261335
1324.651783	-11.263394
1325.237347	-11.264665
1325.823430	-11.268950
1326.410031	-11.269392
1326.997151	-11.274098
1327.584791	-11.275726
1328.172952	-11.279477
1328.761634	-11.282853
1329.350839	-11.285497
1329.940566	-11.289843
1330.530817	-11.292920
1331.121592	-11.296393
1331.712891	-11.301167
1332.304716	-11.303318
1332.897068	-11.309074
1333.489946	-11.311488
1334.083352	-11.316391
1334.677287	-11.320127
1335.271750	-11.324157
1335.866744	-11.328474
1336.462268	-11.332461
1337.058323	-11.336475
1337.654910	-11.341338
1338.252029	-11.344306
1338.849682	-11.350022
1339.447869	-11.352832
1340.046591	-11.357850
1340.645848	-11.362085
1341.245641	-11.365554
1341.845972	-11.370518
1342.446840	-11.374598
1343.048246	-11.377866
1343.650191	-11.383666
1344.252677	-11.385960
1344.855702	-11.391458
1345.459269	-11.395018
1346.063379	-11.398805
1346.668030	-11.403635
1347.273226	-11.406963
1347.878965	-11.411200
1348.485250	-11.415777
1349.092080	-11.418608
1349.699456	-11.423915
1350.307380	-11.426895
1350.915851	-11.431196
1351.524871	-11.435644
1352.134441	-11.438654
1352.744560	-11.443503
1353.355231	-11.447347
1353.966453	-11.450733
1354.578227	-11.455988
1355.190555	-11.458734
1355.803436	-11.463683
1356.416872	-11.467932
1357.030863	-11.471316
1357.645411	-11.476420
1358.260515	-11.480671
1358.876177	-11.484454
1359.492397	-11.490168
1360.109176	-11.493834
1360.726516	-11.498877
1361.344416	-11.504599
1361.962877	-11.508268
1362.581901	-11.514866
1363.201487	-11.519615
1363.821637	-11.525075
1364.442352	-11.531628
1365.063632	-11.536726
1365.685478	-11.543327
1366.307891	-11.550271
1366.930871	-11.555761
1367.554420	-11.563923
1368.178538	-11.570249
1368.803226	-11.577664
1369.428485	-11.585802
1370.054315	-11.593240
1370.680717	-11.601107
1371.307693	-11.610563
1371.935242	-11.617721
1372.563366	-11.627708
1373.192065	-11.636530
1373.821341	-11.645542
1374.451193	-11.655749
1375.081623	-11.665698
1375.712632	-11.674876
1376.344221	-11.687149
1376.976389	-11.696178
1377.609139	-11.708364
1378.242470	-11.719460
1378.876384	-11.730952
1379.510881	-11.743001
1380.145963	-11.755964
1380.781629	-11.767144
1381.417881	-11.781970
1382.054720	-11.793802
1382.692147	-11.808247
1383.330161	-11.822202
1383.968765	-11.836760
1384.607959	-11.850974
1385.247743	-11.867615
1385.888119	-11.881725
1386.529087	-11.898911
1387.170648	-11.915153
1387.812804	-11.931800
1388.455554	-11.949274
1389.098899	-11.967585
1389.742842	-11.984347
1390.387381	-12.004634
1391.032519	-12.022171
1391.678256	-12.042313
1392.324592	-12.062201
1392.971529	-12.082430
1393.619068	-12.102886
1394.267208	-12.125072
1394.915952	-12.145877
1395.565300	-12.168659
1396.215253	-12.191356
1396.865812	-12.213899
1397.516977	-12.237770
1398.168749	-12.261947
1398.821130	-12.285161
1399.474120	-12.310736
1400.127719	-12.335492
1400.781930	-12.360357
1401.436752	-12.387159
1402.092186	-12.412698
1402.748234	-12.439541
1403.404897	-12.466898
1404.062174	-12.494653
1404.720067	-12.521758
1405.378577	-12.551504
1406.037705	-12.579101
1406.697451	-12.608641
1407.357817	-12.638014
1408.018803	-12.667611
1408.680410	-12.696906
1409.342639	-12.728232
1410.005492	-12.757197
1410.668968	-12.788982
1411.333068	-12.819414
1411.997795	-12.851210
1412.663147	-12.882066
1413.329127	-12.915630
1413.995736	-12.946323
1414.662973	-12.980505
1415.330840	-13.012799
1415.999339	-13.046327
1416.668469	-13.079194
1417.338232	-13.113771
1418.008628	-13.145843
1418.679659	-13.180479
1419.351325	-13.213638
1420.023628	-13.247165
1420.696568	-13.280734
1421.370145	-13.315296
1422.044362	-13.348383
1422.719219	-13.383526
1423.394717	-13.418296
1424.070856	-13.453010
1424.747638	-13.488836
1425.425064	-13.524975
1426.103134	-13.560579
1426.781850	-13.596915
1427.461212	-13.633814
1428.141221	-13.668773
1428.821878	-13.705572
1429.503185	-13.740602
1430.185141	-13.775828
1430.867749	-13.810010
1431.551008	-13.845563
1432.234920	-13.878256
1432.919486	-13.913608
1433.604707	-13.947508
1434.290583	-13.982707
1434.977116	-14.017233
1435.664307	-14.055191
1436.352156	-14.090369
1437.040664	-14.129642
1437.729833	-14.167679
1438.419663	-14.207600
1439.110156	-14.246050
1439.801312	-14.287292
1440.493132	-14.325287
1441.185617	-14.364422
1441.878768	-14.402240
1442.572586	-14.438725
1443.267072	-14.473194
1443.962228	-14.508267
1444.658053	-14.540243
1445.354549	-14.572073
1446.051717	-14.604167
1446.749558	-14.635659
1447.448073	-14.667338
1448.147263	-14.701423
1448.847128	-14.736918
1449.547671	-14.772920
1450.248891	-14.814095
1450.950789	-14.855393
1451.653368	-14.900037
1452.356627	-14.946025
1453.060568	-14.995280
1453.765192	-15.041825
1454.470500	-15.091953
1455.176492	-15.138752
1455.883170	-15.184462
1456.590534	-15.226396
1457.298586	-15.267520
1458.007327	-15.300655
1458.716758	-15.333196
1459.426880	-15.359675
1460.137693	-15.383214
1460.849199	-15.401910
1461.561398	-15.421662
1462.274293	-15.436328
1462.987883	-15.453151
1463.702170	-15.471085
1464.417155	-15.490784
1465.132838	-15.513038
1465.849222	-15.541477
1466.566306	-15.573500
1467.284093	-15.609801
1468.002582	-15.653303
1468.721775	-15.700194
1469.441674	-15.750732
1470.162278	-15.804924
1470.883590	-15.861073
1471.605609	-15.914052
1472.328338	-15.967911
1473.051777	-16.014636
1473.775928	-16.055635
1474.500790	-16.085484
1475.226367	-16.108476
1475.952657	-16.113668
1476.679663	-16.109849
1477.407386	-16.090501
1478.135826	-16.059398
1478.864985	-16.014093
1479.594863	-15.962284
1480.325463	-15.899027
1481.056784	-15.831477
1481.788828	-15.759998
1482.521597	-15.688366
1483.255090	-15.614861
1483.989309	-15.547003
1484.724256	-15.481342
1485.459931	-15.420727
1486.196336	-15.366680
1486.933471	-15.318978
1487.671337	-15.277458
1488.409937	-15.242137
1489.149270	-15.215738
1489.889337	-15.192361
1490.630141	-15.177575
1491.371682	-15.166788
1492.113961	-15.161884
1492.856979	-15.158405
1493.600738	-15.160802
1494.345238	-15.160824
1495.090481	-15.161793
1495.836467	-15.157318
1496.583198	-15.148589
1497.330675	-15.125755
1498.078899	-15.092416
1498.827872	-15.038444
1499.577593	-14.963644
1500.328065	-14.862000
1501.079289	-14.734595
1501.831265	-14.576175
1502.583995	-14.389667
1503.337480	-14.176678
1504.091721	-13.939995
1504.846719	-13.684031
1505.602475	-13.415588
1506.358991	-13.140270
1507.116268	-12.863360
1507.874306	-12.592943
1508.633108	-12.333291
1509.392673	-12.090715
1510.153004	-11.868372
1510.914101	-11.673519
1511.675965	-11.505748
1512.438599	-11.372122
1513.202002	-11.272567
1513.966176	-11.212686
1514.731122	-11.191414
1515.496842	-11.215384
1516.263336	-11.283807
1517.030607	-11.401578
1517.798654	-11.569776
1518.567479	-11.793509
1519.337083	-12.072746
1520.107468	-12.411844
1520.878634	-12.810511
1521.650584	-13.267878
1522.423317	-13.775529
1523.196836	-14.320247
1523.971141	-14.870690
1524.746233	-15.376633
1525.522115	-15.763512
1526.298786	-15.944206
1527.076249	-15.844614
1527.854504	-15.445855
1528.633553	-14.794021
1529.413397	-13.973932
1530.194037	-13.070117
1530.975474	-12.148130
1531.757709	-11.250235
1532.540745	-10.399614
1533.324581	-9.608312
1534.109220	-8.881537
1534.894662	-8.220892
1535.680909	-7.625027
1536.467961	-7.093043
1537.255821	-6.622546
1538.044489	-6.212123
1538.833967	-5.858902
1539.624256	-5.562393
1540.415357	-5.319639
1541.207271	-5.130155
1542.000000	-4.991314
1542.793545	-4.902818
1543.587907	-4.861878
1544.383087	-4.867760
1545.179088	-4.918178
1545.975909	-5.011669
1546.773552	-5.145636
1547.572019	-5.318352
1548.371311	-5.527034
1549.171428	-5.769032
1549.972373	-6.041290
1550.774147	-6.340827
1551.576751	-6.664104
1552.380185	-7.007165
1553.184453	-7.367108
1553.989554	-7.739244
1554.795490	-8.120960
1555.602263	-8.507872
1556.409873	-8.898666
1557.218322	-9.289473
1558.027612	-9.680329
1558.837743	-10.069791
1559.648717	-10.458758
1560.460536	-10.847569
1561.273200	-11.238828
1562.086710	-11.634076
1562.901069	-12.035754
1563.716278	-12.446386
1564.532337	-12.868280
1565.349249	-13.302796
1566.167014	-13.750790
1566.985634	-14.213952
1567.805111	-14.689677
1568.625444	-15.177988
1569.446637	-15.673896
1570.268690	-16.175076
1571.091605	-16.670658
1571.915382	-17.154444
1572.740024	-17.610939
1573.565532	-18.026237
1574.391907	-18.378820
1575.219150	-18.652357
1576.047262	-18.826502
1576.876246	-18.890179
1577.706103	-18.837459
1578.536833	-18.676920
1579.368439	-18.419444
1580.200922	-18.086881
1581.034282	-17.698943
1581.868522	-17.278546
1582.703643	-16.839830
1583.539646	-16.399263
1584.376532	-15.966016
1585.214304	-15.548445
1586.052962	-15.150358
1586.892508	-14.776194
1587.732943	-14.427802
1588.574269	-14.105382
1589.416487	-13.809905
1590.259599	-13.540953
1591.103605	-13.298374
1591.948508	-13.080187
1592.794309	-12.886821
1593.641009	-12.716063
1594.488609	-12.567187
1595.337112	-12.437695
1596.186518	-12.327639
1597.036829	-12.233460
1597.888047	-12.154752
1598.740172	-12.088309
1599.593207	-12.033888
1600.447153	-11.987232
1601.302010	-11.948430
1602.157782	-11.913932
1603.014469	-11.883283
1603.872072	-11.853092
1604.730593	-11.823671
1605.590034	-11.792392
1606.450397	-11.759057
1607.311681	-11.722330
1608.173890	-11.682757
1609.037024	-11.639436
1609.901085	-11.592948
1610.766075	-11.543961
1611.631995	-11.493066
1612.498846	-11.441032
1613.366630	-11.388730
1614.235349	-11.337798
1615.105004	-11.288161
1615.975596	-11.241646
1616.847128	-11.198217
1617.719600	-11.159623
1618.593014	-11.124848
1619.467372	-11.095945
1620.342675	-11.071760
1621.218924	-11.053757
1622.096122	-11.040385
1622.974270	-11.033477
1623.853369	-11.031103
1624.733420	-11.034536
1625.614427	-11.042054
1626.496389	-11.055042
1627.379308	-11.071257
1628.263187	-11.091867
1629.148026	-11.115069
1630.033828	-11.141718
1630.920593	-11.169737
1631.808324	-11.200035
1632.697022	-11.231045
1633.586688	-11.263073
1634.477324	-11.294829
1635.368932	-11.326970
1636.261514	-11.358526
1637.155070	-11.389750
1638.049602	-11.420475
1638.945113	-11.451217
1639.841603	-11.481853
1640.739075	-11.512794
1641.637529	-11.544683
1642.536968	-11.577684
1643.437393	-11.612302
1644.338806	-11.648637
1645.241209	-11.687630
1646.144602	-11.728615
1647.048988	-11.772524
1647.954368	-11.818682
1648.860744	-11.867990
1649.768118	-11.919065
1650.676491	-11.973020
1651.585865	-12.028530
1652.496241	-12.086354
1653.407621	-12.144956
1654.320008	-12.205477
1655.233401	-12.266293
1656.147804	-12.328266
1657.063218	-12.390048
1657.979645	-12.452825
1658.897085	-12.514989
1659.815542	-12.577779
1660.735016	-12.640017
1661.655509	-12.703006
1662.577023	-12.765384
1663.499560	-12.828681
1664.423121	-12.891886
1665.347709	-12.956223
1666.273324	-13.020675
1667.199969	-13.086593
1668.127645	-13.153032
1669.056353	-13.220810
1669.986097	-13.289159
1670.916877	-13.358837
1671.848695	-13.428888
1672.781553	-13.499774
1673.715452	-13.570815
1674.650395	-13.642344
1675.586383	-13.713595
1676.523418	-13.784942
1677.461501	-13.855912
1678.400635	-13.926709
1679.340821	-13.996993
1680.282061	-14.067040
1681.224357	-14.136725
1682.167710	-14.206084
1683.112122	-14.275211
1684.057595	-14.344104
1685.004132	-14.412915
1685.951732	-14.481403
1686.900400	-14.549872
1687.850135	-14.617969
1688.800940	-14.685852
1689.752818	-14.753108
1690.705768	-14.820005
1691.659795	-14.886088
1692.614898	-14.951632
1693.571081	-15.016178
1694.528345	-15.080152
1695.486691	-15.143077
1696.446122	-15.205448
1697.406640	-15.266748
1698.368245	-15.327534
1699.330941	-15.387225
1700.294729	-15.446414
1701.259611	-15.504413
1702.225588	-15.561906
1703.192664	-15.618117
1704.160838	-15.673646
1705.130114	-15.727850
1706.100493	-15.781273
1707.071977	-15.833193
1708.044568	-15.884207
1709.018268	-15.933629
1709.993079	-15.982016
1710.969003	-16.028676
1711.946041	-16.074136
1712.924196	-16.117885
1713.903469	-16.160323
1714.883862	-16.200830
1715.865378	-16.239984
1716.848017	-16.277019
1717.831783	-16.312433
1718.816677	-16.345485
1719.802701	-16.376904
1720.789857	-16.405573
1721.778147	-16.432343
1722.767573	-16.456219
1723.758136	-16.477943
1724.749840	-16.496582
1725.742685	-16.512819
1726.736673	-16.526084
1727.731808	-16.536884
1728.728090	-16.544674
1729.725521	-16.550125
1730.724105	-16.552728
1731.723842	-16.552981
1732.724735	-16.550386
1733.726785	-16.545656
1734.729995	-16.538088
1735.734366	-16.528297
1736.739902	-16.515779
1737.746603	-16.501260
1738.754472	-16.484089
1739.763510	-16.465071
1740.773721	-16.443804
1741.785105	-16.421001
1742.797665	-16.396116
1743.811403	-16.369984
1744.826321	-16.342065
1745.842422	-16.312938
1746.859706	-16.282043
1747.878177	-16.250178
1748.897835	-16.216724
1749.918685	-16.182384
1750.940726	-16.146695
1751.963963	-16.110407
1752.988395	-16.072827
1754.014027	-16.034628
1755.040860	-15.995297
1756.068895	-15.955422
1757.098135	-15.914346
1758.128583	-15.872855
1759.160240	-15.830458
1760.193109	-15.787725
1761.227191	-15.744217
1762.262488	-15.700602
1763.299004	-15.656247
1764.336740	-15.611696
1765.375697	-15.566502
1766.415880	-15.521150
1767.457288	-15.475122
1768.499926	-15.429119
1769.543794	-15.382751
1770.588895	-15.336475
1771.635231	-15.289881
1772.682805	-15.243578
1773.731619	-15.196983
1774.781674	-15.150408
1775.832973	-15.103505
1776.885519	-15.056791
1777.939312	-15.009761
1778.994357	-14.962928
1780.050654	-14.916142
1781.108207	-14.869847
1782.167017	-14.823614
1783.227087	-14.777970
1784.288418	-14.732670
1785.351013	-14.687931
1786.414875	-14.643375
1787.480006	-14.599431
1788.546407	-14.555844
1789.614082	-14.512792
1790.683032	-14.470145
1791.753259	-14.428269
1792.824767	-14.386951
1793.897557	-14.346302
1794.971632	-14.306207
1796.046994	-14.266797
1797.123645	-14.227779
1798.201588	-14.189223
1799.280824	-14.150994
1800.361357	-14.113104
1801.443188	-14.075312
1802.526320	-14.037699
1803.610756	-14.000215
1804.696497	-13.962826
1805.783546	-13.925492
1806.871906	-13.888250
1807.961578	-13.851069
1809.052565	-13.813827
1810.144870	-13.776597
1811.238494	-13.739311
1812.333441	-13.702073
1813.429713	-13.664797
1814.527311	-13.627743
1815.626239	-13.590788
1816.726499	-13.554118
1817.828094	-13.517646
1818.931025	-13.481544
1820.035295	-13.445648
1821.140906	-13.410165
1822.247862	-13.375034
1823.356165	-13.340425
1824.465816	-13.306267
1825.576819	-13.272736
1826.689175	-13.239688
1827.802888	-13.207210
1828.917960	-13.175229
1830.034394	-13.143845
1831.152191	-13.112986
1832.271354	-13.082785
1833.391887	-13.053236
1834.513790	-13.024389
1835.637068	-12.996181
1836.761722	-12.968631
1837.887755	-12.941678
1839.015169	-12.915289
1840.143968	-12.889483
1841.274153	-12.864235
1842.405727	-12.839488
1843.538693	-12.815206
1844.673053	-12.791368
1845.808810	-12.767900
1846.945966	-12.744761
1848.084525	-12.721940
1849.224488	-12.699410
1850.365858	-12.677108
1851.508638	-12.655016
1852.652831	-12.633141
1853.798438	-12.611471
1854.945463	-12.590027
1856.093909	-12.568901
1857.243777	-12.548090
1858.395071	-12.527605
1859.547794	-12.507420
1860.701947	-12.487535
1861.857533	-12.467866
1863.014556	-12.448470
1864.173018	-12.429330
1865.332922	-12.410468
1866.494270	-12.391815
1867.657065	-12.373343
1868.821309	-12.354916
1869.987006	-12.336483
1871.154158	-12.317925
1872.322768	-12.299281
1873.492839	-12.280521
1874.664373	-12.261703
1875.837373	-12.242828
1877.011841	-12.223927
1878.187782	-12.205025
1879.365197	-12.186173
1880.544089	-12.167387
1881.724460	-12.148711
1882.906315	-12.130194
1884.089655	-12.111861
1885.274483	-12.093751
1886.460803	-12.075883
1887.648616	-12.058347
1888.837927	-12.041199
1890.028736	-12.024550
1891.221049	-12.008436
1892.414866	-11.992916
1893.610192	-11.977945
1894.807028	-11.963468
1896.005379	-11.949350
1897.205246	-11.935543
1898.406633	-11.922002
1899.609542	-11.908797
1900.813977	-11.896017
1902.019940	-11.883682
1903.227434	-11.871778
1904.436462	-11.860259
1905.647028	-11.849055
1906.859133	-11.838148
1908.072781	-11.827566
1909.287976	-11.817292
1910.504719	-11.807367
1911.723013	-11.797798
1912.942863	-11.788634
1914.164270	-11.779861
1915.387238	-11.771493
1916.611770	-11.763476
1917.837868	-11.755779
1919.065536	-11.748373
1920.294777	-11.741256
1921.525594	-11.734385
1922.757989	-11.727758
1923.991967	-11.721387
1925.227529	-11.715261
1926.464679	-11.709397
1927.703420	-11.703751
1928.943755	-11.698250
1930.185688	-11.692796
1931.429221	-11.687340
1932.674356	-11.681846
1933.921099	-11.676375
1935.169451	-11.671009
1936.419415	-11.665839
1937.670996	-11.660927
1938.924195	-11.656276
1940.179017	-11.651820
1941.435463	-11.647458
1942.693538	-11.643114
1943.953245	-11.638726
1945.214586	-11.634354
1946.477566	-11.630081
1947.742186	-11.625984
1949.008451	-11.622065
1950.276363	-11.618317
1951.545926	-11.614711
1952.817143	-11.611239
1954.090017	-11.607923
1955.364551	-11.604808
1956.640749	-11.601939
1957.918615	-11.599325
1959.198150	-11.597028
1960.479359	-11.595111
1961.762244	-11.593655
1963.046810	-11.592729
1964.333059	-11.592369
1965.620995	-11.592547
1966.910621	-11.593271
1968.201940	-11.594626
1969.494956	-11.596678
1970.789672	-11.599465
1972.086091	-11.602956
1973.384217	-11.607032
1974.684053	-11.611507
1975.985602	-11.616286
1977.288869	-11.621383
1978.593855	-11.626870
1979.900566	-11.632817
1981.209003	-11.639229
1982.519171	-11.645970
1983.831073	-11.652886
1985.144712	-11.659857
1986.460093	-11.666863
1987.777217	-11.673941
1989.096089	-11.681256
1990.416713	-11.689008
1991.739092	-11.697288
1993.063228	-11.706037
1994.389127	-11.715047
1995.716791	-11.724073
1997.046223	-11.732915
1998.377428	-11.741561
1999.710409	-11.750164
2001.045169	-11.758844
2002.381713	-11.767621
2003.720043	-11.776465
2005.060163	-11.785227
2006.402077	-11.793743
2007.745788	-11.801955
2009.091301	-11.809939
2010.438618	-11.817784
2011.787743	-11.825644
2013.138680	-11.833714
2014.491433	-11.842037
2015.846005	-11.850586
2017.202399	-11.859258
2018.560621	-11.867882
2019.920673	-11.876349
2021.282558	-11.884807
2022.646281	-11.893634
2024.011846	-11.903062
2025.379256	-11.913146
2026.748515	-11.923746
2028.119626	-11.934621
2029.492594	-11.945707
2030.867422	-11.957228
2032.244114	-11.969564
2033.622673	-11.982961
2035.003104	-11.997575
2036.385411	-12.013431
2037.769597	-12.030238
2039.155665	-12.047718
2040.543621	-12.065758
2041.933467	-12.084423
2043.325208	-12.103950
2044.718847	-12.124556
2046.114389	-12.146286
2047.511837	-12.168824
2048.911195	-12.191858
2050.312467	-12.215301
2051.715657	-12.239058
2053.120769	-12.263249
2054.527807	-12.288114
2055.936775	-12.313634
2057.347677	-12.339716
2058.760516	-12.366211
2060.175297	-12.392845
2061.592025	-12.419409
2063.010701	-12.445923
2064.431332	-12.472608
2065.853921	-12.499659
2067.278472	-12.527112
2068.704988	-12.554821
2070.133475	-12.582383
2071.563936	-12.609603
2072.996375	-12.636727
2074.430796	-12.663995
2075.867204	-12.691495
2077.305603	-12.719282
2078.745996	-12.747211
2080.188389	-12.775001
2081.632784	-12.802496
2083.079187	-12.829624
2084.527601	-12.856503
2085.978030	-12.883566
2087.430480	-12.911128
2088.884954	-12.939101
2090.341455	-12.967287
2091.799990	-12.995612
2093.260561	-13.024120
2094.723173	-13.053073
2096.187831	-13.082820
2097.654538	-13.113500
2099.123300	-13.145154
2100.594119	-13.177777
2102.067001	-13.211107
2103.541950	-13.244962
2105.018971	-13.279592
2106.498067	-13.315312
2107.979243	-13.352266
2109.462503	-13.390496
2110.947853	-13.429911
2112.435295	-13.470462
2113.924836	-13.512273
2115.416478	-13.555388
2116.910227	-13.599825
2118.406087	-13.645631
2119.904063	-13.692458
2121.404158	-13.739720
2122.906378	-13.787223
2124.410727	-13.835126
2125.917210	-13.883740
2127.425831	-13.933323
2128.936594	-13.983657
2130.449505	-14.034362
2131.964567	-14.085294
2133.481786	-14.136226
2135.001166	-14.187142
2136.522711	-14.238579
2138.046427	-14.290877
2139.572317	-14.343823
2141.100388	-14.396836
2142.630642	-14.449364
2144.163085	-14.501695
2145.697722	-14.554542
2147.234558	-14.608082
2148.773596	-14.662139
2150.314842	-14.716231
2151.858301	-14.769803
2153.403977	-14.822919
2154.951875	-14.875891
2156.502000	-14.929077
2158.054357	-14.982854
2159.608950	-15.036940
2161.165785	-15.091031
2162.724866	-15.145358
2164.286198	-15.200209
2165.849786	-15.256013
2167.415635	-15.312681
2168.983749	-15.369668
2170.554134	-15.427241
2172.126795	-15.485862
2173.701737	-15.545886
2175.278964	-15.607571
2176.858481	-15.670391
2178.440294	-15.734058
2180.024408	-15.798672
2181.610827	-15.864461
2183.199557	-15.932481
2184.790602	-16.002959
2186.383968	-16.075150
2187.979660	-16.148577
2189.577683	-16.222725
2191.178041	-16.298062
2192.780741	-16.375078
2194.385787	-16.453442
2195.993185	-16.533135
2197.602939	-16.613395
2199.215054	-16.687659
