# 2022-03-21_23.42.29
# shape = sech2
# FWHM_ps = 0.1
# carrier_nm = 1542
# frep_MHz = 12126
# pow_mW = 8000
# GDD = 0.0
# propa_len = 0.13244444444444445
# untap_len = 0.01
# taper_len = 0.07244444444444445
# waist_len = 0.02
# uptap_len = 0.02
# untap_scale = 1.0
# waist_scale = 0.11578947368421054
# workingDir = NL_20110305_12 (Spirou)
# axis = slow
# window_ps = 10.0
# steps = 200
# points = 21700
# 
# wavelength [nm]	 power spectral density [dB]
600.043425	-85.966621
600.163550	-83.474512
600.283723	-82.021165
600.403943	-80.587357
600.524212	-89.039157
600.644529	-90.650015
600.764895	-92.204206
600.885308	-86.177217
601.005770	-83.320046
601.126280	-82.770131
601.246839	-83.330566
601.367446	-88.960441
601.488101	-94.947051
601.608804	-83.580872
601.729557	-80.714050
601.850357	-84.164796
601.971206	-86.680199
602.092104	-86.989743
602.213050	-83.794483
602.334045	-86.548657
602.455089	-102.287515
602.576181	-89.080417
602.697322	-81.230079
602.818511	-80.076750
602.939749	-86.841487
603.061036	-94.508474
603.182372	-88.492021
603.303757	-80.930160
603.425191	-85.006702
603.546673	-91.375986
603.668204	-84.798579
603.789785	-78.473377
603.911414	-78.477389
604.033092	-85.408556
604.154820	-85.889632
604.276596	-83.352617
604.398422	-78.104429
604.520297	-78.453676
604.642220	-86.950296
604.764193	-101.315621
604.886216	-82.708094
605.008287	-80.220830
605.130408	-84.851165
605.252578	-97.362293
605.374798	-83.136403
605.497066	-77.853950
605.619385	-78.319278
605.741752	-85.740364
605.864169	-96.198313
605.986636	-87.177984
606.109152	-81.418349
606.231718	-83.964176
606.354333	-91.128795
606.476998	-87.295906
606.599712	-79.681412
606.722476	-78.977470
606.845290	-81.099449
606.968154	-86.566095
607.091067	-87.795989
607.214030	-78.167828
607.337043	-76.553231
607.460106	-79.891557
607.583219	-85.432013
607.706381	-85.465787
607.829594	-84.277667
607.952856	-83.611944
608.076169	-84.449327
608.199531	-83.293026
608.322944	-84.668712
608.446407	-83.961146
608.569920	-81.950745
608.693483	-80.347936
608.817096	-84.669644
608.940759	-94.435138
609.064473	-86.360259
609.188237	-78.711417
609.312051	-78.637680
609.435916	-82.670699
609.559831	-87.274352
609.683796	-82.141346
609.807812	-78.307496
609.931878	-79.212790
610.055995	-93.121632
610.180162	-85.489335
610.304380	-80.964823
610.428648	-75.583274
610.552967	-76.861650
610.677337	-84.747133
610.801757	-90.576083
610.926228	-86.108610
611.050750	-80.231215
611.175323	-78.797312
611.299946	-81.984451
611.424620	-85.319261
611.549345	-83.835270
611.674121	-80.424046
611.798948	-78.407492
611.923826	-80.120182
612.048755	-85.004673
612.173734	-88.990495
612.298765	-79.907376
612.423847	-78.847391
612.548980	-79.886702
612.674165	-82.278449
612.799400	-79.465444
612.924687	-75.814829
613.050025	-76.169455
613.175414	-78.979172
613.300854	-91.525798
613.426346	-81.434042
613.551889	-80.907523
613.677484	-83.320670
613.803130	-80.844957
613.928827	-77.929043
614.054576	-79.294795
614.180377	-80.824943
614.306229	-79.559210
614.432132	-79.504043
614.558087	-77.476301
614.684094	-84.159328
614.810153	-81.842370
614.936263	-77.051719
615.062425	-78.382724
615.188639	-83.359363
615.314904	-80.292148
615.441222	-77.347646
615.567591	-78.498520
615.694012	-79.937818
615.820486	-80.481786
615.947011	-80.859441
616.073588	-83.435046
616.200217	-87.515381
616.326898	-79.075458
616.453632	-75.225878
616.580417	-77.658403
616.707255	-94.058458
616.834144	-84.049905
616.961086	-78.700924
617.088081	-75.717805
617.215127	-77.027692
617.342226	-80.811799
617.469378	-95.193111
617.596581	-84.147357
617.723837	-77.875547
617.851146	-77.067905
617.978507	-76.756328
618.105920	-83.788976
618.233386	-97.299174
618.360905	-78.038331
618.488476	-73.873102
618.616100	-79.141107
618.743777	-84.155758
618.871506	-81.036347
618.999288	-80.261185
619.127123	-77.559040
619.255011	-76.313257
619.382951	-79.755339
619.510945	-83.638052
619.638991	-80.059804
619.767090	-81.653277
619.895243	-77.959526
620.023448	-75.908836
620.151706	-77.622369
620.280017	-81.673791
620.408382	-83.810164
620.536799	-75.985611
620.665270	-74.747500
620.793794	-78.457829
620.922371	-84.138741
621.051002	-80.245178
621.179686	-74.791176
621.308423	-75.803290
621.437213	-82.208588
621.566057	-85.449900
621.694954	-79.315413
621.823905	-76.939667
621.952909	-78.015693
622.081967	-77.496173
622.211079	-78.153694
622.340244	-78.198829
622.469462	-80.218698
622.598735	-79.257997
622.728061	-80.184050
622.857441	-79.767392
622.986874	-76.607650
623.116361	-75.440809
623.245903	-79.949875
623.375498	-79.508703
623.505147	-78.810291
623.634850	-82.586393
623.764606	-77.584857
623.894417	-73.551059
624.024282	-77.827958
624.154201	-82.402865
624.284174	-78.519779
624.414202	-78.559054
624.544283	-77.511965
624.674419	-75.697436
624.804609	-78.067931
624.934853	-80.786864
625.065151	-81.908447
625.195504	-80.049834
625.325911	-76.951907
625.456373	-74.624561
625.586889	-74.646999
625.717460	-82.682978
625.848085	-90.787821
625.978764	-78.972433
626.109498	-74.960739
626.240287	-76.610324
626.371131	-75.892222
626.502029	-79.112883
626.632982	-84.695136
626.763989	-85.529394
626.895052	-74.325556
627.026169	-72.893403
627.157341	-80.740809
627.288568	-85.925055
627.419850	-78.644778
627.551187	-76.679565
627.682579	-76.054165
627.814026	-75.436146
627.945528	-80.210330
628.077085	-84.296149
628.208697	-78.939562
628.340364	-78.575844
628.472087	-77.253388
628.603865	-73.494923
628.735698	-76.782447
628.867586	-80.592238
628.999530	-76.922575
629.131529	-76.180918
629.263584	-78.300302
629.395694	-75.149921
629.527859	-76.651566
629.660080	-80.584822
629.792357	-78.485026
629.924689	-75.130244
630.057077	-79.208729
630.189520	-76.223547
630.322019	-73.950288
630.454574	-79.331725
630.587184	-79.549653
630.719851	-75.427752
630.852573	-80.778325
630.985351	-76.105182
631.118185	-76.737476
631.251075	-86.976835
631.384021	-83.515010
631.517023	-73.170731
631.650081	-72.153267
631.783195	-79.271492
631.916365	-78.240110
632.049592	-82.569133
632.182874	-84.208503
632.316213	-76.920834
632.449608	-74.013607
632.583059	-74.018730
632.716567	-78.502430
632.850131	-79.191241
632.983751	-83.511406
633.117428	-85.094066
633.251161	-76.829725
633.384951	-72.212981
633.518797	-73.470360
633.652700	-84.724419
633.786660	-78.894477
633.920676	-74.837006
634.054749	-73.563618
634.188879	-81.909998
634.323065	-74.950241
634.457308	-73.869523
634.591608	-76.617670
634.725965	-77.297136
634.860379	-80.161855
634.994850	-79.706553
635.129377	-71.680834
635.263962	-74.355938
635.398604	-94.529205
635.533303	-76.776779
635.668058	-73.108529
635.802872	-73.792849
635.937742	-79.879949
636.072669	-75.437608
636.207654	-72.741162
636.342696	-76.815434
636.477796	-79.913347
636.612953	-80.703719
636.748167	-76.844750
636.883439	-71.849156
637.018768	-75.122564
637.154155	-83.396072
637.289599	-78.598673
637.425101	-78.026817
637.560660	-76.905342
637.696277	-76.504766
637.831952	-72.415733
637.967685	-77.697290
638.103475	-82.419024
638.239324	-77.796194
638.375230	-75.021187
638.511194	-75.659392
638.647215	-78.497411
638.783295	-70.978740
638.919433	-73.378365
639.055629	-84.299154
639.191883	-87.581606
639.328195	-76.682681
639.464565	-73.270603
639.600994	-74.250244
639.737481	-77.012004
639.874025	-77.526419
640.010629	-80.864816
640.147290	-80.458731
640.284010	-75.606117
640.420789	-76.412771
640.557625	-77.123238
640.694521	-72.044133
640.831474	-73.486434
640.968487	-82.343381
641.105558	-84.396430
641.242687	-78.326068
641.379876	-76.904331
641.517123	-78.441420
641.654429	-75.145608
641.791793	-74.631136
641.929216	-81.162622
642.066699	-74.855707
642.204240	-72.583853
642.341840	-74.021530
642.479499	-90.319981
642.617217	-73.832383
642.754994	-73.303465
642.892830	-81.139535
643.030726	-82.651290
643.168680	-79.035560
643.306694	-78.982627
643.444767	-74.617378
643.582899	-74.529836
643.721091	-76.385867
643.859342	-83.220826
643.997652	-79.805054
644.136022	-77.885762
644.274451	-76.106015
644.412940	-75.180078
644.551488	-75.506280
644.690096	-73.763576
644.828763	-74.373774
644.967490	-76.706850
645.106277	-85.117946
645.245124	-91.325166
645.384030	-85.204547
645.522997	-76.791130
645.662023	-72.028663
645.801109	-74.626445
645.940255	-76.417703
646.079460	-80.841464
646.218726	-79.005070
646.358052	-76.917167
646.497438	-82.794424
646.636884	-77.636244
646.776391	-77.844905
646.915957	-79.615308
647.055584	-75.076206
647.195271	-75.803511
647.335019	-80.758132
647.474826	-82.121943
647.614695	-79.199180
647.754623	-73.474519
647.894612	-71.747538
648.034662	-80.120075
648.174772	-79.269610
648.314943	-76.405542
648.455174	-81.263562
648.595466	-84.060969
648.735819	-74.070980
648.876233	-75.067269
649.016707	-77.477732
649.157242	-74.965518
649.297838	-74.163072
649.438495	-82.075721
649.579213	-82.778616
649.719992	-79.167240
649.860832	-79.035018
650.001733	-83.242236
650.142695	-72.701872
650.283718	-73.322167
650.424803	-79.710486
650.565949	-84.875363
650.707156	-75.686771
650.848424	-75.054013
650.989754	-77.488038
651.131145	-84.232288
651.272597	-79.818765
651.414111	-75.325877
651.555687	-82.552555
651.697324	-76.675826
651.839022	-78.005428
651.980782	-77.980733
652.122604	-77.251216
652.264488	-89.835402
652.406433	-72.599826
652.548441	-76.039380
652.690510	-76.452811
652.832640	-77.140947
652.974833	-87.101129
653.117088	-87.752281
653.259405	-101.692124
653.401784	-79.436613
653.544224	-73.782970
653.686727	-78.477669
653.829293	-80.449178
653.971920	-74.775434
654.114609	-76.073417
654.257361	-83.405970
654.400175	-79.319172
654.543052	-82.992490
654.685991	-91.165457
654.828992	-83.016543
654.972056	-80.737608
655.115183	-76.909691
655.258372	-81.107970
655.401623	-76.158997
655.544937	-78.453163
655.688314	-83.630945
655.831754	-79.206595
655.975256	-77.647038
656.118822	-77.918099
656.262450	-80.488293
656.406141	-77.460741
656.549894	-85.094029
656.693711	-78.737541
656.837591	-84.960333
656.981534	-87.438113
657.125540	-80.430260
657.269610	-78.702430
657.413742	-84.209167
657.557938	-75.803256
657.702196	-79.439188
657.846519	-80.995249
657.990904	-74.692342
658.135353	-79.254730
658.279866	-83.755841
658.424441	-82.834011
658.569081	-93.277343
658.713784	-89.135837
658.858550	-77.610853
659.003381	-77.981280
659.148274	-87.544115
659.293232	-84.143090
659.438253	-85.333422
659.583339	-83.360201
659.728488	-92.327946
659.873701	-88.334459
660.018978	-96.360103
660.164318	-78.890939
660.309723	-80.515699
660.455192	-83.101356
660.600725	-78.625874
660.746323	-83.978524
660.891984	-87.281988
661.037710	-79.567202
661.183500	-79.120990
661.329354	-75.713577
661.475272	-83.576415
661.621255	-82.639421
661.767303	-81.281691
661.913415	-77.046602
662.059591	-85.573369
662.205833	-78.661314
662.352138	-75.604593
662.498509	-85.078560
662.644944	-77.376854
662.791443	-79.532564
662.938008	-80.789138
663.084638	-80.179645
663.231332	-85.583083
663.378091	-88.764080
663.524915	-84.199945
663.671804	-87.985393
663.818759	-91.452115
663.965778	-81.929226
664.112863	-82.298345
664.260012	-82.864606
664.407227	-81.876869
664.554507	-81.196214
664.701853	-80.929960
664.849264	-79.100982
664.996740	-79.658891
665.144282	-77.714302
665.291889	-76.333889
665.439561	-84.730855
665.587300	-76.032415
665.735103	-74.869162
665.882973	-86.680092
666.030908	-78.214255
666.178909	-83.865205
666.326976	-77.196822
666.475109	-78.273230
666.623307	-79.145613
666.771571	-80.055473
666.919902	-79.617546
667.068298	-76.206193
667.216761	-83.378117
667.365289	-80.985034
667.513884	-79.517602
667.662545	-78.677105
667.811272	-78.502976
667.960065	-84.046884
668.108925	-83.532059
668.257851	-92.562100
668.406843	-76.530370
668.555902	-77.385446
668.705027	-91.319462
668.854219	-77.342872
669.003478	-75.737586
669.152803	-77.353894
669.302195	-82.233914
669.451653	-74.062249
669.601179	-73.818202
669.750771	-78.273689
669.900430	-85.548845
670.050156	-81.984204
670.199949	-76.439558
670.349808	-77.504843
670.499735	-80.233042
670.649729	-79.875464
670.799790	-75.712847
670.949918	-75.347071
671.100114	-76.862822
671.250377	-75.216809
671.400707	-91.602525
671.551104	-73.155094
671.701569	-75.920973
671.852101	-79.482991
672.002700	-77.027726
672.153368	-85.473734
672.304102	-75.035689
672.454905	-71.662097
672.605775	-74.299120
672.756713	-86.790769
672.907718	-73.125121
673.058791	-73.945464
673.209933	-76.648765
673.361142	-74.620515
673.512419	-81.363699
673.663764	-74.944469
673.815177	-73.873755
673.966658	-78.855964
674.118207	-74.445473
674.269825	-74.354926
674.421510	-75.506910
674.573264	-69.797795
674.725086	-69.953362
674.876977	-83.471192
675.028936	-73.333049
675.180963	-74.741351
675.333059	-72.513642
675.485224	-71.839414
675.637457	-85.896319
675.789758	-72.511753
675.942129	-74.992159
676.094568	-75.465246
676.247075	-71.235172
676.399652	-76.050795
676.552298	-76.949430
676.705012	-72.283977
676.857795	-69.246222
677.010648	-72.329290
677.163569	-73.232735
677.316560	-76.090159
677.469619	-68.863184
677.622748	-75.020117
677.775946	-73.185062
677.929214	-70.463601
678.082551	-74.619405
678.235957	-73.868300
678.389432	-70.158332
678.542977	-68.385049
678.696592	-72.217701
678.850276	-74.918724
679.004030	-72.224067
679.157853	-68.700431
679.311746	-69.467426
679.465709	-72.049155
679.619742	-71.766740
679.773844	-70.045118
679.928017	-74.808877
680.082259	-71.930472
680.236571	-70.552300
680.390954	-73.216802
680.545406	-71.839189
680.699929	-72.367494
680.854522	-70.601257
681.009185	-67.815030
681.163918	-68.739678
681.318722	-73.304207
681.473596	-72.354803
681.628540	-68.048101
681.783555	-70.204321
681.938641	-72.596173
682.093797	-69.099142
682.249023	-70.665098
682.404321	-71.285961
682.559689	-69.568756
682.715128	-67.301400
682.870637	-70.630575
683.026218	-69.511353
683.181869	-69.151562
683.337591	-72.449461
683.493385	-68.600111
683.649249	-66.239854
683.805185	-69.055414
683.961191	-69.278100
684.117269	-68.386064
684.273418	-70.618078
684.429639	-67.013067
684.585930	-67.718841
684.742294	-72.229972
684.898728	-68.837998
685.055234	-68.215798
685.211812	-69.695515
685.368461	-72.651466
685.525182	-66.645292
685.681975	-66.845166
685.838839	-71.517151
685.995775	-67.744862
686.152783	-68.477386
686.309863	-67.442268
686.467014	-68.531022
686.624238	-67.319862
686.781534	-68.625964
686.938902	-69.660460
687.096342	-66.816582
687.253854	-67.751715
687.411438	-67.891777
687.569095	-69.898936
687.726824	-68.389396
687.884626	-67.646731
688.042499	-69.271650
688.200446	-68.999753
688.358465	-68.602275
688.516556	-66.154197
688.674720	-68.865860
688.832957	-68.332017
688.991266	-68.544324
689.149649	-65.834413
689.308104	-66.535431
689.466632	-67.617503
689.625233	-66.618431
689.783906	-66.482504
689.942653	-69.616794
690.101473	-66.617868
690.260367	-64.110869
690.419333	-70.893474
690.578372	-66.216126
690.737485	-66.392214
690.896672	-68.487131
691.055931	-65.938493
691.215264	-68.431366
691.374671	-67.192066
691.534151	-65.015659
691.693704	-67.243856
691.853332	-69.093524
692.013033	-65.030539
692.172807	-66.358179
692.332656	-67.263655
692.492578	-64.287706
692.652575	-67.801091
692.812645	-65.564577
692.972789	-66.647710
693.133007	-66.096735
693.293300	-64.941028
693.453666	-64.578964
693.614107	-67.550088
693.774622	-68.166233
693.935211	-64.507116
694.095875	-64.169224
694.256613	-70.637365
694.417426	-64.513134
694.578313	-62.855942
694.739274	-69.271470
694.900311	-67.202119
695.061421	-64.576427
695.222607	-64.971442
695.383868	-67.855360
695.545203	-66.106577
695.706613	-64.180492
695.868098	-66.187311
696.029658	-66.904753
696.191293	-68.197203
696.353003	-64.611267
696.514789	-64.531953
696.676649	-67.453114
696.838585	-65.180618
697.000596	-67.391385
697.162682	-64.699428
697.324844	-65.277798
697.487081	-68.696950
697.649394	-63.925472
697.811782	-63.179347
697.974246	-69.407765
698.136786	-65.282286
698.299401	-63.130392
698.462092	-68.019484
698.624859	-63.381722
698.787702	-66.888828
698.950621	-66.513273
699.113616	-63.381136
699.276686	-67.067259
699.439833	-65.727449
699.603056	-65.897205
699.766355	-64.971813
699.929731	-64.722592
700.093183	-68.059434
700.256711	-67.030019
700.420315	-64.224988
700.583996	-65.156868
700.747754	-69.067090
700.911588	-64.802637
701.075499	-65.823686
701.239486	-63.933158
701.403550	-67.036289
701.567691	-65.807768
701.731909	-65.258125
701.896203	-64.926689
702.060575	-63.768381
702.225024	-67.017023
702.389549	-64.389427
702.554152	-65.407386
702.718832	-63.106556
702.883589	-65.564157
703.048424	-64.530230
703.213335	-62.622070
703.378324	-65.744814
703.543391	-62.855465
703.708535	-67.767668
703.873757	-63.792089
704.039056	-62.054162
704.204433	-65.554596
704.369887	-65.636444
704.535420	-65.462720
704.701030	-64.541477
704.866718	-66.194094
705.032484	-64.562193
705.198328	-65.844665
705.364250	-65.444273
705.530250	-65.844846
705.696328	-63.751037
705.862485	-65.123712
706.028720	-68.317398
706.195033	-63.402834
706.361424	-64.005512
706.527894	-63.834706
706.694442	-66.595758
706.861069	-63.350933
707.027775	-63.272282
707.194559	-65.579330
707.361422	-61.775051
707.528363	-64.684485
707.695384	-63.591765
707.862483	-62.755369
708.029661	-62.201575
708.196918	-62.529444
708.364254	-65.658748
708.531670	-61.560011
708.699164	-63.018381
708.866738	-61.573234
709.034391	-61.511317
709.202123	-64.147937
709.369935	-62.493211
709.537826	-62.717068
709.705796	-61.624489
709.873847	-63.260336
710.041976	-62.472827
710.210186	-61.912216
710.378475	-63.503933
710.546844	-62.327778
710.715292	-63.259899
710.883821	-63.029600
711.052429	-63.033118
711.221118	-64.696783
711.389887	-59.690317
711.558735	-62.635725
711.727664	-66.206361
711.896673	-60.351451
712.065763	-63.797118
712.234932	-63.463634
712.404183	-61.861123
712.573513	-62.484944
712.742924	-63.031217
712.912416	-65.167278
713.081988	-60.753082
713.251641	-63.895332
713.421375	-62.066619
713.591190	-62.319711
713.761085	-63.242207
713.931061	-60.662806
714.101119	-63.340519
714.271257	-60.799030
714.441476	-62.444586
714.611777	-62.520421
714.782159	-60.073944
714.952622	-63.259336
715.123166	-60.460197
715.293792	-60.739355
715.464499	-62.124349
715.635288	-60.022990
715.806158	-62.953406
715.977110	-59.694439
716.148143	-60.195426
716.319259	-61.974856
716.490456	-59.376600
716.661735	-61.166459
716.833096	-58.360217
717.004538	-62.570009
717.176063	-59.559341
717.347670	-59.287365
717.519359	-61.947852
717.691130	-58.022324
717.862984	-61.406341
718.034920	-58.973901
718.206938	-59.360200
718.379039	-61.384693
718.551222	-58.297432
718.723488	-61.520105
718.895836	-58.593439
719.068267	-58.635164
719.240781	-60.855493
719.413377	-59.247753
719.586057	-58.926026
719.758819	-59.583224
719.931664	-58.943274
720.104593	-60.371553
720.277604	-58.608587
720.450699	-59.396323
720.623876	-59.421796
720.797137	-58.160978
720.970482	-59.048245
721.143910	-59.025473
721.317421	-58.559892
721.491016	-60.071808
721.664694	-58.392369
721.838456	-59.184103
722.012302	-58.669432
722.186231	-56.921302
722.360244	-61.406644
722.534342	-56.772439
722.708523	-58.343438
722.882788	-58.047259
723.057137	-58.588155
723.231570	-58.650782
723.406088	-56.800286
723.580689	-60.503670
723.755375	-56.494362
723.930146	-57.235077
724.105000	-59.488703
724.279940	-56.790665
724.454963	-58.060204
724.630072	-57.055152
724.805265	-57.755349
724.980543	-58.401249
725.155905	-55.944678
725.331353	-58.788271
725.506885	-57.296037
725.682503	-56.521955
725.858205	-58.010779
726.033993	-56.255223
726.209865	-58.622364
726.385823	-55.733011
726.561866	-58.009067
726.737995	-56.944224
726.914209	-57.120641
727.090508	-55.874120
727.266893	-57.158202
727.443364	-58.007384
727.619920	-55.320701
727.796562	-57.869125
727.973290	-55.839549
728.150103	-57.308576
728.327003	-55.747303
728.503988	-56.548009
728.681060	-57.384978
728.858218	-56.195018
729.035461	-55.749964
729.212791	-56.596863
729.390208	-57.344433
729.567710	-55.556457
729.745299	-55.983841
729.922975	-56.940609
730.100737	-56.165495
730.278586	-56.016835
730.456521	-55.708456
730.634543	-57.224094
730.812652	-55.718226
730.990848	-55.812146
731.169130	-56.608082
731.347500	-55.585424
731.525957	-57.254084
731.704500	-54.838888
731.883131	-56.351399
732.061850	-55.861886
732.240655	-56.919803
732.419548	-54.847712
732.598528	-55.800122
732.777596	-57.149669
732.956751	-55.102774
733.135994	-56.664646
733.315325	-54.691358
733.494744	-57.342777
733.674250	-55.347209
733.853844	-55.609979
734.033526	-56.243556
734.213296	-55.837080
734.393154	-56.395578
734.573101	-54.723062
734.753135	-56.530183
734.933258	-55.710814
735.113469	-56.475265
735.293769	-56.188904
735.474157	-54.571596
735.654633	-56.999260
735.835198	-55.699267
736.015852	-55.901447
736.196594	-55.706032
736.377426	-55.433752
736.558346	-56.962735
736.739355	-54.684469
736.920453	-56.389405
737.101640	-55.502716
737.282916	-56.661708
737.464282	-55.177579
737.645736	-56.693064
737.827280	-54.468255
738.008914	-56.894560
738.190637	-55.701492
738.372449	-55.815688
738.554351	-55.626737
738.736342	-54.955455
738.918424	-57.454666
739.100595	-54.382988
739.282855	-56.371748
739.465206	-55.194431
739.647647	-55.511556
739.830178	-56.200051
740.012799	-55.200436
740.195510	-54.686159
740.378311	-56.060074
740.561203	-55.401496
740.744185	-55.589510
740.927258	-55.977127
741.110421	-54.805028
741.293674	-54.632296
741.477018	-57.403450
741.660453	-54.007584
741.843979	-55.947382
742.027596	-55.540886
742.211303	-55.867437
742.395102	-54.421770
742.578991	-57.361425
742.762972	-54.443202
742.947044	-54.596850
743.131207	-57.516493
743.315461	-54.651240
743.499807	-56.260208
743.684244	-54.899200
743.868773	-56.949270
744.053394	-54.553405
744.238106	-58.650527
744.422910	-54.520993
744.607805	-56.625947
744.792793	-56.134214
744.977872	-55.673119
745.163044	-57.108462
745.348307	-55.989880
745.533663	-56.952366
745.719111	-54.982780
745.904651	-57.976264
746.090283	-55.565448
746.276008	-56.393540
746.461826	-56.263761
746.647735	-56.158941
746.833738	-56.864243
747.019833	-54.808910
747.206021	-58.263285
747.392302	-55.591446
747.578676	-55.980179
747.765143	-56.956367
747.951703	-56.964247
748.138356	-55.471297
748.325102	-57.411737
748.511941	-55.741804
748.698874	-56.257456
748.885900	-57.632727
749.073019	-55.452376
749.260232	-58.036763
749.447539	-56.056987
749.634939	-57.977108
749.822433	-55.862560
750.010021	-58.567320
750.197703	-56.090093
750.385479	-59.092479
750.573348	-56.276909
750.761312	-57.449646
750.949370	-59.310389
751.137523	-55.442758
751.325769	-59.258124
751.514110	-58.465132
751.702545	-57.733184
751.891075	-58.665425
752.079700	-59.250252
752.268419	-56.524852
752.457233	-60.093057
752.646142	-58.069231
752.835145	-58.282710
753.024244	-59.549022
753.213437	-58.067530
753.402726	-59.784970
753.592110	-56.985238
753.781589	-61.561131
753.971163	-58.500453
754.160833	-58.424598
754.350598	-59.919481
754.540459	-59.792924
754.730415	-58.226255
754.920467	-61.253010
755.110615	-58.171022
755.300858	-58.904924
755.491198	-61.045174
755.681633	-59.784460
755.872164	-60.007657
756.062792	-59.513314
756.253515	-60.666085
756.444335	-60.684677
756.635252	-60.283145
756.826264	-61.093911
757.017373	-61.944540
757.208579	-59.154687
757.399881	-63.417370
757.591280	-60.149433
757.782776	-60.262810
757.974368	-63.035664
758.166058	-60.658446
758.357844	-62.372255
758.549728	-59.554682
758.741708	-65.360418
758.933786	-58.318429
759.125961	-65.235995
759.318233	-58.723273
759.510603	-67.382980
759.703071	-58.728668
759.895635	-65.631780
760.088298	-58.953495
760.281058	-64.662427
760.473916	-58.184010
760.666872	-69.168508
760.859926	-58.217884
761.053078	-60.727853
761.246328	-62.253016
761.439676	-61.975803
761.633122	-59.574500
761.826667	-64.474066
762.020310	-59.941863
762.214052	-60.112902
762.407892	-62.900665
762.601831	-61.313686
762.795868	-60.879046
762.990004	-59.691313
763.184239	-61.779976
763.378573	-59.366203
763.573006	-60.244639
763.767538	-59.363937
763.962169	-60.703776
764.156900	-58.587987
764.351729	-57.666410
764.546658	-61.758900
764.741687	-57.328875
764.936815	-60.132912
765.132042	-56.921671
765.327370	-62.404908
765.522797	-56.073450
765.718324	-60.756907
765.913950	-57.254567
766.109677	-60.357740
766.305504	-55.890403
766.501431	-59.615209
766.697458	-56.452597
766.893586	-58.979576
767.089814	-55.233746
767.286142	-59.572535
767.482571	-55.070007
767.679100	-58.073438
767.875730	-54.811967
768.072461	-56.426927
768.269293	-56.482086
768.466225	-53.903072
768.663259	-57.126969
768.860393	-54.418559
769.057629	-57.311079
769.254966	-53.339161
769.452404	-56.267728
769.649944	-53.709161
769.847585	-55.648467
770.045328	-53.596119
770.243172	-54.719576
770.441118	-54.087937
770.639166	-53.899530
770.837315	-53.229448
771.035567	-53.299625
771.233920	-53.469254
771.432376	-52.561793
771.630934	-53.244421
771.829594	-51.390428
772.028356	-55.428929
772.227220	-50.979291
772.426188	-54.200757
772.625257	-51.402937
772.824430	-53.254841
773.023705	-51.656764
773.223083	-52.190359
773.422563	-51.443650
773.622147	-52.142892
773.821834	-51.743499
774.021624	-51.461316
774.221517	-50.755425
774.421513	-52.146284
774.621613	-50.832798
774.821816	-50.943471
775.022122	-51.187670
775.222532	-50.232715
775.423046	-51.253412
775.623664	-50.311170
775.824385	-50.412168
776.025211	-50.189561
776.226140	-50.244776
776.427173	-50.155044
776.628311	-49.962036
776.829553	-49.594236
777.030899	-50.442426
777.232350	-48.739254
777.433905	-50.528772
777.635564	-48.380638
777.837328	-50.100514
778.039197	-48.533215
778.241171	-49.747138
778.443250	-48.353549
778.645433	-48.907110
778.847722	-48.707116
779.050116	-48.940782
779.252615	-48.224221
779.455219	-48.860061
779.657929	-47.756782
779.860744	-48.873612
780.063665	-47.653720
780.266691	-48.679387
780.469823	-47.633446
780.673061	-47.698128
780.876405	-48.360898
781.079855	-47.115172
781.283410	-48.011584
781.487072	-47.349290
781.690840	-47.364724
781.894715	-47.362788
782.098695	-47.001681
782.302783	-47.240702
782.506976	-47.065952
782.711277	-46.510122
782.915684	-47.495302
783.120198	-46.032674
783.324818	-47.085182
783.529546	-46.262082
783.734381	-46.911443
783.939322	-46.100006
784.144372	-46.609384
784.349528	-46.108467
784.554792	-46.405172
784.760163	-46.048751
784.965642	-46.073401
785.171228	-46.020701
785.376922	-45.880185
785.582724	-45.609911
785.788634	-46.060294
785.994651	-45.390535
786.200777	-45.495800
786.407011	-45.688852
786.613353	-45.251162
786.819804	-45.489932
787.026363	-45.157918
787.233030	-45.177227
787.439806	-45.265456
787.646691	-45.200939
787.853684	-44.666122
788.060786	-45.471419
788.267997	-44.468399
788.475317	-45.255001
788.682746	-44.656597
788.890285	-44.963652
789.097932	-44.364361
789.305689	-44.865438
789.513555	-44.068127
789.721531	-45.100631
789.929617	-43.737913
790.137812	-44.862901
790.346117	-43.694584
790.554531	-44.754709
790.763056	-43.685286
790.971691	-44.550996
791.180436	-43.531983
791.389291	-44.624873
791.598256	-43.446091
791.807332	-44.133249
792.016518	-43.676811
792.225815	-43.853941
792.435222	-43.509576
792.644740	-44.065323
792.854369	-43.037616
793.064109	-44.002348
793.273960	-43.264152
793.483922	-43.329660
793.693995	-43.475151
793.904180	-43.470967
794.114475	-42.851263
794.324882	-43.663338
794.535401	-42.963864
794.746031	-42.861798
794.956774	-43.637977
795.167627	-42.559158
795.378593	-43.074940
795.589671	-43.204820
795.800861	-42.628587
796.012162	-42.815150
796.223577	-43.140867
796.435103	-42.322898
796.646742	-43.156647
796.858493	-42.445871
797.070357	-42.700482
797.282334	-42.424522
797.494423	-42.668688
797.706626	-42.507368
797.918941	-42.326092
798.131369	-42.457337
798.343911	-42.388738
798.556566	-42.107283
798.769334	-42.438238
798.982215	-42.299040
799.195210	-41.980568
799.408319	-42.407944
799.621541	-42.098523
799.834877	-42.065724
800.048327	-42.044037
800.261890	-42.193448
800.475568	-41.844063
800.689360	-41.872381
800.903266	-42.154665
801.117287	-41.603178
801.331422	-41.895949
801.545671	-41.757796
801.760036	-41.879152
801.974514	-41.471185
802.189108	-42.105661
802.403816	-41.444431
802.618640	-41.788769
802.833578	-41.506949
803.048632	-41.762031
803.263800	-41.518742
803.479085	-41.508385
803.694484	-41.407326
803.909999	-41.735506
804.125630	-40.921004
804.341376	-41.869113
804.557239	-41.131707
804.773217	-41.432395
804.989311	-41.211088
805.205521	-41.581397
805.421847	-40.981701
805.638290	-41.513811
805.854849	-41.005528
806.071524	-41.457885
806.288316	-41.115718
806.505225	-41.108960
806.722250	-41.157810
806.939393	-41.240269
807.156652	-40.773914
807.374028	-41.331173
807.591521	-40.912212
807.809132	-41.044329
808.026859	-40.946223
808.244705	-41.041414
808.462667	-41.058414
808.680748	-40.696019
808.898946	-41.116790
809.117261	-40.785067
809.335695	-40.911445
809.554246	-40.920772
809.772916	-40.585438
809.991704	-40.974866
810.210610	-40.819695
810.429634	-40.498570
810.648777	-41.000986
810.868039	-40.813317
811.087419	-40.373664
811.306918	-41.236132
811.526535	-40.165410
811.746272	-41.158358
811.966127	-40.360830
812.186102	-40.821227
812.406196	-40.448661
812.626409	-40.953858
812.846742	-40.336501
813.067194	-40.769493
813.287766	-40.497675
813.508457	-40.664840
813.729269	-40.502499
813.950200	-40.592689
814.171251	-40.552206
814.392422	-40.545945
814.613714	-40.638955
814.835126	-40.341446
815.056658	-40.721522
815.278311	-40.274758
815.500084	-40.662871
815.721978	-40.130477
815.943993	-40.907116
816.166128	-40.041167
816.388385	-40.867555
816.610762	-40.141449
816.833261	-40.601453
817.055881	-40.286786
817.278623	-40.549015
817.501486	-40.152521
817.724471	-40.434955
817.947577	-40.322099
818.170805	-40.421765
818.394155	-40.289681
818.617627	-40.523134
818.841221	-40.237741
819.064937	-40.400352
819.288775	-40.427110
819.512736	-40.401610
819.736819	-40.119140
819.961025	-40.848466
820.185354	-39.861203
820.409805	-40.839569
820.634379	-39.956201
820.859076	-40.748672
821.083897	-39.981515
821.308840	-40.643917
821.533907	-40.250727
821.759097	-40.365588
821.984411	-40.369724
822.209848	-40.502738
822.435409	-40.139087
822.661093	-40.507396
822.886902	-40.441980
823.112834	-40.079264
823.338891	-40.562053
823.565072	-40.308168
823.791377	-40.249315
824.017807	-40.408746
824.244361	-40.361210
824.471039	-40.308949
824.697843	-40.242665
824.924771	-40.684436
825.151824	-39.956402
825.379002	-40.627158
825.606306	-40.237780
825.833734	-40.414605
826.061288	-40.165767
826.288967	-40.686006
826.516772	-39.949937
826.744703	-40.948505
826.972759	-39.906578
827.200941	-40.740643
827.429249	-40.179454
827.657683	-40.556145
827.886243	-40.327125
828.114930	-40.368459
828.343743	-40.684444
828.572682	-39.752476
828.801748	-41.497618
829.030941	-39.596363
829.260260	-40.989999
829.489706	-40.316293
829.719280	-40.482886
829.948980	-40.483048
830.178808	-40.477189
830.408763	-40.438155
830.638845	-40.683051
830.869055	-40.026457
831.099393	-41.187167
831.329858	-39.832443
831.560451	-41.075702
831.791173	-40.208050
832.022022	-40.687013
832.252999	-40.396510
832.484105	-40.593597
832.715339	-40.548283
832.946702	-40.527545
833.178193	-40.229195
833.409813	-41.095218
833.641561	-39.852144
833.873439	-41.032498
834.105445	-40.443611
834.337581	-40.240924
834.569846	-41.030754
834.802241	-40.194850
835.034764	-40.926009
835.267418	-40.225914
835.500201	-40.906943
835.733114	-40.385156
835.966157	-40.515782
836.199329	-40.958075
836.432632	-40.208230
836.666065	-40.879543
836.899629	-40.830923
837.133323	-40.054758
837.367147	-41.379466
837.601102	-40.308045
837.835188	-40.693747
838.069405	-40.772261
838.303752	-40.628754
838.538231	-40.581451
838.772841	-40.666386
839.007582	-40.999129
839.242455	-40.247834
839.477459	-40.923072
839.712595	-40.854262
839.947863	-40.252222
840.183263	-41.100051
840.418794	-40.333596
840.654458	-40.948062
840.890254	-40.287148
841.126182	-40.890083
841.362242	-40.750739
841.598435	-40.132089
841.834761	-41.287612
842.071220	-40.125326
842.307811	-40.887678
842.544536	-40.472328
842.781393	-40.696525
843.018384	-40.504423
843.255508	-40.544764
843.492765	-40.910151
843.730156	-40.061455
843.967681	-41.115835
844.205339	-40.350949
844.443132	-40.449818
844.681058	-40.845116
844.919118	-40.260323
845.157313	-40.815165
845.395642	-40.086690
845.634105	-41.232110
845.872703	-39.815301
846.111436	-40.953273
846.350303	-40.402492
846.589306	-40.295883
846.828443	-40.606598
847.067716	-40.216359
847.307124	-40.782704
847.546667	-39.844239
847.786345	-40.837047
848.026160	-40.162703
848.266110	-40.284729
848.506195	-40.439996
848.746417	-40.246540
848.986775	-40.300944
849.227269	-40.119805
849.467899	-40.524180
849.708666	-39.808160
849.949569	-40.473840
850.190609	-39.959638
850.431785	-40.270079
850.673099	-39.979636
850.914549	-40.055813
851.156137	-40.322626
851.397861	-39.527995
851.639723	-40.544834
851.881723	-39.525239
852.123860	-40.311454
852.366135	-39.430203
852.608547	-40.403929
852.851098	-39.428188
853.093786	-39.929537
853.336613	-39.809139
853.579578	-39.572810
853.822681	-39.809794
854.065923	-39.496379
854.309304	-39.831662
854.552823	-39.134648
854.796481	-39.916309
855.040278	-39.211955
855.284215	-39.491586
855.528290	-39.172508
855.772505	-39.806623
856.016859	-38.693111
856.261353	-39.683869
856.505987	-38.990936
856.750760	-39.214038
856.995673	-38.874366
857.240727	-39.277212
857.485920	-38.899173
857.731254	-38.769428
857.976729	-39.037751
858.222343	-38.917163
858.468099	-38.553981
858.713995	-38.863142
858.960032	-38.831004
859.206211	-38.385966
859.452530	-38.755050
859.698991	-38.545551
859.945593	-38.472145
860.192336	-38.262848
860.439222	-38.756919
860.686248	-38.121564
860.933417	-38.322532
861.180728	-38.200452
861.428181	-38.506139
861.675776	-37.706020
861.923514	-38.343542
862.171394	-38.129075
862.419417	-37.794125
862.667582	-37.972079
862.915890	-38.020972
863.164342	-37.771615
863.412936	-37.637567
863.661674	-37.916359
863.910555	-37.650362
864.159579	-37.507026
864.408747	-37.573391
864.658059	-37.721142
864.907515	-37.133122
865.157114	-37.644768
865.406858	-37.276091
865.656746	-37.295320
865.906778	-37.098325
866.156955	-37.472351
866.407277	-36.827033
866.657743	-37.179193
866.908354	-37.011448
867.159110	-37.014388
867.410011	-36.739758
867.661057	-36.935676
867.912249	-36.881890
868.163586	-36.545395
868.415069	-36.792106
868.666697	-36.510530
868.918472	-36.793660
869.170392	-36.165369
869.422458	-36.675849
869.674671	-36.354659
869.927030	-36.327264
870.179536	-36.193829
870.432188	-36.269552
870.684987	-36.228424
870.937933	-35.946640
871.191026	-36.155293
871.444266	-35.947875
871.697653	-35.939803
871.951188	-35.775835
872.204870	-36.024572
872.458700	-35.511541
872.712677	-35.811286
872.966803	-35.703620
873.221076	-35.590487
873.475498	-35.356908
873.730068	-35.677336
873.984787	-35.517572
874.239654	-35.151022
874.494669	-35.387676
874.749834	-35.446259
875.005147	-35.195536
875.260610	-34.917840
875.516222	-35.452910
875.771983	-35.047698
876.027894	-34.939592
876.283954	-34.934680
876.540164	-35.145683
876.796524	-34.757938
877.053033	-34.832586
877.309693	-34.825376
877.566503	-34.833570
877.823464	-34.527828
878.080575	-34.747897
878.337837	-34.640863
878.595249	-34.441189
878.852813	-34.519269
879.110528	-34.521285
879.368393	-34.381174
879.626410	-34.247988
879.884579	-34.380568
880.142899	-34.300604
880.401371	-34.088850
880.659994	-34.117570
880.918770	-34.181110
881.177698	-34.085293
881.436778	-33.799166
881.696010	-34.067717
881.955395	-33.929747
882.214933	-33.777018
882.474623	-33.700828
882.734467	-33.871722
882.994463	-33.716665
883.254613	-33.428273
883.514916	-33.769342
883.775372	-33.525914
884.035982	-33.454604
884.296746	-33.322858
884.557664	-33.605991
884.818735	-33.298173
885.079961	-33.153285
885.341341	-33.290587
885.602876	-33.417276
885.864565	-32.890712
886.126409	-33.133158
886.388407	-33.141862
886.650561	-33.047837
886.912870	-32.816156
887.175334	-32.930909
887.437953	-32.986989
887.700728	-32.745855
887.963658	-32.692802
888.226745	-32.781220
888.489987	-32.751951
888.753385	-32.467666
889.016940	-32.707806
889.280651	-32.493780
889.544518	-32.524987
889.808543	-32.348261
890.072723	-32.569501
890.337061	-32.231846
890.601556	-32.338967
890.866208	-32.233260
891.131017	-32.315624
891.395984	-32.138390
891.661109	-32.035398
891.926391	-32.131000
892.191831	-32.144550
892.457429	-31.866056
892.723186	-31.885253
892.989100	-32.004312
893.255173	-31.833135
893.521405	-31.730859
893.787796	-31.703925
894.054345	-31.806223
894.321053	-31.606246
894.587921	-31.543791
894.854948	-31.545570
895.122134	-31.643653
895.389480	-31.327532
895.656986	-31.381062
895.924651	-31.497247
896.192477	-31.296515
896.460463	-31.178414
896.728609	-31.253726
896.996915	-31.324664
897.265382	-31.062721
897.534010	-31.011882
897.802799	-31.137161
898.071749	-31.111468
898.340860	-30.899442
898.610132	-30.860399
898.879566	-30.991733
899.149162	-30.919085
899.418919	-30.735643
899.688838	-30.731545
899.958919	-30.845834
900.229162	-30.723910
900.499568	-30.573735
900.770136	-30.684480
901.040867	-30.664937
901.311761	-30.552500
901.582817	-30.443465
901.854037	-30.598287
902.125420	-30.548193
902.396966	-30.333004
902.668676	-30.356143
902.940550	-30.528453
903.212587	-30.367140
903.484788	-30.192550
903.757153	-30.295806
904.029683	-30.351862
904.302377	-30.255475
904.575236	-30.079536
904.848259	-30.143227
905.121447	-30.236013
905.394800	-30.110722
905.668319	-29.960822
905.942002	-30.054384
906.215852	-30.056503
906.489866	-29.980836
906.764047	-29.889446
907.038393	-29.896842
907.312906	-29.933648
907.587584	-29.867995
907.862429	-29.752260
908.137441	-29.780052
908.412619	-29.885088
908.687964	-29.649159
908.963476	-29.667814
909.239155	-29.696358
909.515002	-29.745306
909.791015	-29.517610
910.067197	-29.538511
910.343546	-29.591485
910.620063	-29.636471
910.896748	-29.348702
911.173601	-29.415637
911.450623	-29.494026
911.727813	-29.440075
912.005171	-29.232738
912.282699	-29.303528
912.560395	-29.343468
912.838261	-29.216757
913.116296	-29.196173
913.394500	-29.110030
913.672874	-29.206091
913.951418	-29.055319
914.230131	-29.029292
914.509015	-29.021407
914.788068	-29.054316
915.067292	-28.876054
915.346687	-28.886756
915.626252	-28.915745
915.905988	-28.896828
916.185895	-28.757162
916.465973	-28.703402
916.746223	-28.776314
917.026644	-28.807272
917.307236	-28.609870
917.588000	-28.532192
917.868937	-28.662367
918.150045	-28.628570
918.431325	-28.540388
918.712778	-28.375206
918.994404	-28.498193
919.276202	-28.480231
919.558173	-28.409038
919.840317	-28.283279
920.122634	-28.336850
920.405125	-28.306559
920.687789	-28.291328
920.970627	-28.137078
921.253639	-28.248689
921.536824	-28.174996
921.820184	-28.071407
922.103718	-28.083282
922.387427	-28.105037
922.671310	-28.075218
922.955368	-27.951159
923.239601	-27.921636
923.524009	-27.983660
923.808592	-28.043153
924.093351	-27.809746
924.378285	-27.819456
924.663396	-27.841400
924.948682	-27.925025
925.234144	-27.796277
925.519782	-27.727783
925.805597	-27.652533
926.091589	-27.807483
926.377757	-27.779393
926.664102	-27.591654
926.950624	-27.584691
927.237323	-27.637941
927.524200	-27.639663
927.811255	-27.550504
928.098487	-27.478435
928.385897	-27.479864
928.673485	-27.544041
928.961251	-27.373157
929.249196	-27.392646
929.537319	-27.432421
929.825621	-27.348282
930.114102	-27.247860
930.402762	-27.295253
930.691601	-27.299830
930.980620	-27.299625
931.269818	-27.146405
931.559196	-27.108930
931.848753	-27.253558
932.138491	-27.211486
932.428409	-27.082070
932.718508	-27.027571
933.008787	-27.133672
933.299246	-27.128945
933.589887	-27.094402
933.880709	-26.920599
934.171712	-27.069139
934.462896	-27.059657
934.754262	-27.024529
935.045810	-26.921240
935.337539	-26.944177
935.629451	-27.000543
935.921545	-27.003563
936.213822	-26.825457
936.506281	-26.887652
936.798922	-26.910590
937.091747	-26.926318
937.384755	-26.829178
937.677946	-26.697944
937.971321	-26.843194
938.264879	-26.890719
938.558621	-26.672652
938.852547	-26.648693
939.146657	-26.727650
939.440952	-26.704195
939.735431	-26.696082
940.030095	-26.472078
940.324943	-26.588259
940.619977	-26.599371
940.915196	-26.581404
941.210600	-26.406105
941.506189	-26.404381
941.801965	-26.449597
942.097926	-26.519750
942.394074	-26.315868
942.690407	-26.271853
942.986927	-26.261909
943.283634	-26.430866
943.580527	-26.253173
943.877608	-26.134060
944.174875	-26.221918
944.472330	-26.192611
944.769972	-26.191981
945.067802	-26.104676
945.365820	-26.098856
945.664026	-26.074352
945.962420	-26.100888
946.261002	-26.017560
946.559773	-25.982193
946.858733	-26.052222
947.157881	-26.005311
947.457219	-25.922792
947.756746	-25.897690
948.056462	-25.908678
948.356368	-25.990580
948.656464	-25.898968
948.956749	-25.787284
949.257225	-25.783558
949.557891	-25.858905
949.858748	-25.885194
950.159796	-25.797797
950.461034	-25.696330
950.762463	-25.622583
951.064084	-25.827745
951.365896	-25.797575
951.667900	-25.621578
951.970095	-25.551553
952.272483	-25.696110
952.575063	-25.616217
952.877835	-25.620495
953.180799	-25.544788
953.483956	-25.538257
953.787307	-25.509079
954.090850	-25.533041
954.394586	-25.429283
954.698516	-25.472918
955.002640	-25.453163
955.306957	-25.440599
955.611469	-25.332426
955.916174	-25.329691
956.221074	-25.368355
956.526169	-25.414819
956.831458	-25.289997
957.136942	-25.205346
957.442622	-25.272655
957.748496	-25.272552
958.054567	-25.279016
958.360833	-25.259156
958.667294	-25.122183
958.973952	-25.124639
959.280806	-25.301905
959.587857	-25.161886
959.895104	-25.068740
960.202548	-25.187354
960.510189	-25.154960
960.818027	-25.049849
961.126062	-25.131176
961.434295	-25.112606
961.742726	-25.029119
962.051355	-25.134771
962.360182	-25.102268
962.669207	-24.917765
962.978431	-25.019847
963.287854	-25.142127
963.597475	-25.023387
963.907296	-24.958005
964.217315	-24.955254
964.527535	-24.932900
964.837954	-24.969612
965.148573	-25.073390
965.459392	-24.888451
965.770411	-24.807589
966.081630	-24.892294
966.393051	-24.944719
966.704672	-24.855344
967.016494	-24.870496
967.328517	-24.808521
967.640742	-24.751470
967.953169	-24.797279
968.265797	-24.839232
968.578627	-24.705724
968.891660	-24.739028
969.204895	-24.784421
969.518332	-24.666356
969.831972	-24.592451
970.145816	-24.705399
970.459862	-24.743553
970.774112	-24.643164
971.088565	-24.573391
971.403223	-24.524712
971.718084	-24.588872
972.033149	-24.668132
972.348419	-24.607016
972.663893	-24.476358
972.979572	-24.455575
973.295456	-24.499155
973.611546	-24.580577
973.927840	-24.515516
974.244340	-24.396190
974.561046	-24.404132
974.877958	-24.474742
975.195076	-24.401556
975.512401	-24.396297
975.829932	-24.369800
976.147670	-24.322316
976.465615	-24.353678
976.783767	-24.392610
977.102126	-24.218164
977.420693	-24.187092
977.739468	-24.308218
978.058451	-24.348993
978.377642	-24.196589
978.697041	-24.096372
979.016649	-24.107168
979.336466	-24.194268
979.656492	-24.230677
979.976727	-24.133234
980.297171	-24.017501
980.617825	-23.962524
980.938689	-24.067557
981.259763	-24.177140
981.581048	-24.055480
981.902542	-23.858063
982.224248	-23.937941
982.546164	-24.041888
982.868291	-24.009859
983.190630	-23.906237
983.513180	-23.884891
983.835942	-23.876100
984.158916	-23.973445
984.482101	-23.946774
984.805500	-23.810350
985.129110	-23.748827
985.452934	-23.902981
985.776970	-23.989548
986.101220	-23.864581
986.425683	-23.649288
986.750359	-23.717407
987.075250	-23.910844
987.400354	-23.940619
987.725673	-23.752745
988.051206	-23.637211
988.376954	-23.670094
988.702916	-23.824838
989.029094	-23.867877
989.355487	-23.699466
989.682095	-23.581935
990.008919	-23.671000
990.335959	-23.759086
990.663216	-23.700861
990.990688	-23.623699
991.318377	-23.628221
991.646283	-23.644661
991.974406	-23.603803
992.302746	-23.605258
992.631304	-23.641280
992.960079	-23.594771
993.289072	-23.491543
993.618283	-23.555119
993.947713	-23.650911
994.277361	-23.596396
994.607227	-23.424423
994.937313	-23.439520
995.267618	-23.588325
995.598142	-23.643683
995.928886	-23.465853
996.259849	-23.368483
996.591033	-23.448530
996.922437	-23.546656
997.254061	-23.506944
997.585906	-23.455252
997.917972	-23.390821
998.250260	-23.375631
998.582768	-23.397928
998.915498	-23.485055
999.248450	-23.429812
999.581624	-23.315764
999.915020	-23.260010
1000.248639	-23.382863
1000.582480	-23.409393
1000.916545	-23.298748
1001.250832	-23.208368
1001.585343	-23.241844
1001.920077	-23.280361
1002.255035	-23.283416
1002.590218	-23.213865
1002.925624	-23.127833
1003.261255	-23.094981
1003.597111	-23.166216
1003.933192	-23.199096
1004.269497	-23.130370
1004.606029	-22.989292
1004.942785	-22.971770
1005.279768	-23.042129
1005.616977	-23.077711
1005.954412	-22.999986
1006.292074	-22.921200
1006.629962	-22.867096
1006.968077	-22.889171
1007.306420	-22.920253
1007.644990	-22.894679
1007.983787	-22.824832
1008.322813	-22.783859
1008.662067	-22.780408
1009.001549	-22.782663
1009.341259	-22.750591
1009.681199	-22.709068
1010.021367	-22.713066
1010.361765	-22.716438
1010.702392	-22.668113
1011.043250	-22.618565
1011.384337	-22.605701
1011.725654	-22.610825
1012.067202	-22.630904
1012.408980	-22.612936
1012.750989	-22.559828
1013.093230	-22.496312
1013.435702	-22.489256
1013.778405	-22.536893
1014.121341	-22.576954
1014.464508	-22.529579
1014.807908	-22.441801
1015.151540	-22.393886
1015.495405	-22.434902
1015.839503	-22.512045
1016.183835	-22.529230
1016.528400	-22.411337
1016.873198	-22.332282
1017.218231	-22.377834
1017.563498	-22.473557
1017.908999	-22.448965
1018.254735	-22.379663
1018.600707	-22.346857
1018.946913	-22.364619
1019.293354	-22.386848
1019.640032	-22.386843
1019.986945	-22.364248
1020.334094	-22.323616
1020.681480	-22.304594
1021.029102	-22.365648
1021.376961	-22.367194
1021.725058	-22.293996
1022.073391	-22.233649
1022.421962	-22.268210
1022.770772	-22.314842
1023.119819	-22.318394
1023.469104	-22.240121
1023.818628	-22.167226
1024.168391	-22.152868
1024.518393	-22.218783
1024.868634	-22.244480
1025.219115	-22.199394
1025.569836	-22.084194
1025.920796	-22.048102
1026.271997	-22.076255
1026.623438	-22.124855
1026.975121	-22.095838
1027.327044	-22.022918
1027.679208	-21.937493
1028.031614	-21.939344
1028.384262	-21.966097
1028.737152	-21.956455
1029.090284	-21.892245
1029.443659	-21.844731
1029.797276	-21.812371
1030.151137	-21.810042
1030.505240	-21.786117
1030.859587	-21.736304
1031.214178	-21.693727
1031.569013	-21.681098
1031.924093	-21.680789
1032.279417	-21.641056
1032.634985	-21.566376
1032.990799	-21.518239
1033.346858	-21.526311
1033.703162	-21.553251
1034.059712	-21.518812
1034.416509	-21.449706
1034.773551	-21.354766
1035.130841	-21.349237
1035.488377	-21.402356
1035.846160	-21.430242
1036.204190	-21.351753
1036.562468	-21.245198
1036.920994	-21.195585
1037.279768	-21.258951
1037.638790	-21.309894
1037.998061	-21.288570
1038.357581	-21.164132
1038.717350	-21.109087
1039.077368	-21.134844
1039.437636	-21.215590
1039.798154	-21.201479
1040.158922	-21.117153
1040.519940	-21.053516
1040.881209	-21.085236
1041.242729	-21.119266
1041.604501	-21.134851
1041.966524	-21.074420
1042.328798	-21.029338
1042.691325	-21.029706
1043.054103	-21.072619
1043.417135	-21.090372
1043.780419	-21.051550
1044.143956	-20.979092
1044.507746	-20.973156
1044.871791	-21.031715
1045.236088	-21.069175
1045.600641	-21.009074
1045.965447	-20.931585
1046.330508	-20.902779
1046.695824	-20.958133
1047.061395	-21.002701
1047.427222	-20.963824
1047.793304	-20.877873
1048.159642	-20.818709
1048.526237	-20.827607
1048.893088	-20.892927
1049.260196	-20.880198
1049.627561	-20.792427
1049.995183	-20.712672
1050.363063	-20.692757
1050.731201	-20.733704
1051.099597	-20.739129
1051.468251	-20.670368
1051.837164	-20.589300
1052.206336	-20.550876
1052.575767	-20.560876
1052.945458	-20.566676
1053.315409	-20.517104
1053.685619	-20.437176
1054.056090	-20.395773
1054.426821	-20.402041
1054.797814	-20.391368
1055.169067	-20.347846
1055.540582	-20.268490
1055.912359	-20.230585
1056.284398	-20.237468
1056.656698	-20.234848
1057.029262	-20.183709
1057.402088	-20.113546
1057.775177	-20.052598
1058.148530	-20.071904
1058.522146	-20.088849
1058.896027	-20.049534
1059.270171	-19.974939
1059.644580	-19.912597
1060.019254	-19.910911
1060.394193	-19.956801
1060.769397	-19.943979
1061.144867	-19.885650
1061.520602	-19.815839
1061.896604	-19.798333
1062.272872	-19.845495
1062.649407	-19.879554
1063.026210	-19.832729
1063.403279	-19.777975
1063.780616	-19.744714
1064.158221	-19.785402
1064.536094	-19.839363
1064.914235	-19.823506
1065.292645	-19.774714
1065.671325	-19.749762
1066.050273	-19.775023
1066.429491	-19.835643
1066.808979	-19.829648
1067.188738	-19.798509
1067.568766	-19.788093
1067.949066	-19.803075
1068.329636	-19.846880
1068.710478	-19.849516
1069.091592	-19.829787
1069.472977	-19.821983
1069.854635	-19.822766
1070.236565	-19.858331
1070.618768	-19.857605
1071.001243	-19.830029
1071.383993	-19.802670
1071.767016	-19.793913
1072.150313	-19.826019
1072.533884	-19.800371
1072.917730	-19.758439
1073.301850	-19.701468
1073.686246	-19.683317
1074.070917	-19.687099
1074.455864	-19.656575
1074.841087	-19.595236
1075.226586	-19.517458
1075.612362	-19.468140
1075.998415	-19.457400
1076.384745	-19.433889
1076.771353	-19.365590
1077.158238	-19.267234
1077.545401	-19.211758
1077.932843	-19.184458
1078.320564	-19.175607
1078.708564	-19.117970
1079.096842	-19.028639
1079.485401	-18.961782
1079.874240	-18.935911
1080.263358	-18.940500
1080.652757	-18.911050
1081.042438	-18.836105
1081.432399	-18.772471
1081.822641	-18.749452
1082.213166	-18.766172
1082.603972	-18.762582
1082.995061	-18.710453
1083.386433	-18.652793
1083.778087	-18.626050
1084.170025	-18.654145
1084.562246	-18.667022
1084.954751	-18.637918
1085.347541	-18.579941
1085.740615	-18.558830
1086.133973	-18.577840
1086.527617	-18.606450
1086.921546	-18.592222
1087.315761	-18.540041
1087.710262	-18.509808
1088.105050	-18.529118
1088.500124	-18.555235
1088.895485	-18.551667
1089.291134	-18.506665
1089.687070	-18.468768
1090.083294	-18.476344
1090.479806	-18.499312
1090.876607	-18.496988
1091.273696	-18.457591
1091.671075	-18.412647
1092.068744	-18.401489
1092.466702	-18.417803
1092.864950	-18.413888
1093.263489	-18.375184
1093.662319	-18.319524
1094.061440	-18.293691
1094.460852	-18.299461
1094.860555	-18.299192
1095.260551	-18.254079
1095.660840	-18.190125
1096.061421	-18.157908
1096.462295	-18.164423
1096.863462	-18.159473
1097.264923	-18.114684
1097.666678	-18.056470
1098.068727	-18.024437
1098.471071	-18.028481
1098.873710	-18.031177
1099.276644	-17.998377
1099.679874	-17.944699
1100.083400	-17.915871
1100.487222	-17.921493
1100.891340	-17.937918
1101.295756	-17.915889
1101.700468	-17.861707
1102.105478	-17.833992
1102.510787	-17.848870
1102.916393	-17.860800
1103.322298	-17.841472
1103.728502	-17.792581
1104.135005	-17.756687
1104.541807	-17.759650
1104.948909	-17.772495
1105.356312	-17.746635
1105.764015	-17.690948
1106.172019	-17.645216
1106.580324	-17.633130
1106.988931	-17.642209
1107.397840	-17.608812
1107.807051	-17.542782
1108.216564	-17.488926
1108.626380	-17.477009
1109.036500	-17.472663
1109.446923	-17.439267
1109.857649	-17.373398
1110.268680	-17.322733
1110.680016	-17.310229
1111.091657	-17.307896
1111.503602	-17.282624
1111.915854	-17.224967
1112.328411	-17.180983
1112.741275	-17.179054
1113.154445	-17.190291
1113.567922	-17.168095
1113.981706	-17.126749
1114.395798	-17.096429
1114.810198	-17.101285
1115.224906	-17.121444
1115.639923	-17.111803
1116.055249	-17.076193
1116.470884	-17.056899
1116.886829	-17.067939
1117.303084	-17.083069
1117.719650	-17.078849
1118.136526	-17.046380
1118.553713	-17.026511
1118.971212	-17.035393
1119.389022	-17.042494
1119.807145	-17.021363
1120.225580	-16.988336
1120.644328	-16.965429
1121.063389	-16.963793
1121.482763	-16.955691
1121.902452	-16.917781
1122.322454	-16.870740
1122.742771	-16.849099
1123.163404	-16.837720
1123.584351	-16.813510
1124.005614	-16.764253
1124.427193	-16.710544
1124.849089	-16.685092
1125.271301	-16.674515
1125.693830	-16.641053
1126.116677	-16.587402
1126.539842	-16.542782
1126.963324	-16.517871
1127.387126	-16.506630
1127.811246	-16.478452
1128.235685	-16.429123
1128.660444	-16.394629
1129.085522	-16.385421
1129.510922	-16.375777
1129.936641	-16.347494
1130.362682	-16.312355
1130.789044	-16.290978
1131.215728	-16.295145
1131.642734	-16.291372
1132.070063	-16.260522
1132.497714	-16.232864
1132.925689	-16.232902
1133.353987	-16.239149
1133.782610	-16.228278
1134.211556	-16.204839
1134.640827	-16.184531
1135.070424	-16.188337
1135.500345	-16.193243
1135.930593	-16.175097
1136.361166	-16.147336
1136.792067	-16.138931
1137.223294	-16.142148
1137.654848	-16.134675
1138.086730	-16.106836
1138.518940	-16.075488
1138.951479	-16.072111
1139.384346	-16.079081
1139.817543	-16.056316
1140.251069	-16.013865
1140.684925	-15.989861
1141.119111	-15.988230
1141.553628	-15.989285
1141.988475	-15.964566
1142.423655	-15.915999
1142.859166	-15.887903
1143.295009	-15.895476
1143.731185	-15.893584
1144.167694	-15.860139
1144.604536	-15.821050
1145.041711	-15.798402
1145.479221	-15.796342
1145.917065	-15.797537
1146.355245	-15.774933
1146.793759	-15.735735
1147.232609	-15.716909
1147.671795	-15.715224
1148.111317	-15.710723
1148.551177	-15.696948
1148.991373	-15.673623
1149.431907	-15.647430
1149.872779	-15.636808
1150.313989	-15.640063
1150.755538	-15.634395
1151.197426	-15.614930
1151.639653	-15.587567
1152.082220	-15.570534
1152.525128	-15.573123
1152.968376	-15.577134
1153.411966	-15.556519
1153.855897	-15.524241
1154.300169	-15.506507
1154.744784	-15.504348
1155.189742	-15.506932
1155.635042	-15.489438
1156.080687	-15.452193
1156.526674	-15.427052
1156.973007	-15.429293
1157.419683	-15.424563
1157.866705	-15.396101
1158.314072	-15.365237
1158.761786	-15.342437
1159.209845	-15.329935
1159.658251	-15.319179
1160.107004	-15.293449
1160.556104	-15.253941
1161.005553	-15.234485
1161.455349	-15.221888
1161.905494	-15.195158
1162.355989	-15.162080
1162.806832	-15.137163
1163.258026	-15.114214
1163.709570	-15.089950
1164.161464	-15.062328
1164.613710	-15.026635
1165.066307	-15.003883
1165.519256	-14.986830
1165.972558	-14.954456
1166.426212	-14.915755
1166.880219	-14.893275
1167.334580	-14.872596
1167.789295	-14.846739
1168.244364	-14.817084
1168.699788	-14.779971
1169.155567	-14.754297
1169.611702	-14.740641
1170.068193	-14.717343
1170.525041	-14.676044
1170.982245	-14.645440
1171.439807	-14.631007
1171.897726	-14.612276
1172.356004	-14.580476
1172.814640	-14.549932
1173.273635	-14.525286
1173.732989	-14.503391
1174.192703	-14.488413
1174.652778	-14.462017
1175.113213	-14.426206
1175.574009	-14.406494
1176.035167	-14.391802
1176.496687	-14.371148
1176.958569	-14.344993
1177.420814	-14.316279
1177.883422	-14.296283
1178.346394	-14.284518
1178.809730	-14.267221
1179.273430	-14.236339
1179.737496	-14.210128
1180.201927	-14.203461
1180.666723	-14.189938
1181.131886	-14.161966
1181.597416	-14.142687
1182.063312	-14.125365
1182.529576	-14.112377
1182.996209	-14.101819
1183.463209	-14.080102
1183.930579	-14.054661
1184.398317	-14.046351
1184.866426	-14.043879
1185.334904	-14.022265
1185.803754	-13.995250
1186.272974	-13.989866
1186.742566	-13.986980
1187.212529	-13.967313
1187.682865	-13.947014
1188.153574	-13.938627
1188.624656	-13.929173
1189.096112	-13.919089
1189.567942	-13.903837
1190.040147	-13.885255
1190.512726	-13.878216
1190.985681	-13.874143
1191.459012	-13.855792
1191.932720	-13.836221
1192.406804	-13.831432
1192.881265	-13.826191
1193.356104	-13.805637
1193.831322	-13.790135
1194.306918	-13.785042
1194.782893	-13.773959
1195.259248	-13.755073
1195.735982	-13.745836
1196.213097	-13.735593
1196.690593	-13.717578
1197.168471	-13.708623
1197.646730	-13.698670
1198.125371	-13.679124
1198.604395	-13.666483
1199.083803	-13.660976
1199.563594	-13.644945
1200.043769	-13.623907
1200.524329	-13.617661
1201.005273	-13.609475
1201.486604	-13.587219
1201.968320	-13.572267
1202.450422	-13.567931
1202.932912	-13.551927
1203.415789	-13.530760
1203.899054	-13.522902
1204.382707	-13.512497
1204.866748	-13.492020
1205.351179	-13.478418
1205.836000	-13.470568
1206.321211	-13.451905
1206.806812	-13.434751
1207.292805	-13.428506
1207.779189	-13.411736
1208.265965	-13.390625
1208.753134	-13.383767
1209.240696	-13.374341
1209.728651	-13.349273
1210.217000	-13.335537
1210.705744	-13.334058
1211.194883	-13.314749
1211.684417	-13.291072
1212.174347	-13.287141
1212.664673	-13.280278
1213.155396	-13.256815
1213.646516	-13.242234
1214.138034	-13.238938
1214.629951	-13.226816
1215.122266	-13.208137
1215.614980	-13.197986
1216.108095	-13.193354
1216.601609	-13.180603
1217.095524	-13.166053
1217.589841	-13.160746
1218.084559	-13.153234
1218.579679	-13.139829
1219.075202	-13.135037
1219.571128	-13.129081
1220.067458	-13.116189
1220.564191	-13.112101
1221.061330	-13.111044
1221.558874	-13.099110
1222.056823	-13.090643
1222.555178	-13.092754
1223.053940	-13.089650
1223.553109	-13.076335
1224.052686	-13.072673
1224.552671	-13.078977
1225.053065	-13.070711
1225.553867	-13.057923
1226.055079	-13.062432
1226.556702	-13.065622
1227.058735	-13.052205
1227.561179	-13.045650
1228.064035	-13.053727
1228.567303	-13.049562
1229.070983	-13.035148
1229.575077	-13.035496
1230.079585	-13.041558
1230.584506	-13.030563
1231.089842	-13.018072
1231.595594	-13.023310
1232.101761	-13.023969
1232.608345	-13.007523
1233.115345	-12.999805
1233.622762	-13.005076
1234.130597	-12.999184
1234.638851	-12.981939
1235.147523	-12.975975
1235.656615	-12.979075
1236.166126	-12.968651
1236.676058	-12.951021
1237.186411	-12.945394
1237.697185	-12.945352
1238.208381	-12.931846
1238.719999	-12.913962
1239.232040	-12.908154
1239.744505	-12.903512
1240.257394	-12.887777
1240.770708	-12.871778
1241.284446	-12.862195
1241.798610	-12.852825
1242.313201	-12.839066
1242.828218	-12.821726
1243.343662	-12.807242
1243.859534	-12.797144
1244.375834	-12.782795
1244.892563	-12.763613
1245.409721	-12.746336
1245.927309	-12.734049
1246.445327	-12.719645
1246.963777	-12.698411
1247.482657	-12.679358
1248.001970	-12.665500
1248.521716	-12.649582
1249.041894	-12.627639
1249.562506	-12.607525
1250.083553	-12.591895
1250.605034	-12.573955
1251.126950	-12.552516
1251.649302	-12.532895
1252.172091	-12.514357
1252.695316	-12.495404
1253.218979	-12.475383
1253.743079	-12.456568
1254.267619	-12.436068
1254.792597	-12.416170
1255.318015	-12.398866
1255.843874	-12.380926
1256.370173	-12.359714
1256.896913	-12.340004
1257.424095	-12.324792
1257.951720	-12.309007
1258.479787	-12.288044
1259.008298	-12.269681
1259.537254	-12.255833
1260.066654	-12.242759
1260.596499	-12.224795
1261.126790	-12.206470
1261.657527	-12.194678
1262.188711	-12.185533
1262.720342	-12.170167
1263.252422	-12.153574
1263.784950	-12.143681
1264.317928	-12.137916
1264.851355	-12.126439
1265.385232	-12.111043
1265.919560	-12.104119
1266.454340	-12.102329
1266.989572	-12.092156
1267.525256	-12.080275
1268.061394	-12.078224
1268.597985	-12.076976
1269.135031	-12.066835
1269.672531	-12.062307
1270.210487	-12.064473
1270.748899	-12.060825
1271.287768	-12.051846
1271.827094	-12.056892
1272.366877	-12.061171
1272.907119	-12.052740
1273.447820	-12.048340
1273.988981	-12.062035
1274.530601	-12.065213
1275.072683	-12.054048
1275.615226	-12.057486
1276.158230	-12.074797
1276.701697	-12.074870
1277.245627	-12.067049
1277.790021	-12.076833
1278.334879	-12.092275
1278.880202	-12.091625
1279.425991	-12.090934
1279.972245	-12.103899
1280.518966	-12.114201
1281.066155	-12.116091
1281.613811	-12.123282
1282.161936	-12.135736
1282.710529	-12.141961
1283.259593	-12.148319
1283.809126	-12.160111
1284.359131	-12.170611
1284.909607	-12.177536
1285.460555	-12.184784
1286.011976	-12.196995
1286.563870	-12.210945
1287.116237	-12.217811
1287.669080	-12.221323
1288.222397	-12.235758
1288.776191	-12.253120
1289.330460	-12.257524
1289.885207	-12.258086
1290.440431	-12.274305
1290.996133	-12.293006
1291.552314	-12.293413
1292.108975	-12.293663
1292.666115	-12.311494
1293.223737	-12.325815
1293.781839	-12.322997
1294.340424	-12.327395
1294.899491	-12.342660
1295.459041	-12.348217
1296.019075	-12.346852
1296.579593	-12.355532
1297.140597	-12.364212
1297.702086	-12.362015
1298.264061	-12.364413
1298.826524	-12.372920
1299.389474	-12.374228
1299.952912	-12.370305
1300.516839	-12.371924
1301.081255	-12.376718
1301.646162	-12.377321
1302.211559	-12.370916
1302.777448	-12.366415
1303.343829	-12.371792
1303.910702	-12.371913
1304.478069	-12.359799
1305.045930	-12.353320
1305.614285	-12.359135
1306.183136	-12.354431
1306.752483	-12.338712
1307.322326	-12.335371
1307.892666	-12.336289
1308.463504	-12.325026
1309.034841	-12.312311
1309.606677	-12.309190
1310.179012	-12.302774
1310.751849	-12.288682
1311.325186	-12.278452
1311.899025	-12.272373
1312.473366	-12.262142
1313.048211	-12.246878
1313.623559	-12.234707
1314.199412	-12.227129
1314.775770	-12.216485
1315.352634	-12.198067
1315.930004	-12.182825
1316.507881	-12.177158
1317.086266	-12.164595
1317.665159	-12.142081
1318.244562	-12.128737
1318.824474	-12.122677
1319.404897	-12.105034
1319.985831	-12.084231
1320.567276	-12.074379
1321.149234	-12.062353
1321.731706	-12.043363
1322.314691	-12.027979
1322.898190	-12.015717
1323.482205	-12.001351
1324.066736	-11.984551
1324.651783	-11.968928
1325.237347	-11.956188
1325.823430	-11.945103
1326.410031	-11.925993
1326.997151	-11.907342
1327.584791	-11.902781
1328.172952	-11.889444
1328.761634	-11.866062
1329.350839	-11.854129
1329.940566	-11.847853
1330.530817	-11.833680
1331.121592	-11.813735
1331.712891	-11.801103
1332.304716	-11.795223
1332.897068	-11.781980
1333.489946	-11.763344
1334.083352	-11.751987
1334.677287	-11.746818
1335.271750	-11.732705
1335.866744	-11.715591
1336.462268	-11.709074
1337.058323	-11.702049
1337.654910	-11.685588
1338.252029	-11.674022
1338.849682	-11.669931
1339.447869	-11.659648
1340.046591	-11.645738
1340.645848	-11.636256
1341.245641	-11.631704
1341.845972	-11.625306
1342.446840	-11.611495
1343.048246	-11.599342
1343.650191	-11.600581
1344.252677	-11.596111
1344.855702	-11.577526
1345.459269	-11.570811
1346.063379	-11.574625
1346.668030	-11.565683
1347.273226	-11.551208
1347.878965	-11.548685
1348.485250	-11.548543
1349.092080	-11.540427
1349.699456	-11.530751
1350.307380	-11.528189
1350.915851	-11.527946
1351.524871	-11.519442
1352.134441	-11.511564
1352.744560	-11.513850
1353.355231	-11.510586
1353.966453	-11.500027
1354.578227	-11.498227
1355.190555	-11.500658
1355.803436	-11.496055
1356.416872	-11.487221
1357.030863	-11.485023
1357.645411	-11.490199
1358.260515	-11.486373
1358.876177	-11.474445
1359.492397	-11.475957
1360.109176	-11.483011
1360.726516	-11.475277
1361.344416	-11.467066
1361.962877	-11.470958
1362.581901	-11.473384
1363.201487	-11.467940
1363.821637	-11.463143
1364.442352	-11.464879
1365.063632	-11.466779
1365.685478	-11.461546
1366.307891	-11.458874
1366.930871	-11.462356
1367.554420	-11.459563
1368.178538	-11.454971
1368.803226	-11.457818
1369.428485	-11.458639
1370.054315	-11.453148
1370.680717	-11.451268
1371.307693	-11.455270
1371.935242	-11.455679
1372.563366	-11.449389
1373.192065	-11.447333
1373.821341	-11.453970
1374.451193	-11.453391
1375.081623	-11.445188
1375.712632	-11.446268
1376.344221	-11.451634
1376.976389	-11.449447
1377.609139	-11.443844
1378.242470	-11.443735
1378.876384	-11.447685
1379.510881	-11.446345
1380.145963	-11.440947
1380.781629	-11.440938
1381.417881	-11.443119
1382.054720	-11.441071
1382.692147	-11.437951
1383.330161	-11.436231
1383.968765	-11.436412
1384.607959	-11.436408
1385.247743	-11.432201
1385.888119	-11.430129
1386.529087	-11.432303
1387.170648	-11.429736
1387.812804	-11.425586
1388.455554	-11.426805
1389.098899	-11.427822
1389.742842	-11.423649
1390.387381	-11.419653
1391.032519	-11.423197
1391.678256	-11.425362
1392.324592	-11.416758
1392.971529	-11.413824
1393.619068	-11.422670
1394.267208	-11.421468
1394.915952	-11.411023
1395.565300	-11.412057
1396.215253	-11.420740
1396.865812	-11.418353
1397.516977	-11.408109
1398.168749	-11.410482
1398.821130	-11.418871
1399.474120	-11.414146
1400.127719	-11.406759
1400.781930	-11.410261
1401.436752	-11.414343
1402.092186	-11.411945
1402.748234	-11.408741
1403.404897	-11.408962
1404.062174	-11.411978
1404.720067	-11.412994
1405.378577	-11.410770
1406.037705	-11.409522
1406.697451	-11.411892
1407.357817	-11.415374
1408.018803	-11.412891
1408.680410	-11.410478
1409.342639	-11.416877
1410.005492	-11.419580
1410.668968	-11.414738
1411.333068	-11.417344
1411.997795	-11.426567
1412.663147	-11.426336
1413.329127	-11.420585
1413.995736	-11.428356
1414.662973	-11.439771
1415.330840	-11.434497
1415.999339	-11.430486
1416.668469	-11.443054
1417.338232	-11.451816
1418.008628	-11.447252
1418.679659	-11.447735
1419.351325	-11.460874
1420.023628	-11.468846
1420.696568	-11.467318
1421.370145	-11.473819
1422.044362	-11.485300
1422.719219	-11.489544
1423.394717	-11.494974
1424.070856	-11.504179
1424.747638	-11.509842
1425.425064	-11.514355
1426.103134	-11.524688
1426.781850	-11.533941
1427.461212	-11.537073
1428.141221	-11.546182
1428.821878	-11.560240
1429.503185	-11.567725
1430.185141	-11.576318
1430.867749	-11.591079
1431.551008	-11.602282
1432.234920	-11.611164
1432.919486	-11.625394
1433.604707	-11.638386
1434.290583	-11.644543
1434.977116	-11.655654
1435.664307	-11.671034
1436.352156	-11.677178
1437.040664	-11.684280
1437.729833	-11.700391
1438.419663	-11.711952
1439.110156	-11.719907
1439.801312	-11.736117
1440.493132	-11.754478
1441.185617	-11.766116
1441.878768	-11.781728
1442.572586	-11.804066
1443.267072	-11.818127
1443.962228	-11.829911
1444.658053	-11.849172
1445.354549	-11.862136
1446.051717	-11.868308
1446.749558	-11.879483
1447.448073	-11.889606
1448.147263	-11.892079
1448.847128	-11.897649
1449.547671	-11.907891
1450.248891	-11.911907
1450.950789	-11.919068
1451.653368	-11.933969
1452.356627	-11.944226
1453.060568	-11.956733
1453.765192	-11.977207
1454.470500	-11.992803
1455.176492	-12.006132
1455.883170	-12.025646
1456.590534	-12.040303
1457.298586	-12.045274
1458.007327	-12.054145
1458.716758	-12.059935
1459.426880	-12.051456
1460.137693	-12.045318
1460.849199	-12.040464
1461.561398	-12.023700
1462.274293	-12.008194
1462.987883	-12.000479
1463.702170	-11.988064
1464.417155	-11.976291
1465.132838	-11.978022
1465.849222	-11.980845
1466.566306	-11.983986
1467.284093	-12.001256
1468.002582	-12.021194
1468.721775	-12.038985
1469.441674	-12.065387
1470.162278	-12.092109
1470.883590	-12.110884
1471.605609	-12.130773
1472.328338	-12.147294
1473.051777	-12.149480
1473.775928	-12.148972
1474.500790	-12.143738
1475.226367	-12.122987
1475.952657	-12.102429
1476.679663	-12.080685
1477.407386	-12.049319
1478.135826	-12.025070
1478.864985	-12.007699
1479.594863	-11.989385
1480.325463	-11.985597
1481.056784	-11.997239
1481.788828	-12.013417
1482.521597	-12.049387
1483.255090	-12.104130
1483.989309	-12.163433
1484.724256	-12.242422
1485.459931	-12.334457
1486.196336	-12.425327
1486.933471	-12.527091
1487.671337	-12.628014
1488.409937	-12.715820
1489.149270	-12.798882
1489.889337	-12.864757
1490.630141	-12.903906
1491.371682	-12.926725
1492.113961	-12.921879
1492.856979	-12.887702
1493.600738	-12.838858
1494.345238	-12.764732
1495.090481	-12.674909
1495.836467	-12.582470
1496.583198	-12.478509
1497.330675	-12.379768
1498.078899	-12.292009
1498.827872	-12.210053
1499.577593	-12.150549
1500.328065	-12.112376
1501.079289	-12.093284
1501.831265	-12.105777
1502.583995	-12.143619
1503.337480	-12.204910
1504.091721	-12.297696
1504.846719	-12.408418
1505.602475	-12.536407
1506.358991	-12.679649
1507.116268	-12.817138
1507.874306	-12.947675
1508.633108	-13.053264
1509.392673	-13.113733
1510.153004	-13.125987
1510.914101	-13.068346
1511.675965	-12.941261
1512.438599	-12.749393
1513.202002	-12.493544
1513.966176	-12.197322
1514.731122	-11.871243
1515.496842	-11.532391
1516.263336	-11.200253
1517.030607	-10.880869
1517.798654	-10.588183
1518.567479	-10.328429
1519.337083	-10.102714
1520.107468	-9.918493
1520.878634	-9.773364
1521.650584	-9.667950
1522.423317	-9.604898
1523.196836	-9.578342
1523.971141	-9.591270
1524.746233	-9.640731
1525.522115	-9.722391
1526.298786	-9.838382
1527.076249	-9.979765
1527.854504	-10.144387
1528.633553	-10.325534
1529.413397	-10.510674
1530.194037	-10.691860
1530.975474	-10.853493
1531.757709	-10.979875
1532.540745	-11.061266
1533.324581	-11.083762
1534.109220	-11.045598
1534.894662	-10.951282
1535.680909	-10.807481
1536.467961	-10.633479
1537.255821	-10.445398
1538.044489	-10.260909
1538.833967	-10.099942
1539.624256	-9.973848
1540.415357	-9.897480
1541.207271	-9.880304
1542.000000	-9.929661
1542.793545	-10.054554
1543.587907	-10.259747
1544.383087	-10.551860
1545.179088	-10.938489
1545.975909	-11.424396
1546.773552	-12.021436
1547.572019	-12.737532
1548.371311	-13.587850
1549.171428	-14.589585
1549.972373	-15.760835
1550.774147	-17.127327
1551.576751	-18.695585
1552.380185	-20.433612
1553.184453	-22.147434
1553.989554	-23.309038
1554.795490	-23.275276
1555.602263	-22.133167
1556.409873	-20.564372
1557.218322	-19.025977
1558.027612	-17.657370
1558.837743	-16.484089
1559.648717	-15.484724
1560.460536	-14.636442
1561.273200	-13.918135
1562.086710	-13.309119
1562.901069	-12.797761
1563.716278	-12.369252
1564.532337	-12.016642
1565.349249	-11.730641
1566.167014	-11.505706
1566.985634	-11.337039
1567.805111	-11.219082
1568.625444	-11.149960
1569.446637	-11.124308
1570.268690	-11.141216
1571.091605	-11.196206
1571.915382	-11.287645
1572.740024	-11.412661
1573.565532	-11.567819
1574.391907	-11.752024
1575.219150	-11.959916
1576.047262	-12.191504
1576.876246	-12.440263
1577.706103	-12.706037
1578.536833	-12.982401
1579.368439	-13.267725
1580.200922	-13.556850
1581.034282	-13.845828
1581.868522	-14.131424
1582.703643	-14.407268
1583.539646	-14.672017
1584.376532	-14.917793
1585.214304	-15.145033
1586.052962	-15.345708
1586.892508	-15.521568
1587.732943	-15.666027
1588.574269	-15.781657
1589.416487	-15.864719
1590.259599	-15.917736
1591.103605	-15.940618
1591.948508	-15.934788
1592.794309	-15.903520
1593.641009	-15.846425
1594.488609	-15.769401
1595.337112	-15.670128
1596.186518	-15.555834
1597.036829	-15.423206
1597.888047	-15.279749
1598.740172	-15.122202
1599.593207	-14.957416
1600.447153	-14.783392
1601.302010	-14.605799
1602.157782	-14.424197
1603.014469	-14.242593
1603.872072	-14.062170
1604.730593	-13.885273
1605.590034	-13.714005
1606.450397	-13.549380
1607.311681	-13.393715
1608.173890	-13.247249
1609.037024	-13.111788
1609.901085	-12.987269
1610.766075	-12.874540
1611.631995	-12.773533
1612.498846	-12.684044
1613.366630	-12.606032
1614.235349	-12.538365
1615.105004	-12.480954
1615.975596	-12.432007
1616.847128	-12.391222
1617.719600	-12.356631
1618.593014	-12.327385
1619.467372	-12.301836
1620.342675	-12.278677
1621.218924	-12.256871
1622.096122	-12.234769
1622.974270	-12.212191
1623.853369	-12.187428
1624.733420	-12.161148
1625.614427	-12.131749
1626.496389	-12.100577
1627.379308	-12.066438
1628.263187	-12.031114
1629.148026	-11.993909
1630.033828	-11.956689
1630.920593	-11.919234
1631.808324	-11.883155
1632.697022	-11.848510
1633.586688	-11.816508
1634.477324	-11.787244
1635.368932	-11.761469
1636.261514	-11.739084
1637.155070	-11.720448
1638.049602	-11.705167
1638.945113	-11.693199
1639.841603	-11.683878
1640.739075	-11.676893
1641.637529	-11.671309
1642.536968	-11.666764
1643.437393	-11.662170
1644.338806	-11.657329
1645.241209	-11.651254
1646.144602	-11.643941
1647.048988	-11.634963
1647.954368	-11.624394
1648.860744	-11.612451
1649.768118	-11.599211
1650.676491	-11.585641
1651.585865	-11.571644
1652.496241	-11.558602
1653.407621	-11.546003
1654.320008	-11.535388
1655.233401	-11.525738
1656.147804	-11.518500
1657.063218	-11.512334
1657.979645	-11.508438
1658.897085	-11.505368
1659.815542	-11.503957
1660.735016	-11.502978
1661.655509	-11.502899
1662.577023	-11.502875
1663.499560	-11.503062
1664.423121	-11.503252
1665.347709	-11.503334
1666.273324	-11.503709
1667.199969	-11.504029
1668.127645	-11.504976
1669.056353	-11.506100
1669.986097	-11.508108
1670.916877	-11.510565
1671.848695	-11.514025
1672.781553	-11.518174
1673.715452	-11.523335
1674.650395	-11.529278
1675.586383	-11.536115
1676.523418	-11.543704
1677.461501	-11.551980
1678.400635	-11.560844
1679.340821	-11.570194
1680.282061	-11.579857
1681.224357	-11.589866
1682.167710	-11.599958
1683.112122	-11.610311
1684.057595	-11.620690
1685.004132	-11.631461
1685.951732	-11.642347
1686.900400	-11.653911
1687.850135	-11.665845
1688.800940	-11.678578
1689.752818	-11.691954
1690.705768	-11.705923
1691.659795	-11.720633
1692.614898	-11.735537
1693.571081	-11.751100
1694.528345	-11.766543
1695.486691	-11.782666
1696.446122	-11.798729
1697.406640	-11.815520
1698.368245	-11.832631
1699.330941	-11.850384
1700.294729	-11.868877
1701.259611	-11.887737
1702.225588	-11.907629
1703.192664	-11.927572
1704.160838	-11.948554
1705.130114	-11.969552
1706.100493	-11.991463
1707.071977	-12.013572
1708.044568	-12.036397
1709.018268	-12.059759
1709.993079	-12.083470
1710.969003	-12.107968
1711.946041	-12.132414
1712.924196	-12.157637
1713.903469	-12.182781
1714.883862	-12.208583
1715.865378	-12.234593
1716.848017	-12.261186
1717.831783	-12.288307
1718.816677	-12.315736
1719.802701	-12.343714
1720.789857	-12.371716
1721.778147	-12.400079
1722.767573	-12.428443
1723.758136	-12.456922
1724.749840	-12.485725
1725.742685	-12.514537
1726.736673	-12.543813
1727.731808	-12.573209
1728.728090	-12.602952
1729.725521	-12.632991
1730.724105	-12.663147
1731.723842	-12.693780
1732.724735	-12.724227
1733.726785	-12.755251
1734.729995	-12.785932
1735.734366	-12.817076
1736.739902	-12.848229
1737.746603	-12.879610
1738.754472	-12.911455
1739.763510	-12.943321
1740.773721	-12.975813
1741.785105	-13.008186
1742.797665	-13.040979
1743.811403	-13.073578
1744.826321	-13.106351
1745.842422	-13.138965
1746.859706	-13.171571
1747.878177	-13.204199
1748.897835	-13.236632
1749.918685	-13.269062
1750.940726	-13.301351
1751.963963	-13.333432
1752.988395	-13.365375
1754.014027	-13.397253
1755.040860	-13.428882
1756.068895	-13.460571
1757.098135	-13.492058
1758.128583	-13.523619
1759.160240	-13.555041
1760.193109	-13.586541
1761.227191	-13.617939
1762.262488	-13.649483
1763.299004	-13.681129
1764.336740	-13.713036
1765.375697	-13.745376
1766.415880	-13.778038
1767.457288	-13.811099
1768.499926	-13.844367
1769.543794	-13.877883
1770.588895	-13.911424
1771.635231	-13.945337
1772.682805	-13.979375
1773.731619	-14.014009
1774.781674	-14.049065
1775.832973	-14.084506
1776.885519	-14.120338
1777.939312	-14.156154
1778.994357	-14.191883
1780.050654	-14.227246
1781.108207	-14.262271
1782.167017	-14.296825
1783.227087	-14.331033
1784.288418	-14.364990
1785.351013	-14.398728
1786.414875	-14.432314
1787.480006	-14.465570
1788.546407	-14.498279
1789.614082	-14.530379
1790.683032	-14.561429
1791.753259	-14.591628
1792.824767	-14.621042
1793.897557	-14.649651
1794.971632	-14.677961
1796.046994	-14.705975
1797.123645	-14.733694
1798.201588	-14.761189
1799.280824	-14.788189
1800.361357	-14.814474
1801.443188	-14.839936
1802.526320	-14.864503
1803.610756	-14.888437
1804.696497	-14.911875
1805.783546	-14.935058
1806.871906	-14.958047
1807.961578	-14.980745
1809.052565	-15.003009
1810.144870	-15.024673
1811.238494	-15.045459
1812.333441	-15.065499
1813.429713	-15.084739
1814.527311	-15.103365
1815.626239	-15.121521
1816.726499	-15.139048
1817.828094	-15.156217
1818.931025	-15.172711
1820.035295	-15.188536
1821.140906	-15.203907
1822.247862	-15.218666
1823.356165	-15.232867
1824.465816	-15.246595
1825.576819	-15.259553
1826.689175	-15.271924
1827.802888	-15.283825
1828.917960	-15.295270
1830.034394	-15.306545
1831.152191	-15.317434
1832.271354	-15.327811
1833.391887	-15.337499
1834.513790	-15.346179
1835.637068	-15.353803
1836.761722	-15.360576
1837.887755	-15.366515
1839.015169	-15.371834
1840.143968	-15.376767
1841.274153	-15.381209
1842.405727	-15.384980
1843.538693	-15.388088
1844.673053	-15.390039
1845.808810	-15.390699
1846.945966	-15.390269
1848.084525	-15.388780
1849.224488	-15.386706
1850.365858	-15.384115
1851.508638	-15.381068
1852.652831	-15.377548
1853.798438	-15.373339
1854.945463	-15.368378
1856.093909	-15.362753
1857.243777	-15.356509
1858.395071	-15.349674
1859.547794	-15.342294
1860.701947	-15.334087
1861.857533	-15.325020
1863.014556	-15.315312
1864.173018	-15.305256
1865.332922	-15.295043
1866.494270	-15.284775
1867.657065	-15.273998
1868.821309	-15.262126
1869.987006	-15.248723
1871.154158	-15.233613
1872.322768	-15.217328
1873.492839	-15.200429
1874.664373	-15.183459
1875.837373	-15.166586
1877.011841	-15.149419
1878.187782	-15.131396
1879.365197	-15.112225
1880.544089	-15.091757
1881.724460	-15.070277
1882.906315	-15.048398
1884.089655	-15.026358
1885.274483	-15.004347
1886.460803	-14.982293
1887.648616	-14.959947
1888.837927	-14.937222
1890.028736	-14.914165
1891.221049	-14.890820
1892.414866	-14.867340
1893.610192	-14.843672
1894.807028	-14.819711
1896.005379	-14.795655
1897.205246	-14.771767
1898.406633	-14.748436
1899.609542	-14.725766
1900.813977	-14.703304
1902.019940	-14.680660
1903.227434	-14.657449
1904.436462	-14.633665
1905.647028	-14.609920
1906.859133	-14.586632
1908.072781	-14.564059
1909.287976	-14.542098
1910.504719	-14.520084
1911.723013	-14.497628
1912.942863	-14.474621
1914.164270	-14.451111
1915.387238	-14.427528
1916.611770	-14.404044
1917.837868	-14.380489
1919.065536	-14.356814
1920.294777	-14.332897
1921.525594	-14.308751
1922.757989	-14.284615
1923.991967	-14.260529
1925.227529	-14.236547
1926.464679	-14.212573
1927.703420	-14.188431
1928.943755	-14.164046
1930.185688	-14.139325
1931.429221	-14.114436
1932.674356	-14.089696
1933.921099	-14.064964
1935.169451	-14.039945
1936.419415	-14.014306
1937.670996	-13.987895
1938.924195	-13.961140
1940.179017	-13.934483
1941.435463	-13.908187
1942.693538	-13.882147
1943.953245	-13.855947
1945.214586	-13.829449
1946.477566	-13.802631
1947.742186	-13.775825
1949.008451	-13.749506
1950.276363	-13.723839
1951.545926	-13.698801
1952.817143	-13.674077
1954.090017	-13.649456
1955.364551	-13.625000
1956.640749	-13.600881
1957.918615	-13.577262
1959.198150	-13.554103
1960.479359	-13.531467
1961.762244	-13.509425
1963.046810	-13.488092
1964.333059	-13.467568
1965.620995	-13.447642
1966.910621	-13.428127
1968.201940	-13.408812
1969.494956	-13.389700
1970.789672	-13.371089
1972.086091	-13.353201
1973.384217	-13.336020
1974.684053	-13.319242
1975.985602	-13.302305
1977.288869	-13.284885
1978.593855	-13.267160
1979.900566	-13.249580
1981.209003	-13.232548
1982.519171	-13.216109
1983.831073	-13.200057
1985.144712	-13.184141
1986.460093	-13.168190
1987.777217	-13.152134
1989.096089	-13.135918
1990.416713	-13.119592
1991.739092	-13.103508
1993.063228	-13.087973
1994.389127	-13.073022
1995.716791	-13.058239
1997.046223	-13.042855
1998.377428	-13.026555
1999.710409	-13.009367
2001.045169	-12.991926
2002.381713	-12.975076
2003.720043	-12.959106
2005.060163	-12.943753
2006.402077	-12.928191
2007.745788	-12.911835
2009.091301	-12.894765
2010.438618	-12.877586
2011.787743	-12.861119
2013.138680	-12.845990
2014.491433	-12.832131
2015.846005	-12.818906
2017.202399	-12.805503
2018.560621	-12.791625
2019.920673	-12.777704
2021.282558	-12.764650
2022.646281	-12.753200
2024.011846	-12.743554
2025.379256	-12.735091
2026.748515	-12.726873
2028.119626	-12.718349
2029.492594	-12.709624
2030.867422	-12.701503
2032.244114	-12.694724
2033.622673	-12.689414
2035.003104	-12.685030
2036.385411	-12.680859
2037.769597	-12.676484
2039.155665	-12.671975
2040.543621	-12.667752
2041.933467	-12.664217
2043.325208	-12.661275
2044.718847	-12.658554
2046.114389	-12.655790
2047.511837	-12.652749
2048.911195	-12.649137
2050.312467	-12.644985
2051.715657	-12.640939
2053.120769	-12.637797
2054.527807	-12.635635
2055.936775	-12.633560
2057.347677	-12.630726
2058.760516	-12.627238
2060.175297	-12.623865
2061.592025	-12.621037
2063.010701	-12.618509
2064.431332	-12.615817
2065.853921	-12.612611
2067.278472	-12.608918
2068.704988	-12.605127
2070.133475	-12.601789
2071.563936	-12.599047
2072.996375	-12.596523
2074.430796	-12.593910
2075.867204	-12.591536
2077.305603	-12.589908
2078.745996	-12.588995
2080.188389	-12.588507
2081.632784	-12.588526
2083.079187	-12.589421
2084.527601	-12.591234
2085.978030	-12.593769
2087.430480	-12.597103
2088.884954	-12.601687
2090.341455	-12.607755
2091.799990	-12.614950
2093.260561	-12.622751
2094.723173	-12.631139
2096.187831	-12.640644
2097.654538	-12.651659
2099.123300	-12.663789
2100.594119	-12.676093
2102.067001	-12.688199
2103.541950	-12.700651
2105.018971	-12.714070
2106.498067	-12.728240
2107.979243	-12.742341
2109.462503	-12.755823
2110.947853	-12.768825
2112.435295	-12.781731
2113.924836	-12.794641
2115.416478	-12.807462
2116.910227	-12.820167
2118.406087	-12.832759
2119.904063	-12.845015
2121.404158	-12.856856
2122.906378	-12.868576
2124.410727	-12.880618
2125.917210	-12.893180
2127.425831	-12.905977
2128.936594	-12.918305
2130.449505	-12.929940
2131.964567	-12.941772
2133.481786	-12.955058
2135.001166	-12.969646
2136.522711	-12.984094
2138.046427	-12.997704
2139.572317	-13.011600
2141.100388	-13.027046
2142.630642	-13.043804
2144.163085	-13.060927
2145.697722	-13.078596
2147.234558	-13.097767
2148.773596	-13.118338
2150.314842	-13.139295
2151.858301	-13.160744
2153.403977	-13.184143
2154.951875	-13.210018
2156.502000	-13.237053
2158.054357	-13.264341
2159.608950	-13.292897
2161.165785	-13.324081
2162.724866	-13.357336
2164.286198	-13.390763
2165.849786	-13.423679
2167.415635	-13.457195
2168.983749	-13.492017
2170.554134	-13.527289
2172.126795	-13.562226
2173.701737	-13.597158
2175.278964	-13.632221
2176.858481	-13.666833
2178.440294	-13.700843
2180.024408	-13.734974
2181.610827	-13.769525
2183.199557	-13.803432
2184.790602	-13.835705
2186.383968	-13.867407
2187.979660	-13.900428
2189.577683	-13.934705
2191.178041	-13.968309
2192.780741	-14.000182
2194.385787	-14.031620
2195.993185	-14.064553
2197.602939	-14.099054
2199.215054	-14.133657
2200.829537	-14.168066
2202.446392	-14.203570
2204.065624	-14.240879
2205.687239	-14.279495
2207.311242	-14.318948
2208.937638	-14.359550
2210.566433	-14.401481
2212.197631	-14.444371
2213.831239	-14.488304
2215.467261	-14.534059
2217.105703	-14.581866
2218.746570	-14.630852
2220.389867	-14.680643
2222.035601	-14.732833
2223.683776	-14.788801
2225.334398	-14.847057
2226.987472	-14.905514
2228.643004	-14.964856
2230.300999	-15.026502
2231.961463	-15.089513
2233.624402	-15.152524
2235.289820	-15.216119
2236.957723	-15.280740
2238.628118	-15.345271
2240.301009	-15.409757
2241.976402	-15.475430
2243.654303	-15.541213
2245.334717	-15.605206
2247.017650	-15.669008
2248.703108	-15.735477
2250.391096	-15.802796
2252.081620	-15.866477
2253.774686	-15.926444
2255.470300	-15.986515
2257.168467	-16.047077
2258.869193	-16.104705
2260.572484	-16.159147
2262.278345	-16.212852
2263.986783	-16.265804
2265.697804	-16.317617
2267.411412	-16.371554
2269.127615	-16.430358
2270.846417	-16.492372
2272.567826	-16.556152
2274.291846	-16.624496
2276.018484	-16.699723
2277.747745	-16.778905
2279.479637	-16.857717
2281.214164	-16.937440
2282.951333	-17.022663
2284.691149	-17.111607
2286.433619	-17.198258
2288.178750	-17.284229
2289.926546	-17.375295
2291.677014	-17.468991
2293.430161	-17.561458
2295.185992	-17.656435
2296.944513	-17.754674
2298.705732	-17.852320
2300.469653	-17.950258
2302.236283	-18.052615
2304.005629	-18.159155
2305.777696	-18.262444
2307.552492	-18.359313
2309.330022	-18.458690
2311.110292	-18.560831
2312.893310	-18.656317
2314.679080	-18.747744
2316.467611	-18.839491
2318.258907	-18.934772
2320.052976	-19.024160
2321.849824	-19.110296
2323.649457	-19.197766
2325.451883	-19.288264
2327.257106	-19.377734
2329.065135	-19.466671
2330.875975	-19.558354
2332.689633	-19.652813
2334.506116	-19.749157
2336.325430	-19.851763
2338.147581	-19.956222
2339.972578	-20.060527
2341.800425	-20.164226
2343.631130	-20.274280
2345.464700	-20.383903
2347.301141	-20.489716
2349.140461	-20.590456
2350.982665	-20.692971
2352.827760	-20.799143
2354.675754	-20.898539
2356.526653	-21.000431
2358.380464	-21.107085
2360.237195	-21.229452
2362.096851	-21.350776
2363.959440	-21.483907
2365.824968	-21.622851
2367.693444	-21.773630
2369.564873	-21.923341
2371.439263	-22.077808
2373.316620	-22.236615
2375.196953	-22.391286
2377.080267	-22.540061
2378.966570	-22.684385
2380.855869	-22.824668
2382.748171	-22.953603
2384.643484	-23.082766
2386.541815	-23.208699
2388.443170	-23.328137
2390.347557	-23.441263
2392.254984	-23.561356
2394.165457	-23.677790
2396.078984	-23.794177
2397.995572	-23.899720
2399.915229	-24.022012
2401.837961	-24.129861
2403.763777	-24.244737
2405.692684	-24.354102
2407.624689	-24.483592
2409.559800	-24.599802
2411.498023	-24.728737
2413.439368	-24.852319
2415.383840	-24.988249
2417.331449	-25.117539
2419.282201	-25.261200
2421.236104	-25.393360
2423.193165	-25.543379
2425.153393	-25.684215
2427.116795	-25.845494
2429.083378	-25.991853
2431.053151	-26.163596
2433.026121	-26.333855
2435.002297	-26.514220
2436.981685	-26.695205
2438.964293	-26.895863
2440.950131	-27.087757
2442.939204	-27.286812
2444.931522	-27.481767
2446.927092	-27.688081
2448.925923	-27.859623
2450.928022	-28.047829
2452.933397	-28.217294
2454.942056	-28.378817
2456.954008	-28.527858
2458.969260	-28.680198
2460.987821	-28.805383
2463.009699	-28.926672
2465.034902	-29.047121
2467.063437	-29.170511
2469.095315	-29.262906
2471.130542	-29.394189
2473.169127	-29.494774
2475.211078	-29.596134
2477.256404	-29.722703
2479.305112	-29.858037
2481.357212	-29.973329
2483.412713	-30.103744
2485.471621	-30.254525
2487.533946	-30.392804
2489.599696	-30.535447
2491.668880	-30.715199
2493.741507	-30.868849
2495.817585	-31.031611
2497.897122	-31.212468
2499.980127	-31.388946
2502.066609	-31.569247
2504.156578	-31.784082
2506.250040	-31.994281
2508.347006	-32.219137
2510.447483	-32.478684
2512.551482	-32.747268
2514.659010	-33.004907
2516.770076	-33.295015
2518.884690	-33.587040
2521.002861	-33.836105
2523.124597	-34.137580
2525.249907	-34.353273
2527.378801	-34.581048
2529.511287	-34.756077
2531.647375	-34.947387
2533.787074	-35.057412
2535.930393	-35.196950
2538.077340	-35.316921
2540.227927	-35.381073
2542.382160	-35.485151
2544.540051	-35.556589
2546.701608	-35.608102
2548.866840	-35.696162
2551.035757	-35.760024
2553.208369	-35.842955
2555.384684	-35.923706
2557.564713	-36.030342
2559.748465	-36.132190
2561.935948	-36.252602
2564.127174	-36.377898
2566.322152	-36.472074
2568.520890	-36.666551
2570.723399	-36.778174
2572.929689	-36.961288
2575.139769	-37.141212
2577.353649	-37.309058
2579.571340	-37.550899
2581.792849	-37.777363
2584.018189	-38.081980
2586.247368	-38.353186
2588.480396	-38.776556
2590.717284	-39.130521
2592.958041	-39.599141
2595.202678	-40.049137
2597.451204	-40.511014
2599.703630	-40.988272
2601.959966	-41.380836
2604.220222	-41.825806
2606.484408	-42.096200
2608.752535	-42.440319
2611.024612	-42.614958
2613.300651	-42.806673
2615.580661	-42.944302
2617.864653	-43.023373
2620.152638	-43.141454
2622.444625	-43.028612
2624.740626	-43.071830
2627.040651	-43.017307
2629.344710	-42.975489
2631.652814	-42.919124
2633.964974	-42.834701
2636.281200	-42.828275
2638.601504	-42.775311
2640.925896	-42.802537
2643.254386	-42.730345
2645.586987	-42.757899
2647.923707	-42.746511
2650.264559	-42.806257
2652.609554	-42.867837
2654.958702	-42.818807
2657.312015	-42.982252
2659.669503	-43.109543
2662.031178	-43.297921
2664.397051	-43.521752
2666.767132	-43.821064
2669.141434	-44.215779
2671.519968	-44.794952
2673.902745	-45.275375
2676.289776	-45.939595
2678.681072	-46.516705
2681.076646	-47.449490
2683.476508	-48.039122
2685.880671	-48.592313
2688.289145	-49.521298
2690.701942	-50.123961
2693.119075	-50.994482
2695.540554	-51.431467
2697.966391	-51.885847
2700.396599	-52.911556
2702.831189	-52.716138
2705.270172	-53.234773
2707.713561	-53.094910
2710.161368	-53.193160
2712.613605	-52.981016
2715.070283	-52.526023
2717.531416	-52.367921
2719.997014	-52.285559
2722.467090	-51.634028
2724.941657	-51.211968
2727.420726	-50.901592
2729.904310	-50.546267
2732.392421	-50.102207
2734.885072	-49.720438
2737.382275	-49.331438
2739.884042	-49.302477
2742.390387	-48.870956
2744.901321	-48.885544
2747.416857	-48.860701
2749.937008	-49.177208
2752.461787	-49.148645
2754.991206	-49.669079
2757.525279	-50.168512
2760.064017	-50.753578
2762.607434	-51.329915
2765.155544	-51.764643
2767.708358	-52.454204
2770.265890	-52.912337
2772.828153	-53.461688
2775.395160	-54.318130
2777.966924	-54.686727
2780.543459	-55.541874
2783.124778	-56.240772
2785.710894	-57.061873
2788.301821	-58.119719
2790.897572	-58.832016
2793.498160	-60.068352
2796.103599	-61.565028
2798.713903	-62.036708
2801.329085	-65.237675
2803.949159	-68.286249
2806.574139	-69.611626
2809.204038	-70.804521
2811.838871	-71.384672
2814.478650	-65.625111
2817.123391	-62.841603
2819.773107	-61.487124
2822.427812	-59.414505
2825.087521	-58.552655
2827.752247	-57.742737
2830.422005	-56.299104
2833.096808	-56.920138
2835.776672	-55.994796
2838.461611	-56.181030
2841.151638	-56.800207
2843.846769	-56.801286
2846.547019	-57.546417
2849.252401	-57.658316
2851.962930	-58.336414
2854.678621	-58.640598
2857.399489	-58.660255
2860.125549	-58.798488
2862.856815	-59.552918
2865.593302	-59.460072
2868.335026	-59.962654
2871.082002	-59.954164
2873.834244	-59.808669
2876.591767	-60.721418
2879.354588	-60.102417
2882.122721	-60.220720
2884.896181	-60.318059
2887.674984	-61.310327
2890.459146	-60.821815
2893.248681	-61.508382
2896.043606	-62.712319
2898.843937	-64.378674
2901.649687	-64.750369
2904.460875	-66.710061
2907.277515	-68.980867
2910.099623	-70.316041
2912.927215	-74.096878
2915.760308	-70.583363
2918.598916	-71.000528
2921.443057	-69.508349
2924.292747	-66.399350
2927.148002	-67.010006
2930.008837	-66.916243
2932.875270	-67.683887
2935.747318	-66.342794
2938.624995	-67.502489
2941.508320	-67.725423
2944.397308	-69.398873
2947.291977	-67.712364
2950.192343	-70.189295
2953.098423	-69.971723
2956.010234	-68.461293
2958.927792	-70.678330
2961.851116	-72.583954
2964.780221	-71.018236
2967.715126	-72.841213
2970.655847	-68.039063
2973.602402	-68.046610
2976.554808	-65.779790
2979.513083	-65.882132
2982.477243	-65.508734
2985.447308	-64.543830
2988.423293	-64.546552
2991.405218	-64.185946
2994.393099	-64.389369
2997.386955	-64.708991
