# 2022-03-22_12.39.49
# shape = sech2
# FWHM_ps = 0.11
# carrier_nm = 1542
# frep_MHz = 12126
# pow_mW = 8000
# GDD = 0.0
# propa_len = 0.15311111111111111
# untap_len = 0.01
# taper_len = 0.09311111111111112
# waist_len = 0.02
# uptap_len = 0.02
# untap_scale = 1.0
# waist_scale = 0.17894736842105266
# workingDir = NL_20110305_12 (Spirou)
# axis = slow
# window_ps = 10.0
# steps = 200
# points = 21700
# 
# wavelength [nm]	 power spectral density [dB]
600.043425	-90.411391
600.163550	-89.060322
600.283723	-89.230869
600.403943	-90.762399
600.524212	-93.184699
600.644529	-97.571564
600.764895	-105.891504
600.885308	-114.589005
601.005770	-108.702107
601.126280	-103.407693
601.246839	-98.869453
601.367446	-96.316478
601.488101	-95.991465
601.608804	-97.063765
601.729557	-99.940509
601.850357	-109.978789
601.971206	-105.212294
602.092104	-97.716699
602.213050	-94.588656
602.334045	-93.655700
602.455089	-94.517359
602.576181	-97.219544
602.697322	-100.949654
602.818511	-101.295942
602.939749	-99.881910
603.061036	-100.018641
603.182372	-101.668712
603.303757	-112.146715
603.425191	-104.213588
603.546673	-96.322194
603.668204	-92.704929
603.789785	-91.444103
603.911414	-91.947902
604.033092	-94.327893
604.154820	-98.659560
604.276596	-112.937544
604.398422	-103.835788
604.520297	-98.201771
604.642220	-95.315357
604.764193	-94.013869
604.886216	-93.527582
605.008287	-94.450916
605.130408	-97.513771
605.252578	-106.346835
605.374798	-98.744785
605.497066	-91.504028
605.619385	-87.906345
605.741752	-86.199958
605.864169	-85.975147
605.986636	-87.119509
606.109152	-88.261352
606.231718	-87.787532
606.354333	-86.108562
606.476998	-84.059859
606.599712	-82.875500
606.722476	-82.655842
606.845290	-83.572488
606.968154	-85.474781
607.091067	-86.981544
607.214030	-86.344264
607.337043	-85.059889
607.460106	-84.373590
607.583219	-85.076705
607.706381	-86.353410
607.829594	-87.280840
607.952856	-87.067160
608.076169	-86.011685
608.199531	-84.335946
608.322944	-83.130071
608.446407	-82.799717
608.569920	-83.509443
608.693483	-84.997333
608.817096	-87.173975
608.940759	-88.345938
609.064473	-86.877957
609.188237	-84.693864
609.312051	-83.180634
609.435916	-82.563285
609.559831	-83.181180
609.683796	-84.806572
609.807812	-86.920976
609.931878	-88.363045
610.055995	-86.726267
610.180162	-84.817558
610.304380	-84.114205
610.428648	-84.557321
610.552967	-86.010200
610.677337	-86.485536
610.801757	-85.640039
610.926228	-84.710338
611.050750	-83.818204
611.175323	-83.498063
611.299946	-83.832044
611.424620	-84.572638
611.549345	-85.678225
611.674121	-86.322952
611.798948	-85.857004
611.923826	-84.868128
612.048755	-84.136249
612.173734	-84.356775
612.298765	-85.096957
612.423847	-85.289371
612.548980	-84.721367
612.674165	-83.506639
612.799400	-81.934343
612.924687	-80.952773
613.050025	-80.599412
613.175414	-80.734824
613.300854	-81.302903
613.426346	-82.183579
613.551889	-82.623659
613.677484	-82.473915
613.803130	-82.654056
613.928827	-83.647234
614.054576	-85.445350
614.180377	-87.214725
614.306229	-87.014836
614.432132	-85.573251
614.558087	-84.114119
614.684094	-83.875582
614.810153	-85.195289
614.936263	-88.589089
615.062425	-97.315256
615.188639	-96.430662
615.314904	-89.985805
615.441222	-87.586260
615.567591	-86.951748
615.694012	-87.484077
615.820486	-88.861100
615.947011	-90.804053
616.073588	-93.257181
616.200217	-92.118156
616.326898	-88.404687
616.453632	-85.882995
616.580417	-84.683272
616.707255	-84.774017
616.834144	-85.343837
616.961086	-84.947480
617.088081	-83.783538
617.215127	-82.287967
617.342226	-81.745423
617.469378	-82.219278
617.596581	-82.669852
617.723837	-83.325316
617.851146	-83.856968
617.978507	-83.418023
618.105920	-83.069236
618.233386	-83.171567
618.360905	-83.531784
618.488476	-83.745592
618.616100	-83.751906
618.743777	-83.215607
618.871506	-82.757042
618.999288	-82.336705
619.127123	-82.169637
619.255011	-82.517990
619.382951	-83.359720
619.510945	-85.459277
619.638991	-87.466011
619.767090	-87.296309
619.895243	-85.491327
620.023448	-83.815277
620.151706	-83.697453
620.280017	-85.044708
620.408382	-87.052758
620.536799	-87.720122
620.665270	-86.387825
620.793794	-85.323723
620.922371	-86.171134
621.051002	-89.779405
621.179686	-99.676004
621.308423	-94.942234
621.437213	-89.664619
621.566057	-88.751720
621.694954	-91.080914
621.823905	-93.159349
621.952909	-87.399515
622.081967	-83.665409
622.211079	-82.232160
622.340244	-83.522522
622.469462	-87.530753
622.598735	-94.660418
622.728061	-87.508545
622.857441	-83.402702
622.986874	-82.502031
623.116361	-83.859219
623.245903	-89.938147
623.375498	-91.626981
623.505147	-85.246999
623.634850	-82.538281
623.764606	-82.688495
623.894417	-85.651983
624.024282	-91.986168
624.154201	-91.957894
624.284174	-86.816351
624.414202	-85.797163
624.544283	-85.905336
624.674419	-87.806921
624.804609	-91.945627
624.934853	-94.772053
625.065151	-93.243881
625.195504	-89.838891
625.325911	-86.849471
625.456373	-84.945347
625.586889	-83.962732
625.717460	-85.103903
625.848085	-89.003227
625.978764	-95.033125
626.109498	-96.783385
626.240287	-90.536256
626.371131	-88.755634
626.502029	-88.307013
626.632982	-88.171774
626.763989	-89.543649
626.895052	-92.339504
627.026169	-93.368183
627.157341	-90.125742
627.288568	-86.228649
627.419850	-84.517344
627.551187	-84.439399
627.682579	-85.130406
627.814026	-85.217758
627.945528	-84.842122
628.077085	-84.561851
628.208697	-84.889916
628.340364	-87.629565
628.472087	-92.832633
628.603865	-94.249515
628.735698	-89.922810
628.867586	-85.960757
628.999530	-83.740019
629.131529	-82.671067
629.263584	-82.473723
629.395694	-83.461531
629.527859	-84.898700
629.660080	-84.217325
629.792357	-82.148279
629.924689	-80.435928
630.057077	-79.805371
630.189520	-80.713737
630.322019	-83.103715
630.454574	-86.744703
630.587184	-85.473650
630.719851	-80.704978
630.852573	-78.017106
630.985351	-76.849637
631.118185	-76.895383
631.251075	-78.276965
631.384021	-80.210567
631.517023	-80.242109
631.650081	-78.620208
631.783195	-77.265642
631.916365	-77.018729
632.049592	-78.263090
632.182874	-80.864428
632.316213	-83.367493
632.449608	-83.604306
632.583059	-82.857368
632.716567	-83.062241
632.850131	-84.322856
632.983751	-86.349285
633.117428	-88.963396
633.251161	-91.791925
633.384951	-94.515369
633.518797	-95.831737
633.652700	-95.532679
633.786660	-93.592673
633.920676	-90.991802
634.054749	-89.631296
634.188879	-88.772754
634.323065	-87.313867
634.457308	-86.436276
634.591608	-86.942049
634.725965	-88.791877
634.860379	-93.470591
634.994850	-90.983128
635.129377	-85.599981
635.263962	-84.169869
635.398604	-85.186115
635.533303	-89.393825
635.668058	-98.564472
635.802872	-90.591020
635.937742	-87.990017
636.072669	-89.218976
636.207654	-93.365862
636.342696	-88.754176
636.477796	-85.071003
636.612953	-83.886204
636.748167	-84.215368
636.883439	-84.374448
637.018768	-83.170127
637.154155	-82.477967
637.289599	-83.838078
637.425101	-89.053069
637.560660	-88.632484
637.696277	-82.013734
637.831952	-79.737706
637.967685	-80.597662
638.103475	-85.130481
638.239324	-92.344861
638.375230	-86.118015
638.511194	-83.325629
638.647215	-84.655620
638.783295	-91.843855
638.919433	-93.837939
639.055629	-85.992411
639.191883	-83.552694
639.328195	-83.165228
639.464565	-84.890610
639.600994	-84.925943
639.737481	-83.082118
639.874025	-81.976672
640.010629	-81.334724
640.147290	-81.806558
640.284010	-81.868581
640.420789	-81.737205
640.557625	-82.541256
640.694521	-83.307004
640.831474	-83.688420
640.968487	-83.563938
641.105558	-84.884192
641.242687	-89.092197
641.379876	-92.107075
641.517123	-85.842362
641.654429	-82.355740
641.791793	-81.643429
641.929216	-82.723895
642.066699	-85.733709
642.204240	-97.900777
642.341840	-88.172413
642.479499	-81.521789
642.617217	-78.855730
642.754994	-77.849082
642.892830	-78.464381
643.030726	-80.786300
643.168680	-85.193769
643.306694	-91.386979
643.444767	-83.402686
643.582899	-78.627482
643.721091	-77.009192
643.859342	-77.353217
643.997652	-80.121726
644.136022	-88.526361
644.274451	-87.937045
644.412940	-81.540869
644.551488	-79.413948
644.690096	-78.781075
644.828763	-78.738474
644.967490	-79.301019
645.106277	-81.541196
645.245124	-88.794006
645.384030	-89.624204
645.522997	-81.285668
645.662023	-79.073884
645.801109	-80.237597
645.940255	-86.328258
646.079460	-90.224829
646.218726	-81.768780
646.358052	-80.048115
646.497438	-81.501624
646.636884	-86.075741
646.776391	-89.844309
646.915957	-88.298081
647.055584	-91.512406
647.195271	-94.262107
647.335019	-84.148363
647.474826	-80.440281
647.614695	-81.023547
647.754623	-83.625275
647.894612	-83.788038
648.034662	-80.597729
648.174772	-78.087406
648.314943	-77.894056
648.455174	-79.002396
648.595466	-81.162601
648.735819	-83.883983
648.876233	-81.719101
649.016707	-79.768613
649.157242	-79.594929
649.297838	-81.174781
649.438495	-88.218270
649.579213	-92.332464
649.719992	-86.264734
649.860832	-86.284711
650.001733	-88.393526
650.142695	-83.217560
650.283718	-79.660602
650.424803	-79.250336
650.565949	-80.569568
650.707156	-83.092227
650.848424	-80.247894
650.989754	-77.120809
651.131145	-76.504792
651.272597	-77.654167
651.414111	-80.291500
651.555687	-82.222349
651.697324	-80.589642
651.839022	-78.624985
651.980782	-78.076748
652.122604	-79.613220
652.264488	-83.113458
652.406433	-83.749455
652.548441	-80.706479
652.690510	-79.150152
652.832640	-80.995539
652.974833	-85.116085
653.117088	-81.657940
653.259405	-79.184203
653.401784	-79.392571
653.544224	-84.066112
653.686727	-86.429785
653.829293	-80.694960
653.971920	-79.147685
654.114609	-81.280690
654.257361	-88.833801
654.400175	-86.121728
654.543052	-82.234490
654.685991	-81.879890
654.828992	-87.093582
654.972056	-95.212055
655.115183	-84.189638
655.258372	-81.245371
655.401623	-81.468493
655.544937	-86.739750
655.688314	-86.307594
655.831754	-80.342232
655.975256	-77.442861
656.118822	-77.743031
656.262450	-82.315957
656.406141	-81.057910
656.549894	-76.687187
656.693711	-74.713216
656.837591	-75.015064
656.981534	-78.271281
657.125540	-85.477187
657.269610	-92.606972
657.413742	-83.802655
657.557938	-78.568290
657.702196	-75.777238
657.846519	-75.197933
657.990904	-76.640149
658.135353	-79.352672
658.279866	-78.037070
658.424441	-74.729967
658.569081	-73.575244
658.713784	-74.439247
658.858550	-76.988759
659.003381	-80.330319
659.148274	-78.998138
659.293232	-74.963472
659.438253	-72.627536
659.583339	-72.410027
659.728488	-73.664150
659.873701	-73.271725
660.018978	-71.081940
660.164318	-69.852228
660.309723	-70.783795
660.455192	-73.979770
660.600725	-76.281174
660.746323	-74.445396
660.891984	-74.409037
661.037710	-78.509203
661.183500	-93.308808
661.329354	-81.040160
661.475272	-78.284076
661.621255	-80.929864
661.767303	-84.567163
661.913415	-80.553226
662.059591	-77.554680
662.205833	-77.352563
662.352138	-78.525337
662.498509	-80.802330
662.644944	-84.777521
662.791443	-79.273138
662.938008	-74.690669
663.084638	-73.478247
663.231332	-75.125542
663.378091	-81.018199
663.524915	-82.593326
663.671804	-77.952270
663.818759	-78.422941
663.965778	-84.888234
664.112863	-93.730707
664.260012	-85.127776
664.407227	-88.100098
664.554507	-87.665666
664.701853	-79.870574
664.849264	-78.442284
664.996740	-80.479768
665.144282	-80.050147
665.291889	-75.707506
665.439561	-74.162441
665.587300	-75.303781
665.735103	-79.129454
665.882973	-87.183916
666.030908	-101.774458
666.178909	-92.582360
666.326976	-84.211671
666.475109	-81.005965
666.623307	-81.142564
666.771571	-85.136241
666.919902	-87.885274
667.068298	-81.069309
667.216761	-77.100413
667.365289	-74.975082
667.513884	-74.895205
667.662545	-77.846351
667.811272	-82.576812
667.960065	-78.997129
668.108925	-76.127294
668.257851	-76.337236
668.406843	-76.002264
668.555902	-72.806265
668.705027	-71.647495
668.854219	-72.813381
669.003478	-75.738169
669.152803	-74.974576
669.302195	-72.416650
669.451653	-72.896383
669.601179	-76.095861
669.750771	-82.756185
669.900430	-91.126708
670.050156	-86.908373
670.199949	-80.753977
670.349808	-77.308647
670.499735	-77.096190
670.649729	-80.100856
670.799790	-78.611724
670.949918	-75.689398
671.100114	-74.545644
671.250377	-76.236864
671.400707	-81.397689
671.551104	-89.273319
671.701569	-93.389074
671.852101	-83.577011
672.002700	-80.163945
672.153368	-82.888127
672.304102	-119.089459
672.454905	-82.527998
672.605775	-79.621227
672.756713	-83.924270
672.907718	-85.886295
673.058791	-77.126195
673.209933	-75.377824
673.361142	-79.243515
673.512419	-82.517012
673.663764	-76.921233
673.815177	-75.711807
673.966658	-77.562386
674.118207	-74.854966
674.269825	-71.578320
674.421510	-71.160199
674.573264	-74.313670
674.725086	-78.337528
674.876977	-78.266256
675.028936	-79.562484
675.180963	-83.829744
675.333059	-80.259882
675.485224	-79.312387
675.637457	-85.778433
675.789758	-84.248241
675.942129	-76.421122
676.094568	-74.973972
676.247075	-78.684082
676.399652	-88.752475
676.552298	-90.285157
676.705012	-79.621448
676.857795	-74.429007
677.010648	-72.653939
677.163569	-74.219089
677.316560	-78.788214
677.469619	-73.365719
677.622748	-70.435557
677.775946	-71.300426
677.929214	-77.507235
678.082551	-83.341609
678.235957	-75.737734
678.389432	-77.665831
678.542977	-92.290369
678.696592	-77.450698
678.850276	-74.416485
679.004030	-76.652564
679.157853	-81.973072
679.311746	-80.921761
679.465709	-85.440236
679.619742	-82.571498
679.773844	-74.337297
679.928017	-72.780939
680.082259	-77.431981
680.236571	-83.070183
680.390954	-74.321452
680.545406	-72.515889
680.699929	-75.624584
680.854522	-90.185274
681.009185	-83.357031
681.163918	-80.308908
681.318722	-76.305797
681.473596	-72.691490
681.628540	-72.601008
681.783555	-75.557216
681.938641	-73.994034
682.093797	-70.787161
682.249023	-71.277155
682.404321	-76.613104
682.559689	-88.936096
682.715128	-80.420543
682.870637	-85.623275
683.026218	-80.129431
683.181869	-73.159163
683.337591	-71.857329
683.493385	-74.289504
683.649249	-76.921265
683.805185	-76.329639
683.961191	-78.129996
684.117269	-89.847463
684.273418	-83.256811
684.429639	-78.779608
684.585930	-80.630957
684.742294	-81.221334
684.898728	-79.468727
685.055234	-79.654485
685.211812	-83.472177
685.368461	-81.832966
685.525182	-81.231174
685.681975	-81.830170
685.838839	-81.381902
685.995775	-78.821203
686.152783	-78.213649
686.309863	-77.733401
686.467014	-78.358565
686.624238	-81.992685
686.781534	-89.861483
686.938902	-88.500573
687.096342	-83.882410
687.253854	-77.315153
687.411438	-74.195539
687.569095	-74.352924
687.726824	-78.105511
687.884626	-80.591796
688.042499	-79.970536
688.200446	-83.639889
688.358465	-79.158636
688.516556	-74.848208
688.674720	-75.731435
688.832957	-77.079372
688.991266	-73.489788
689.149649	-72.018611
689.308104	-76.363377
689.466632	-81.446440
689.625233	-73.251583
689.783906	-71.972827
689.942653	-75.466023
690.101473	-75.409228
690.260367	-71.736634
690.419333	-72.009180
690.578372	-76.003184
690.737485	-86.464484
690.896672	-88.129385
691.055931	-77.098432
691.215264	-72.467847
691.374671	-71.633492
691.534151	-75.241257
691.693704	-83.872918
691.853332	-76.404718
692.013033	-75.334728
692.172807	-77.499926
692.332656	-76.326129
692.492578	-76.438646
692.652575	-86.908834
692.812645	-80.302817
692.972789	-74.812827
693.133007	-75.326462
693.293300	-80.732254
693.453666	-81.833749
693.614107	-81.352662
693.774622	-78.831829
693.935211	-73.773517
694.095875	-72.907311
694.256613	-77.665027
694.417426	-82.048383
694.578313	-74.344255
694.739274	-72.902478
694.900311	-74.439218
695.061421	-77.331249
695.222607	-85.064382
695.383868	-82.875358
695.545203	-74.977448
695.706613	-74.157016
695.868098	-79.683563
696.029658	-83.966550
696.191293	-76.066122
696.353003	-77.641388
696.514789	-95.641022
696.676649	-78.089100
696.838585	-75.438477
697.000596	-79.703335
697.162682	-90.260684
697.324844	-78.846623
697.487081	-78.701308
697.649394	-82.090588
697.811782	-83.261243
697.974246	-93.380878
698.136786	-78.655293
698.299401	-72.648579
698.462092	-71.331734
698.624859	-72.867409
698.787702	-72.602288
698.950621	-70.304044
699.113616	-70.400701
699.276686	-73.863247
699.439833	-81.934938
699.603056	-79.884466
699.766355	-78.886951
699.929731	-84.499690
700.093183	-94.398257
700.256711	-81.340777
700.420315	-77.592578
700.583996	-76.239241
700.747754	-77.188981
700.911588	-79.208774
701.075499	-75.791535
701.239486	-72.528727
701.403550	-72.770827
701.567691	-75.013181
701.731909	-77.861570
701.896203	-82.421123
702.060575	-76.743485
702.225024	-72.143989
702.389549	-72.133289
702.554152	-78.394335
702.718832	-80.183365
702.883589	-74.816161
703.048424	-79.152433
703.213335	-75.472038
703.378324	-69.659770
703.543391	-69.578202
703.708535	-76.505143
703.873757	-83.578731
704.039056	-76.274215
704.204433	-80.308796
704.369887	-74.986127
704.535420	-71.916375
704.701030	-76.631827
704.866718	-82.753957
705.032484	-72.845202
705.198328	-75.058198
705.364250	-82.400865
705.530250	-70.502151
705.696328	-69.476198
705.862485	-76.401694
706.028720	-75.301854
706.195033	-70.105781
706.361424	-72.915279
706.527894	-84.114166
706.694442	-74.144434
706.861069	-74.087592
707.027775	-76.472164
707.194559	-74.980282
707.361422	-82.160874
707.528363	-75.714858
707.695384	-69.213277
707.862483	-70.469044
708.029661	-83.254180
708.196918	-71.762109
708.364254	-69.809626
708.531670	-77.343141
708.699164	-71.591685
708.866738	-67.059023
709.034391	-68.968361
709.202123	-76.202920
709.369935	-72.555859
709.537826	-72.544722
709.705796	-76.492366
709.873847	-72.401250
710.041976	-73.147565
710.210186	-76.041925
710.378475	-69.712007
710.546844	-68.885291
710.715292	-73.187114
710.883821	-70.158286
711.052429	-66.866726
711.221118	-68.388098
711.389887	-73.527374
711.558735	-72.976543
711.727664	-74.263821
711.896673	-83.661626
712.065763	-76.953229
712.234932	-78.255973
712.404183	-76.766001
712.573513	-69.377279
712.742924	-68.207610
712.912416	-69.861839
713.081988	-67.770094
713.251641	-66.203860
713.421375	-68.162864
713.591190	-70.789375
713.761085	-68.929411
713.931061	-70.276390
714.101119	-80.361222
714.271257	-77.740445
714.441476	-78.122806
714.611777	-79.324147
714.782159	-69.940291
714.952622	-68.860091
715.123166	-71.060039
715.293792	-68.153524
715.464499	-66.579121
715.635288	-70.426168
715.806158	-85.457380
715.977110	-75.934709
716.148143	-77.300872
716.319259	-67.568716
716.490456	-64.026178
716.661735	-65.854849
716.833096	-69.333972
717.004538	-65.763414
717.176063	-66.203950
717.347670	-69.864764
717.519359	-65.694025
717.691130	-65.077984
717.862984	-72.178031
718.034920	-77.588559
718.206938	-74.303199
718.379039	-75.088450
718.551222	-65.072593
718.723488	-63.568029
718.895836	-67.033694
719.068267	-66.963819
719.240781	-65.260609
719.413377	-71.459007
719.586057	-71.623503
719.758819	-66.118863
719.931664	-69.625918
720.104593	-71.131228
720.277604	-66.790666
720.450699	-71.510126
720.623876	-75.071941
720.797137	-67.831545
720.970482	-72.569106
721.143910	-71.302626
721.317421	-65.715423
721.491016	-68.227983
721.664694	-66.897509
721.838456	-62.504831
722.012302	-63.692352
722.186231	-67.265377
722.360244	-64.254604
722.534342	-65.082718
722.708523	-75.795285
722.882788	-72.080176
723.057137	-73.512172
723.231570	-71.604654
723.406088	-63.803545
723.580689	-64.090610
723.755375	-67.339841
723.930146	-63.423941
724.105000	-62.972101
724.279940	-67.614135
724.454963	-65.982127
724.630072	-65.156776
724.805265	-74.848050
724.980543	-69.607170
725.155905	-66.715851
725.331353	-71.771861
725.506885	-66.423632
725.682503	-64.920392
725.858205	-70.492077
726.033993	-66.305688
726.209865	-64.116883
726.385823	-69.036846
726.561866	-67.015545
726.737995	-64.430668
726.914209	-68.672921
727.090508	-66.821629
727.266893	-64.284477
727.443364	-69.757151
727.619920	-68.430512
727.796562	-64.751259
727.973290	-68.646240
728.150103	-66.029234
728.327003	-63.565547
728.503988	-68.232597
728.681060	-65.972985
728.858218	-62.840721
729.035461	-66.273460
729.212791	-65.315616
729.390208	-62.671089
729.567710	-66.939437
729.745299	-67.238291
729.922975	-64.108043
730.100737	-70.235620
730.278586	-68.379331
730.456521	-65.021246
730.634543	-70.242927
730.812652	-64.452681
730.990848	-62.252351
731.169130	-66.512054
731.347500	-64.822110
731.525957	-63.258874
731.704500	-70.762787
731.883131	-67.312881
732.061850	-64.887906
732.240655	-71.455558
732.419548	-65.219295
732.598528	-64.205518
732.777596	-69.818491
732.956751	-63.965605
733.135994	-63.356165
733.315325	-69.448316
733.494744	-64.286201
733.674250	-63.834408
733.853844	-67.976187
734.033526	-63.070990
734.213296	-63.334512
734.393154	-69.547335
734.573101	-64.498061
734.753135	-64.821447
734.933258	-70.515083
735.113469	-65.573949
735.293769	-68.079438
735.474157	-70.820907
735.654633	-64.118670
735.835198	-66.053692
736.015852	-67.881675
736.196594	-64.695806
736.377426	-69.133818
736.558346	-66.320631
736.739355	-62.829453
736.920453	-65.503351
737.101640	-63.495727
737.282916	-61.313996
737.464282	-63.742952
737.645736	-62.924895
737.827280	-62.185579
738.008914	-68.670501
738.190637	-67.359659
738.372449	-65.224240
738.554351	-67.795481
738.736342	-62.826072
738.918424	-62.971152
739.100595	-65.946233
739.282855	-61.690316
739.465206	-61.929957
739.647647	-64.859017
739.830178	-62.190245
740.012799	-63.493336
740.195510	-70.800876
740.378311	-67.809467
740.561203	-74.427074
740.744185	-68.164801
740.927258	-63.102716
741.110421	-65.176888
741.293674	-63.597531
741.477018	-62.204089
741.660453	-68.066435
741.843979	-67.690911
742.027596	-66.090727
742.211303	-71.494188
742.395102	-63.939608
742.578991	-63.837628
742.762972	-66.066049
742.947044	-61.919158
743.131207	-63.365830
743.315461	-67.081963
743.499807	-63.764399
743.684244	-68.061018
743.868773	-70.111327
744.053394	-64.764055
744.238106	-66.909499
744.422910	-62.390288
744.607805	-61.230341
744.792793	-66.653386
744.977872	-66.437429
745.163044	-66.852217
745.348307	-74.329517
745.533663	-65.036886
745.719111	-67.106541
745.904651	-65.295539
746.090283	-60.961658
746.276008	-63.395731
746.461826	-66.059479
746.647735	-64.228384
746.833738	-72.866752
747.019833	-66.547630
747.206021	-65.089793
747.392302	-71.261424
747.578676	-63.479268
747.765143	-63.859906
747.951703	-66.470620
748.138356	-62.599062
748.325102	-65.794147
748.511941	-66.215648
748.698874	-61.948353
748.885900	-65.896148
749.073019	-69.758959
749.260232	-68.856956
749.447539	-75.187866
749.634939	-63.918466
749.822433	-64.793006
750.010021	-68.710067
750.197703	-63.931373
750.385479	-66.916446
750.573348	-68.921474
750.761312	-66.502099
750.949370	-82.819828
751.137523	-67.220933
751.325769	-66.199060
751.514110	-66.970506
751.702545	-62.162980
751.891075	-63.885081
752.079700	-66.885435
752.268419	-64.094525
752.457233	-70.742646
752.646142	-71.566760
752.835145	-67.882888
753.024244	-69.025654
753.213437	-63.135073
753.402726	-63.399103
753.592110	-66.330961
753.781589	-64.025464
753.971163	-65.607881
754.160833	-70.985320
754.350598	-71.459917
754.540459	-65.305302
754.730415	-61.352631
754.920467	-62.421472
755.110615	-62.491852
755.300858	-59.935327
755.491198	-61.660680
755.681633	-64.319029
755.872164	-64.230739
756.062792	-72.177088
756.253515	-68.748444
756.444335	-67.989571
756.635252	-73.954350
756.826264	-65.597766
757.017373	-68.030087
757.208579	-70.564725
757.399881	-69.695592
757.591280	-74.376481
757.782776	-64.437625
757.974368	-65.810689
758.166058	-64.505468
758.357844	-61.683929
758.549728	-65.190763
758.741708	-62.953826
758.933786	-62.219214
759.125961	-73.014242
759.318233	-70.263978
759.510603	-74.603195
759.703071	-66.553445
759.895635	-64.202656
760.088298	-71.748858
760.281058	-64.024488
760.473916	-65.562456
760.666872	-73.245220
760.859926	-66.785278
761.053078	-69.383650
761.246328	-60.950728
761.439676	-60.406057
761.633122	-62.586368
761.826667	-59.756681
762.020310	-62.201975
762.214052	-66.293377
762.407892	-65.374437
762.601831	-78.923478
762.795868	-64.194385
762.990004	-64.982261
763.184239	-62.574119
763.378573	-59.469066
763.573006	-61.326293
763.767538	-60.304188
763.962169	-61.142399
764.156900	-69.992426
764.351729	-67.051178
764.546658	-70.366698
764.741687	-62.852518
764.936815	-60.361273
765.132042	-59.945108
765.327370	-57.488369
765.522797	-58.617435
765.718324	-61.395041
765.913950	-60.891437
766.109677	-64.295627
766.305504	-62.387123
766.501431	-61.555064
766.697458	-60.898947
766.893586	-57.842402
767.089814	-59.283025
767.286142	-60.983084
767.482571	-61.168945
767.679100	-62.382022
767.875730	-58.539400
768.072461	-59.384128
768.269293	-60.017274
768.466225	-58.326549
768.663259	-60.283721
768.860393	-59.110084
769.057629	-61.041405
769.254966	-61.790391
769.452404	-57.879965
769.649944	-57.980742
769.847585	-56.046363
770.045328	-56.371808
770.243172	-59.143565
770.441118	-58.989034
770.639166	-62.796374
770.837315	-58.994508
771.035567	-57.272227
771.233920	-56.758184
771.432376	-55.245479
771.630934	-56.950673
771.829594	-57.345033
772.028356	-58.167133
772.227220	-59.806046
772.426188	-57.331215
772.625257	-57.592108
772.824430	-56.192152
773.023705	-56.175336
773.223083	-56.334291
773.422563	-55.197419
773.622147	-56.712071
773.821834	-58.106697
774.021624	-59.091463
774.221517	-57.912756
774.421513	-55.613920
774.621613	-55.448442
774.821816	-54.636041
775.022122	-54.229231
775.222532	-54.719390
775.423046	-55.706064
775.623664	-58.025816
775.824385	-57.952714
776.025211	-56.296957
776.226140	-55.505178
776.427173	-54.817954
776.628311	-54.570333
776.829553	-54.265782
777.030899	-54.424316
777.232350	-55.542946
777.433905	-56.093843
777.635564	-56.491330
777.837328	-56.137887
778.039197	-55.110541
778.241171	-54.361752
778.443250	-53.457125
778.645433	-54.022797
778.847722	-55.282121
779.050116	-55.974478
779.252615	-56.369554
779.455219	-54.597877
779.657929	-53.792832
779.860744	-52.799684
780.063665	-52.796615
780.266691	-54.266797
780.469823	-54.842895
780.673061	-55.225606
780.876405	-54.062744
781.079855	-54.116602
781.283410	-54.298210
781.487072	-53.456688
781.690840	-53.103234
781.894715	-52.700098
782.098695	-53.641101
782.302783	-54.192119
782.506976	-54.661300
782.711277	-55.584114
782.915684	-54.814113
783.120198	-53.742865
783.324818	-52.279222
783.529546	-52.608185
783.734381	-53.781751
783.939322	-54.014329
784.144372	-53.691451
784.349528	-52.950071
784.554792	-53.190607
784.760163	-52.951889
784.965642	-52.478867
785.171228	-52.837369
785.376922	-53.457882
785.582724	-54.120584
785.788634	-53.731200
785.994651	-53.292638
786.200777	-53.240169
786.407011	-52.363721
786.613353	-52.012755
786.819804	-51.939712
787.026363	-52.766312
787.233030	-54.090346
787.439806	-54.270998
787.646691	-54.684078
787.853684	-53.110439
788.060786	-52.116776
788.267997	-51.384333
788.475317	-51.640209
788.682746	-52.947195
788.890285	-52.742811
789.097932	-53.258037
789.305689	-53.436122
789.513555	-54.310264
789.721531	-53.752769
789.929617	-52.409656
790.137812	-52.046100
790.346117	-51.120824
790.554531	-51.507512
790.763056	-52.027871
790.971691	-54.023987
791.180436	-54.849460
791.389291	-52.821210
791.598256	-51.691504
791.807332	-51.054687
792.016518	-51.725030
792.225815	-51.718326
792.435222	-52.475722
792.644740	-53.762805
792.854369	-53.425710
793.064109	-52.325594
793.273960	-51.203884
793.483922	-51.558123
793.693995	-51.377567
793.904180	-51.497613
794.114475	-52.320179
794.324882	-53.952295
794.535401	-54.702965
794.746031	-52.948315
794.956774	-52.335936
795.167627	-51.862870
795.378593	-51.346344
795.589671	-50.678939
795.800861	-50.652041
796.012162	-51.661897
796.223577	-52.059697
796.435103	-52.728695
796.646742	-53.059593
796.858493	-52.859846
797.070357	-51.752888
797.282334	-50.935672
797.494423	-51.621151
797.706626	-51.649270
797.918941	-52.039898
798.131369	-51.538529
798.343911	-52.064656
798.556566	-51.419555
798.769334	-51.004912
798.982215	-51.397505
799.195210	-51.899262
799.408319	-52.401957
799.621541	-51.436117
799.834877	-51.982945
800.048327	-51.570023
800.261890	-51.533697
800.475568	-50.975868
800.689360	-51.699896
800.903266	-51.914663
801.117287	-51.437360
801.331422	-51.713262
801.545671	-52.018590
801.760036	-52.029302
801.974514	-50.344683
802.189108	-50.474956
802.403816	-50.507415
802.618640	-50.914223
802.833578	-50.087243
803.048632	-50.240965
803.263800	-50.800203
803.479085	-50.812927
803.694484	-51.311746
803.909999	-51.473576
804.125630	-51.922016
804.341376	-50.404875
804.557239	-50.414301
804.773217	-50.335502
804.989311	-50.564070
805.205521	-49.762744
805.421847	-49.887836
805.638290	-51.115875
805.854849	-51.646297
806.071524	-51.585636
806.288316	-50.648549
806.505225	-50.213434
806.722250	-49.103707
806.939393	-49.107083
807.156652	-49.672021
807.374028	-50.320348
807.591521	-50.050039
807.809132	-49.697044
808.026859	-50.409161
808.244705	-50.478505
808.462667	-50.494742
808.680748	-49.535878
808.898946	-49.329916
809.117261	-48.802476
809.335695	-49.302012
809.554246	-49.900181
809.772916	-49.875939
809.991704	-49.490461
810.210610	-49.247295
810.429634	-49.791026
810.648777	-49.048023
810.868039	-49.313388
811.087419	-49.253792
811.306918	-49.747195
811.526535	-48.309999
811.746272	-48.259976
811.966127	-48.537984
812.186102	-49.062774
812.406196	-48.739379
812.626409	-48.946911
812.846742	-50.080349
813.067194	-49.237821
813.287766	-48.394178
813.508457	-47.581990
813.729269	-48.672800
813.950200	-48.197677
814.171251	-48.845651
814.392422	-48.483290
814.613714	-49.196927
814.835126	-48.286655
815.056658	-48.741141
815.278311	-48.632209
815.500084	-48.199014
815.721978	-47.082777
815.943993	-46.902919
816.166128	-47.886715
816.388385	-48.486825
816.610762	-49.207749
816.833261	-48.154107
817.055881	-47.890367
817.278623	-47.170092
817.501486	-48.108344
817.724471	-47.548567
817.947577	-47.660153
818.170805	-47.142928
818.394155	-48.214742
818.617627	-48.010766
818.841221	-48.360252
819.064937	-48.007830
819.288775	-47.842740
819.512736	-46.717327
819.736819	-46.610892
819.961025	-47.244780
820.185354	-47.321986
820.409805	-47.061001
820.634379	-47.145390
820.859076	-47.990360
821.083897	-47.170980
821.308840	-46.711640
821.533907	-46.583120
821.759097	-47.508764
821.984411	-47.065863
822.209848	-47.407287
822.435409	-47.368287
822.661093	-47.748358
822.886902	-47.215721
823.112834	-47.589324
823.338891	-47.130080
823.565072	-46.659602
823.791377	-46.139147
824.017807	-46.466877
824.244361	-46.671737
824.471039	-46.943733
824.697843	-47.325542
824.924771	-47.260066
825.151824	-46.805628
825.379002	-46.337429
825.606306	-46.314496
825.833734	-45.971340
826.061288	-46.474276
826.288967	-47.001770
826.516772	-47.768130
826.744703	-47.274930
826.972759	-47.663503
827.200941	-46.934146
827.429249	-46.308634
827.657683	-45.528904
827.886243	-46.298172
828.114930	-46.264195
828.343743	-46.565518
828.572682	-46.627299
828.801748	-47.556995
829.030941	-46.954409
829.260260	-46.831642
829.489706	-46.541422
829.719280	-46.549320
829.948980	-45.911481
830.178808	-46.220997
830.408763	-46.416551
830.638845	-46.391501
830.869055	-46.617071
831.099393	-47.469872
831.329858	-47.431583
831.560451	-46.373687
831.791173	-45.866499
832.022022	-45.790405
832.252999	-46.122466
832.484105	-46.148373
832.715339	-46.603070
832.946702	-46.264715
833.178193	-46.860605
833.409813	-47.128016
833.641561	-47.195193
833.873439	-45.933684
834.105445	-46.044196
834.337581	-45.922508
834.569846	-46.650810
834.802241	-46.427044
835.034764	-47.034724
835.267418	-45.894942
835.500201	-45.895673
835.733114	-45.677971
835.966157	-46.430855
836.199329	-45.687701
836.432632	-46.733322
836.666065	-47.064172
836.899629	-47.544246
837.133323	-46.136944
837.367147	-46.184124
837.601102	-45.455543
837.835188	-45.936294
838.069405	-45.677128
838.303752	-46.338825
838.538231	-45.810589
838.772841	-46.962404
839.007582	-46.683654
839.242455	-46.084543
839.477459	-44.982329
839.712595	-45.927187
839.947863	-46.214870
840.183263	-46.882756
840.418794	-46.078975
840.654458	-45.766999
840.890254	-45.009032
841.126182	-45.864218
841.362242	-45.893259
841.598435	-45.467395
841.834761	-44.746621
842.071220	-45.775492
842.307811	-46.495690
842.544536	-46.750144
842.781393	-45.900599
843.018384	-44.931407
843.255508	-44.683856
843.492765	-45.240128
843.730156	-45.763403
843.967681	-45.105828
844.205339	-45.389908
844.443132	-45.455567
844.681058	-45.628213
844.919118	-44.606455
845.157313	-45.247613
845.395642	-44.684693
845.634105	-45.359784
845.872703	-44.899018
846.111436	-45.452882
846.350303	-43.879754
846.589306	-44.646545
846.828443	-44.268354
847.067716	-44.932622
847.307124	-43.950399
847.546667	-45.310491
847.786345	-44.601532
848.026160	-44.644194
848.266110	-43.381229
848.506195	-43.932034
848.746417	-43.789162
848.986775	-44.899375
849.227269	-44.143632
849.467899	-43.866517
849.708666	-43.581914
849.949569	-43.789763
850.190609	-43.390496
850.431785	-43.302488
850.673099	-43.557256
850.914549	-43.175734
851.156137	-43.663305
851.397861	-43.640220
851.639723	-43.678223
851.881723	-42.349390
852.123860	-43.141470
852.366135	-42.792423
852.608547	-43.269678
852.851098	-42.547251
853.093786	-43.203730
853.336613	-42.033478
853.579578	-42.381587
853.822681	-42.311420
854.065923	-42.870302
854.309304	-42.251407
854.552823	-42.232444
854.796481	-41.997393
855.040278	-41.818977
855.284215	-41.941740
855.528290	-41.619868
855.772505	-41.935554
856.016859	-41.668897
856.261353	-41.914989
856.505987	-41.210138
856.750760	-41.702457
856.995673	-41.073822
857.240727	-41.325239
857.485920	-41.243815
857.731254	-41.605300
857.976729	-40.754183
858.222343	-40.793721
858.468099	-40.828502
858.713995	-40.583199
858.960032	-40.631097
859.206211	-40.826531
859.452530	-40.662155
859.698991	-39.878931
859.945593	-40.493549
860.192336	-40.465404
860.439222	-40.398718
860.686248	-39.675326
860.933417	-40.003043
861.180728	-39.930964
861.428181	-40.223897
861.675776	-39.906098
861.923514	-39.563549
862.171394	-39.623318
862.419417	-39.470057
862.667582	-39.515604
862.915890	-39.111977
863.164342	-39.404412
863.412936	-39.153707
863.661674	-39.564292
863.910555	-39.053219
864.159579	-38.808053
864.408747	-38.835705
864.658059	-38.966929
864.907515	-38.658190
865.157114	-38.557896
865.406858	-39.147974
865.656746	-38.490893
865.906778	-38.298620
866.156955	-38.257799
866.407277	-38.563943
866.657743	-38.162610
866.908354	-38.289382
867.159110	-38.078822
867.410011	-37.745682
867.661057	-37.986847
867.912249	-37.932706
868.163586	-37.843936
868.415069	-37.564478
868.666697	-38.160351
868.918472	-37.903628
869.170392	-37.444259
869.422458	-36.856984
869.674671	-37.126913
869.927030	-37.805106
870.179536	-37.662426
870.432188	-37.350799
870.684987	-36.937141
870.937933	-37.109269
871.191026	-36.831133
871.444266	-37.051042
871.697653	-36.878994
871.951188	-37.013180
872.204870	-37.405395
872.458700	-36.845750
872.712677	-36.228976
872.966803	-36.200863
873.221076	-37.011892
873.475498	-36.715641
873.730068	-36.613377
873.984787	-36.441868
874.239654	-36.124506
874.494669	-36.200586
874.749834	-36.295667
875.005147	-36.258525
875.260610	-36.096949
875.516222	-36.627472
875.771983	-36.136148
876.027894	-35.726790
876.283954	-35.919628
876.540164	-35.971232
876.796524	-35.775069
877.053033	-35.672934
877.309693	-36.228516
877.566503	-35.931204
877.823464	-35.411689
878.080575	-35.258746
878.337837	-35.772922
878.595249	-36.047639
878.852813	-35.470830
879.110528	-35.445867
879.368393	-35.242887
879.626410	-35.309388
879.884579	-35.498310
880.142899	-35.353134
880.401371	-35.043598
880.659994	-35.230475
880.918770	-35.634706
881.177698	-35.020147
881.436778	-35.065600
881.696010	-35.242877
881.955395	-34.906497
882.214933	-35.045112
882.474623	-35.241560
882.734467	-34.994813
882.994463	-34.635301
883.254613	-34.945708
883.514916	-34.934593
883.775372	-34.874303
884.035982	-35.006558
884.296746	-34.567463
884.557664	-34.612218
884.818735	-34.811470
885.079961	-34.783982
885.341341	-34.515010
885.602876	-34.443488
885.864565	-34.748469
886.126409	-34.753648
886.388407	-34.657468
886.650561	-34.289254
886.912870	-34.244394
887.175334	-34.469852
887.437953	-34.566492
887.700728	-34.691881
887.963658	-34.310004
888.226745	-34.208661
888.489987	-34.228401
888.753385	-34.132610
889.016940	-34.481587
889.280651	-34.525700
889.544518	-34.103172
889.808543	-34.019951
890.072723	-34.331197
890.337061	-34.022250
890.601556	-33.891670
890.866208	-34.469934
891.131017	-34.126350
891.395984	-33.914241
891.661109	-34.221282
891.926391	-33.775812
892.191831	-33.665940
892.457429	-34.313058
892.723186	-34.355430
892.989100	-33.778115
893.255173	-33.765094
893.521405	-33.830709
893.787796	-33.717625
894.054345	-34.114827
894.321053	-34.159739
894.587921	-33.783993
894.854948	-33.748689
895.122134	-33.748679
895.389480	-33.678996
895.656986	-33.750579
895.924651	-34.104193
896.192477	-33.973570
896.460463	-33.503309
896.728609	-33.743716
896.996915	-33.795357
897.265382	-33.500391
897.534010	-33.951809
897.802799	-34.050912
898.071749	-33.412203
898.340860	-33.538396
898.610132	-33.814358
898.879566	-33.391617
899.149162	-33.682423
899.418919	-34.189477
899.688838	-33.393252
899.958919	-33.174422
900.229162	-33.711641
900.499568	-33.648360
900.770136	-33.691851
901.040867	-33.659938
901.311761	-33.266495
901.582817	-33.487124
901.854037	-33.710297
902.125420	-33.435102
902.396966	-33.490676
902.668676	-33.724051
902.940550	-33.510475
903.212587	-33.223747
903.484788	-33.397101
903.757153	-33.647318
904.029683	-33.600573
904.302377	-33.571990
904.575236	-33.437981
904.848259	-33.255311
905.121447	-33.491832
905.394800	-33.633454
905.668319	-33.398346
905.942002	-33.650881
906.215852	-33.760704
906.489866	-33.063037
906.764047	-33.178261
907.038393	-33.929762
907.312906	-33.618713
907.587584	-33.378971
907.862429	-33.542121
908.137441	-33.325869
908.412619	-33.490794
908.687964	-33.776467
908.963476	-33.602638
909.239155	-33.552544
909.515002	-33.422738
909.791015	-33.421793
910.067197	-33.743833
910.343546	-33.697597
910.620063	-33.543465
910.896748	-33.391479
911.173601	-33.257021
911.450623	-33.675456
911.727813	-33.745285
912.005171	-33.274193
912.282699	-33.560762
912.560395	-33.844682
912.838261	-33.310913
913.116296	-33.219824
913.394500	-33.797111
913.672874	-34.000917
913.951418	-33.382581
914.230131	-33.099599
914.509015	-33.650279
914.788068	-33.783975
915.067292	-33.414830
915.346687	-33.559367
915.626252	-33.609448
915.905988	-33.404222
916.185895	-33.381726
916.465973	-33.502247
916.746223	-33.831919
917.026644	-33.599888
917.307236	-33.066818
917.588000	-33.298148
917.868937	-33.579401
918.150045	-33.556996
918.431325	-33.497985
918.712778	-33.108228
918.994404	-33.236341
919.276202	-33.631246
919.558173	-33.449088
919.840317	-33.578298
920.122634	-33.401708
920.405125	-32.895041
920.687789	-33.206139
920.970627	-33.331142
921.253639	-33.199774
921.536824	-33.467707
921.820184	-33.170354
922.103718	-32.977744
922.387427	-33.136208
922.671310	-32.949197
922.955368	-33.189580
923.239601	-33.278214
923.524009	-32.681264
923.808592	-32.842623
924.093351	-33.356980
924.378285	-33.024522
924.663396	-32.842369
924.948682	-33.152011
925.234144	-32.866168
925.519782	-32.620531
925.805597	-33.363235
926.091589	-33.223655
926.377757	-32.410129
926.664102	-32.917989
926.950624	-33.035920
927.237323	-32.607342
927.524200	-33.253205
927.811255	-32.829233
928.098487	-32.189266
928.385897	-32.919994
928.673485	-32.940527
928.961251	-32.629507
929.249196	-32.726794
929.537319	-32.321389
929.825621	-32.604261
930.114102	-32.923380
930.402762	-32.400628
930.691601	-32.597521
930.980620	-32.658448
931.269818	-32.243893
931.559196	-32.548621
931.848753	-32.633689
932.138491	-32.281964
932.428409	-32.497234
932.718508	-32.488706
933.008787	-31.964161
933.299246	-32.286138
933.589887	-32.727572
933.880709	-31.915395
934.171712	-31.893091
934.462896	-32.365982
934.754262	-31.807006
935.045810	-32.094752
935.337539	-32.334579
935.629451	-31.439123
935.921545	-31.759775
936.213822	-32.343691
936.506281	-31.886899
936.798922	-31.711698
937.091747	-31.699764
937.384755	-31.897892
937.677946	-31.901078
937.971321	-31.760343
938.264879	-32.040493
938.558621	-31.570212
938.852547	-31.396144
939.146657	-32.119972
939.440952	-31.828780
939.735431	-31.338200
940.030095	-31.518728
940.324943	-31.624414
940.619977	-31.486801
940.915196	-31.359491
941.210600	-31.383715
941.506189	-31.157191
941.801965	-31.146988
942.097926	-31.392607
942.394074	-31.018556
942.690407	-30.891371
942.986927	-31.057577
943.283634	-31.015377
943.580527	-30.932765
943.877608	-30.696570
944.174875	-30.937424
944.472330	-30.895010
944.769972	-30.417917
945.067802	-30.823767
945.365820	-30.867289
945.664026	-30.481889
945.962420	-30.493705
946.261002	-30.364379
946.559773	-30.637660
946.858733	-30.611171
947.157881	-30.127822
947.457219	-30.122904
947.756746	-30.231260
948.056462	-30.497877
948.356368	-30.078092
948.656464	-29.590459
948.956749	-30.218035
949.257225	-30.237897
949.557891	-29.685437
949.858748	-29.785476
950.159796	-29.879292
950.461034	-29.869029
950.762463	-29.788304
951.064084	-29.629109
951.365896	-29.705181
951.667900	-29.896084
951.970095	-29.504673
952.272483	-29.398005
952.575063	-30.173528
952.877835	-29.487491
953.180799	-28.998388
953.483956	-29.989057
953.787307	-29.549909
954.090850	-29.191885
954.394586	-29.577343
954.698516	-29.169480
955.002640	-29.392078
955.306957	-29.392896
955.611469	-29.036261
955.916174	-29.279088
956.221074	-29.032434
956.526169	-28.999689
956.831458	-29.201139
957.136942	-28.884765
957.442622	-28.869021
957.748496	-29.025317
958.054567	-28.802529
958.360833	-28.835016
958.667294	-29.011030
958.973952	-28.531831
959.280806	-28.737547
959.587857	-29.067461
959.895104	-28.364204
960.202548	-28.753403
960.510189	-28.869682
960.818027	-28.266605
961.126062	-28.785697
961.434295	-28.608898
961.742726	-28.299439
962.051355	-28.545626
962.360182	-28.422620
962.669207	-28.496051
962.978431	-28.199631
963.287854	-28.083360
963.597475	-28.425783
963.907296	-28.205377
964.217315	-27.881476
964.527535	-28.007923
964.837954	-28.189334
965.148573	-27.820498
965.459392	-27.811469
965.770411	-27.925090
966.081630	-27.601470
966.393051	-27.726629
966.704672	-27.779093
967.016494	-27.626284
967.328517	-27.370174
967.640742	-27.483311
967.953169	-27.846528
968.265797	-27.211480
968.578627	-27.245998
968.891660	-27.579448
969.204895	-27.210583
969.518332	-27.281070
969.831972	-27.241194
970.145816	-27.193302
970.459862	-27.103001
970.774112	-27.105555
971.088565	-27.229724
971.403223	-26.894315
971.718084	-26.967491
972.033149	-27.033155
972.348419	-26.925475
972.663893	-26.883565
972.979572	-26.748679
973.295456	-26.831133
973.611546	-26.808399
973.927840	-26.738819
974.244340	-26.519120
974.561046	-26.646156
974.877958	-26.779870
975.195076	-26.394556
975.512401	-26.428467
975.829932	-26.506728
976.147670	-26.597202
976.465615	-26.231474
976.783767	-26.186206
977.102126	-26.688378
977.420693	-26.039114
977.739468	-26.193606
978.058451	-26.539893
978.377642	-25.896965
978.697041	-26.132860
979.016649	-26.361811
979.336466	-26.005573
979.656492	-25.948190
979.976727	-26.124722
980.297171	-26.043333
980.617825	-25.992142
980.938689	-25.859707
981.259763	-25.922030
981.581048	-26.098485
981.902542	-25.561431
982.224248	-25.933778
982.546164	-25.930850
982.868291	-25.421572
983.190630	-26.004746
983.513180	-25.610882
983.835942	-25.440795
984.158916	-25.768128
984.482101	-25.467983
984.805500	-25.509260
985.129110	-25.446170
985.452934	-25.322636
985.776970	-25.501346
986.101220	-25.317497
986.425683	-25.047545
986.750359	-25.441385
987.075250	-25.149453
987.400354	-24.993144
987.725673	-25.335739
988.051206	-24.816524
988.376954	-25.096418
988.702916	-25.128088
989.029094	-24.709608
989.355487	-24.934592
989.682095	-24.951814
990.008919	-24.814959
990.335959	-24.610131
990.663216	-24.887197
990.990688	-24.721773
991.318377	-24.519175
991.646283	-24.774980
991.974406	-24.494632
992.302746	-24.498675
992.631304	-24.667590
992.960079	-24.426569
993.289072	-24.269096
993.618283	-24.606649
993.947713	-24.339779
994.277361	-24.183012
994.607227	-24.421700
994.937313	-24.171390
995.267618	-24.333195
995.598142	-24.132063
995.928886	-24.078807
996.259849	-24.237192
996.591033	-24.087405
996.922437	-24.013537
997.254061	-23.992419
997.585906	-24.139903
997.917972	-23.870122
998.250260	-23.977199
998.582768	-23.970785
998.915498	-23.821862
999.248450	-23.953449
999.581624	-23.856791
999.915020	-23.780774
1000.248639	-23.797086
1000.582480	-23.933442
1000.916545	-23.639870
1001.250832	-23.760245
1001.585343	-23.789358
1001.920077	-23.692942
1002.255035	-23.698504
1002.590218	-23.566333
1002.925624	-23.859650
1003.261255	-23.503916
1003.597111	-23.598257
1003.933192	-23.690454
1004.269497	-23.423338
1004.606029	-23.699529
1004.942785	-23.533998
1005.279768	-23.341286
1005.616977	-23.714879
1005.954412	-23.451604
1006.292074	-23.182526
1006.629962	-23.788497
1006.968077	-23.234566
1007.306420	-23.349045
1007.644990	-23.568823
1007.983787	-23.050825
1008.322813	-23.550934
1008.662067	-23.263366
1009.001549	-23.091422
1009.341259	-23.420061
1009.681199	-23.201719
1010.021367	-23.054481
1010.361765	-23.270544
1010.702392	-23.022462
1011.043250	-23.097914
1011.384337	-23.130804
1011.725654	-22.833085
1012.067202	-23.165430
1012.408980	-22.908249
1012.750989	-22.851811
1013.093230	-22.871095
1013.435702	-22.921625
1013.778405	-22.761202
1014.121341	-22.699080
1014.464508	-22.867436
1014.807908	-22.615191
1015.151540	-22.735914
1015.495405	-22.615084
1015.839503	-22.619058
1016.183835	-22.642067
1016.528400	-22.542035
1016.873198	-22.462483
1017.218231	-22.628120
1017.563498	-22.464079
1017.908999	-22.407885
1018.254735	-22.531048
1018.600707	-22.383931
1018.946913	-22.473040
1019.293354	-22.279252
1019.640032	-22.474926
1019.986945	-22.325331
1020.334094	-22.327117
1020.681480	-22.330236
1021.029102	-22.293349
1021.376961	-22.345759
1021.725058	-22.188914
1022.073391	-22.277256
1022.421962	-22.257280
1022.770772	-22.228714
1023.119819	-22.140319
1023.469104	-22.266463
1023.818628	-22.112888
1024.168391	-22.210066
1024.518393	-22.055052
1024.868634	-22.180713
1025.219115	-22.155899
1025.569836	-21.976757
1025.920796	-22.199370
1026.271997	-22.007184
1026.623438	-22.090750
1026.975121	-22.027973
1027.327044	-22.038188
1027.679208	-22.071811
1028.031614	-21.998384
1028.384262	-21.920845
1028.737152	-22.159152
1029.090284	-21.864702
1029.443659	-21.993130
1029.797276	-22.031939
1030.151137	-21.877943
1030.505240	-22.039995
1030.859587	-21.818871
1031.214178	-22.013697
1031.569013	-21.891258
1031.924093	-21.842023
1032.279417	-21.909492
1032.634985	-21.903546
1032.990799	-21.750188
1033.346858	-21.885144
1033.703162	-21.773752
1034.059712	-21.834870
1034.416509	-21.706107
1034.773551	-21.757254
1035.130841	-21.778552
1035.488377	-21.612093
1035.846160	-21.755876
1036.204190	-21.620009
1036.562468	-21.724202
1036.920994	-21.528907
1037.279768	-21.654361
1037.638790	-21.617975
1037.998061	-21.514877
1038.357581	-21.565766
1038.717350	-21.605057
1039.077368	-21.433206
1039.437636	-21.577746
1039.798154	-21.430606
1040.158922	-21.540815
1040.519940	-21.448853
1040.881209	-21.372017
1041.242729	-21.592259
1041.604501	-21.303716
1041.966524	-21.440940
1042.328798	-21.434779
1042.691325	-21.377703
1043.054103	-21.372906
1043.417135	-21.385549
1043.780419	-21.344284
1044.143956	-21.413310
1044.507746	-21.244475
1044.871791	-21.469108
1045.236088	-21.257770
1045.600641	-21.333200
1045.965447	-21.354171
1046.330508	-21.309088
1046.695824	-21.324147
1047.061395	-21.285100
1047.427222	-21.347406
1047.793304	-21.314414
1048.159642	-21.249287
1048.526237	-21.354792
1048.893088	-21.333392
1049.260196	-21.215686
1049.627561	-21.397402
1049.995183	-21.237740
1050.363063	-21.324979
1050.731201	-21.247850
1051.099597	-21.344339
1051.468251	-21.246326
1051.837164	-21.264270
1052.206336	-21.256901
1052.575767	-21.285364
1052.945458	-21.166571
1053.315409	-21.267991
1053.685619	-21.183400
1054.056090	-21.188655
1054.426821	-21.130717
1054.797814	-21.228535
1055.169067	-21.070458
1055.540582	-21.111877
1055.912359	-21.134576
1056.284398	-21.031245
1056.656698	-21.040186
1057.029262	-21.038790
1057.402088	-21.021330
1057.775177	-20.945928
1058.148530	-20.971472
1058.522146	-20.947627
1058.896027	-20.882928
1059.270171	-20.869682
1059.644580	-20.921895
1060.019254	-20.766902
1060.394193	-20.852171
1060.769397	-20.769302
1061.144867	-20.799949
1061.520602	-20.673557
1061.896604	-20.787858
1062.272872	-20.680395
1062.649407	-20.649480
1063.026210	-20.670157
1063.403279	-20.666451
1063.780616	-20.565770
1064.158221	-20.670359
1064.536094	-20.550533
1064.914235	-20.592087
1065.292645	-20.519962
1065.671325	-20.627690
1066.050273	-20.491181
1066.429491	-20.547097
1066.808979	-20.528193
1067.188738	-20.521548
1067.568766	-20.481505
1067.949066	-20.562401
1068.329636	-20.457510
1068.710478	-20.508618
1069.091592	-20.484121
1069.472977	-20.513966
1069.854635	-20.431590
1070.236565	-20.528169
1070.618768	-20.457409
1071.001243	-20.449541
1071.383993	-20.456743
1071.767016	-20.472327
1072.150313	-20.407793
1072.533884	-20.452258
1072.917730	-20.407596
1073.301850	-20.403677
1073.686246	-20.381009
1074.070917	-20.422271
1074.455864	-20.314052
1074.841087	-20.355245
1075.226586	-20.341471
1075.612362	-20.278979
1075.998415	-20.282555
1076.384745	-20.288304
1076.771353	-20.185584
1077.158238	-20.218258
1077.545401	-20.151045
1077.932843	-20.164780
1078.320564	-20.067769
1078.708564	-20.104452
1079.096842	-20.008788
1079.485401	-20.005514
1079.874240	-19.982894
1080.263358	-19.939990
1080.652757	-19.885343
1081.042438	-19.902159
1081.432399	-19.812120
1081.822641	-19.825678
1082.213166	-19.776060
1082.603972	-19.762280
1082.995061	-19.672110
1083.386433	-19.728835
1083.778087	-19.626011
1084.170025	-19.626689
1084.562246	-19.611678
1084.954751	-19.551273
1085.347541	-19.527010
1085.740615	-19.550192
1086.133973	-19.467013
1086.527617	-19.493083
1086.921546	-19.436085
1087.315761	-19.463812
1087.710262	-19.385239
1088.105050	-19.457900
1088.500124	-19.364598
1088.895485	-19.395400
1089.291134	-19.364011
1089.687070	-19.374398
1090.083294	-19.319508
1090.479806	-19.365439
1090.876607	-19.283800
1091.273696	-19.312056
1091.671075	-19.288924
1092.068744	-19.279647
1092.466702	-19.226930
1092.864950	-19.274383
1093.263489	-19.198180
1093.662319	-19.228543
1094.061440	-19.200556
1094.460852	-19.184153
1094.860555	-19.160401
1095.260551	-19.178859
1095.660840	-19.128618
1096.061421	-19.127827
1096.462295	-19.114705
1096.863462	-19.051849
1097.264923	-19.080504
1097.666678	-19.015254
1098.068727	-18.986619
1098.471071	-18.949751
1098.873710	-18.923774
1099.276644	-18.858807
1099.679874	-18.847446
1100.083400	-18.780524
1100.487222	-18.752143
1100.891340	-18.700708
1101.295756	-18.698008
1101.700468	-18.607503
1102.105478	-18.648378
1102.510787	-18.545158
1102.916393	-18.572022
1103.322298	-18.532630
1103.728502	-18.513170
1104.135005	-18.482782
1104.541807	-18.477098
1104.948909	-18.441680
1105.356312	-18.418425
1105.764015	-18.419067
1106.172019	-18.348590
1106.580324	-18.345156
1106.988931	-18.314326
1107.397840	-18.264728
1107.807051	-18.249939
1108.216564	-18.201330
1108.626380	-18.156946
1109.036500	-18.163587
1109.446923	-18.095780
1109.857649	-18.098967
1110.268680	-18.056230
1110.680016	-18.071553
1111.091657	-18.025890
1111.503602	-18.072993
1111.915854	-18.014513
1112.328411	-18.057782
1112.741275	-18.057429
1113.154445	-18.060105
1113.567922	-18.077103
1113.981706	-18.062380
1114.395798	-18.076972
1114.810198	-18.082792
1115.224906	-18.067057
1115.639923	-18.034707
1116.055249	-18.037374
1116.470884	-17.979980
1116.886829	-17.971832
1117.303084	-17.903129
1117.719650	-17.865896
1118.136526	-17.799036
1118.553713	-17.782723
1118.971212	-17.678476
1119.389022	-17.671129
1119.807145	-17.585078
1120.225580	-17.563123
1120.644328	-17.530342
1121.063389	-17.466693
1121.482763	-17.458462
1121.902452	-17.427554
1122.322454	-17.426400
1122.742771	-17.393042
1123.163404	-17.405203
1123.584351	-17.367373
1124.005614	-17.406889
1124.427193	-17.372247
1124.849089	-17.371557
1125.271301	-17.369358
1125.693830	-17.350494
1126.116677	-17.350521
1126.539842	-17.309940
1126.963324	-17.287776
1127.387126	-17.258914
1127.811246	-17.233687
1128.235685	-17.172216
1128.660444	-17.142293
1129.085522	-17.082573
1129.510922	-17.053070
1129.936641	-17.009837
1130.362682	-16.937486
1130.789044	-16.927615
1131.215728	-16.871954
1131.642734	-16.864308
1132.070063	-16.806033
1132.497714	-16.816844
1132.925689	-16.774292
1133.353987	-16.818327
1133.782610	-16.750156
1134.211556	-16.815162
1134.640827	-16.775435
1135.070424	-16.833998
1135.500345	-16.811061
1135.930593	-16.843679
1136.361166	-16.847244
1136.792067	-16.876846
1137.223294	-16.873443
1137.654848	-16.870388
1138.086730	-16.882889
1138.518940	-16.860938
1138.951479	-16.871017
1139.384346	-16.806897
1139.817543	-16.805051
1140.251069	-16.763633
1140.684925	-16.716013
1141.119111	-16.664907
1141.553628	-16.602328
1141.988475	-16.566002
1142.423655	-16.491306
1142.859166	-16.433786
1143.295009	-16.364770
1143.731185	-16.322645
1144.167694	-16.259333
1144.604536	-16.198333
1145.041711	-16.156339
1145.479221	-16.101802
1145.917065	-16.093228
1146.355245	-16.004406
1146.793759	-16.027608
1147.232609	-15.961096
1147.671795	-15.983134
1148.111317	-15.925596
1148.551177	-15.937599
1148.991373	-15.931163
1149.431907	-15.923433
1149.872779	-15.919229
1150.313989	-15.908343
1150.755538	-15.940228
1151.197426	-15.912916
1151.639653	-15.931832
1152.082220	-15.912601
1152.525128	-15.939757
1152.968376	-15.927408
1153.411966	-15.906579
1153.855897	-15.923968
1154.300169	-15.894660
1154.744784	-15.915710
1155.189742	-15.850629
1155.635042	-15.874642
1156.080687	-15.839116
1156.526674	-15.817994
1156.973007	-15.784336
1157.419683	-15.756839
1157.866705	-15.748903
1158.314072	-15.688794
1158.761786	-15.666564
1159.209845	-15.630602
1159.658251	-15.606957
1160.107004	-15.561585
1160.556104	-15.511805
1161.005553	-15.509342
1161.455349	-15.450360
1161.905494	-15.433814
1162.355989	-15.368732
1162.806832	-15.377455
1163.258026	-15.324607
1163.709570	-15.288884
1164.161464	-15.276115
1164.613710	-15.232639
1165.066307	-15.240701
1165.519256	-15.160901
1165.972558	-15.189444
1166.426212	-15.144067
1166.880219	-15.130547
1167.334580	-15.106552
1167.789295	-15.084333
1168.244364	-15.101629
1168.699788	-15.036435
1169.155567	-15.056865
1169.611702	-15.032524
1170.068193	-15.024332
1170.525041	-15.009455
1170.982245	-14.979730
1171.439807	-15.011819
1171.897726	-14.958009
1172.356004	-14.968054
1172.814640	-14.947202
1173.273635	-14.947066
1173.732989	-14.931866
1174.192703	-14.897794
1174.652778	-14.922764
1175.113213	-14.882667
1175.574009	-14.875982
1176.035167	-14.858910
1176.496687	-14.849737
1176.958569	-14.837550
1177.420814	-14.793134
1177.883422	-14.810607
1178.346394	-14.772290
1178.809730	-14.753196
1179.273430	-14.734190
1179.737496	-14.708443
1180.201927	-14.705749
1180.666723	-14.641630
1181.131886	-14.652724
1181.597416	-14.612247
1182.063312	-14.578197
1182.529576	-14.559373
1182.996209	-14.516988
1183.463209	-14.511931
1183.930579	-14.446039
1184.398317	-14.439870
1184.866426	-14.410086
1185.334904	-14.358938
1185.803754	-14.350228
1186.272974	-14.304119
1186.742566	-14.295184
1187.212529	-14.247438
1187.682865	-14.227913
1188.153574	-14.226600
1188.624656	-14.167067
1189.096112	-14.181337
1189.567942	-14.146403
1190.040147	-14.141895
1190.512726	-14.127663
1190.985681	-14.103596
1191.459012	-14.135230
1191.932720	-14.083287
1192.406804	-14.109020
1192.881265	-14.111698
1193.356104	-14.086587
1193.831322	-14.122232
1194.306918	-14.087580
1194.782893	-14.133458
1195.259248	-14.100472
1195.735982	-14.113915
1196.213097	-14.141482
1196.690593	-14.100969
1197.168471	-14.137573
1197.646730	-14.116786
1198.125371	-14.128094
1198.604395	-14.114587
1199.083803	-14.104013
1199.563594	-14.125320
1200.043769	-14.075559
1200.524329	-14.091566
1201.005273	-14.075755
1201.486604	-14.050696
1201.968320	-14.044372
1202.450422	-14.013584
1202.932912	-14.021518
1203.415789	-13.965998
1203.899054	-13.964982
1204.382707	-13.957403
1204.866748	-13.897798
1205.351179	-13.906926
1205.836000	-13.871497
1206.321211	-13.851134
1206.806812	-13.821013
1207.292805	-13.798133
1207.779189	-13.791795
1208.265965	-13.732599
1208.753134	-13.736875
1209.240696	-13.704862
1209.728651	-13.669871
1210.217000	-13.658303
1210.705744	-13.616695
1211.194883	-13.619996
1211.684417	-13.559800
1212.174347	-13.549284
1212.664673	-13.561677
1213.155396	-13.458418
1213.646516	-13.508551
1214.138034	-13.474634
1214.629951	-13.391602
1215.122266	-13.465929
1215.614980	-13.371502
1216.108095	-13.372128
1216.601609	-13.390839
1217.095524	-13.297809
1217.589841	-13.360494
1218.084559	-13.303160
1218.579679	-13.261773
1219.075202	-13.327073
1219.571128	-13.233763
1220.067458	-13.240262
1220.564191	-13.279438
1221.061330	-13.189709
1221.558874	-13.214755
1222.056823	-13.232044
1222.555178	-13.161307
1223.053940	-13.184495
1223.553109	-13.191624
1224.052686	-13.137034
1224.552671	-13.156444
1225.053065	-13.152707
1225.553867	-13.115464
1226.055079	-13.130486
1226.556702	-13.113106
1227.058735	-13.098572
1227.561179	-13.098171
1228.064035	-13.080793
1228.567303	-13.073670
1229.070983	-13.064715
1229.575077	-13.050463
1230.079585	-13.038875
1230.584506	-13.032057
1231.089842	-13.011294
1231.595594	-13.000664
1232.101761	-12.992625
1232.608345	-12.967848
1233.115345	-12.952960
1233.622762	-12.948846
1234.130597	-12.918073
1234.638851	-12.898899
1235.147523	-12.900140
1235.656615	-12.862304
1236.166126	-12.840661
1236.676058	-12.850167
1237.186411	-12.800007
1237.697185	-12.785175
1238.208381	-12.796025
1238.719999	-12.737703
1239.232040	-12.736533
1239.744505	-12.736171
1240.257394	-12.683353
1240.770708	-12.688054
1241.284446	-12.680760
1241.798610	-12.634749
1242.313201	-12.642967
1242.828218	-12.629547
1243.343662	-12.591300
1243.859534	-12.602986
1244.375834	-12.581216
1244.892563	-12.554747
1245.409721	-12.565004
1245.927309	-12.535760
1246.445327	-12.525007
1246.963777	-12.527999
1247.482657	-12.493468
1248.001970	-12.500059
1248.521716	-12.488889
1249.041894	-12.460356
1249.562506	-12.474376
1250.083553	-12.452728
1250.605034	-12.432309
1251.126950	-12.449394
1251.649302	-12.417427
1252.172091	-12.412021
1252.695316	-12.423479
1253.218979	-12.387706
1253.743079	-12.395064
1254.267619	-12.398139
1254.792597	-12.365152
1255.318015	-12.380410
1255.843874	-12.373825
1256.370173	-12.350836
1256.896913	-12.365798
1257.424095	-12.352804
1257.951720	-12.342539
1258.479787	-12.349173
1259.008298	-12.339174
1259.537254	-12.333370
1260.066654	-12.335213
1260.596499	-12.328624
1261.126790	-12.324704
1261.657527	-12.320905
1262.188711	-12.323172
1262.720342	-12.312675
1263.252422	-12.310338
1263.784950	-12.317364
1264.317928	-12.298897
1264.851355	-12.302287
1265.385232	-12.310371
1265.919560	-12.282912
1266.454340	-12.298395
1266.989572	-12.297531
1267.525256	-12.269279
1268.061394	-12.293702
1268.597985	-12.280336
1269.135031	-12.258189
1269.672531	-12.285748
1270.210487	-12.259984
1270.748899	-12.247550
1271.287768	-12.273285
1271.827094	-12.237171
1272.366877	-12.236763
1272.907119	-12.255317
1273.447820	-12.213833
1273.988981	-12.223438
1274.530601	-12.233128
1275.072683	-12.189113
1275.615226	-12.209289
1276.158230	-12.204056
1276.701697	-12.166627
1277.245627	-12.189524
1277.790021	-12.175072
1278.334879	-12.141772
1278.880202	-12.170731
1279.425991	-12.142773
1279.972245	-12.120904
1280.518966	-12.148665
1281.066155	-12.112475
1281.613811	-12.101402
1282.161936	-12.126785
1282.710529	-12.081312
1283.259593	-12.086584
1283.809126	-12.100463
1284.359131	-12.055584
1284.909607	-12.070955
1285.460555	-12.074311
1286.011976	-12.031392
1286.563870	-12.056957
1287.116237	-12.044953
1287.669080	-12.011493
1288.222397	-12.039623
1288.776191	-12.014817
1289.330460	-11.993600
1289.885207	-12.017243
1290.440431	-11.985559
1290.996133	-11.975746
1291.552314	-11.990624
1292.108975	-11.957374
1292.666115	-11.956623
1293.223737	-11.959445
1293.781839	-11.931821
1294.340424	-11.934154
1294.899491	-11.928532
1295.459041	-11.908127
1296.019075	-11.909049
1296.579593	-11.899398
1297.140597	-11.886883
1297.702086	-11.882332
1298.264061	-11.874617
1298.826524	-11.867343
1299.389474	-11.856057
1299.952912	-11.857241
1300.516839	-11.847219
1301.081255	-11.834310
1301.646162	-11.844255
1302.211559	-11.828600
1302.777448	-11.819098
1303.343829	-11.834468
1303.910702	-11.811154
1304.478069	-11.810392
1305.045930	-11.824715
1305.614285	-11.796794
1306.183136	-11.807363
1306.752483	-11.813026
1307.322326	-11.787908
1307.892666	-11.805978
1308.463504	-11.799890
1309.034841	-11.785207
1309.606677	-11.801372
1310.179012	-11.788960
1310.751849	-11.785300
1311.325186	-11.793416
1311.899025	-11.783319
1312.473366	-11.786671
1313.048211	-11.784045
1313.623559	-11.784801
1314.199412	-11.785271
1314.775770	-11.778284
1315.352634	-11.791137
1315.930004	-11.782038
1316.507881	-11.781561
1317.086266	-11.799059
1317.665159	-11.781967
1318.244562	-11.793871
1318.824474	-11.805693
1319.404897	-11.790225
1319.985831	-11.811827
1320.567276	-11.813323
1321.149234	-11.809916
1321.731706	-11.828375
1322.314691	-11.827177
1322.898190	-11.836069
1323.482205	-11.843072
1324.066736	-11.851114
1324.651783	-11.862454
1325.237347	-11.859920
1325.823430	-11.882897
1326.410031	-11.884686
1326.997151	-11.885071
1327.584791	-11.914348
1328.172952	-11.906439
1328.761634	-11.918145
1329.350839	-11.939996
1329.940566	-11.934959
1330.530817	-11.952715
1331.121592	-11.962464
1331.712891	-11.972462
1332.304716	-11.982072
1332.897068	-11.989706
1333.489946	-12.011214
1334.083352	-12.007723
1334.677287	-12.024314
1335.271750	-12.044116
1335.866744	-12.036528
1336.462268	-12.061172
1337.058323	-12.070529
1337.654910	-12.074326
1338.252029	-12.091239
1338.849682	-12.099345
1339.447869	-12.113987
1340.046591	-12.114988
1340.645848	-12.133895
1341.245641	-12.147719
1341.845972	-12.141096
1342.446840	-12.169900
1343.048246	-12.175529
1343.650191	-12.177315
1344.252677	-12.199566
1344.855702	-12.207041
1345.459269	-12.217478
1346.063379	-12.223853
1346.668030	-12.246827
1347.273226	-12.251478
1347.878965	-12.254069
1348.485250	-12.285365
1349.092080	-12.282838
1349.699456	-12.291865
1350.307380	-12.313815
1350.915851	-12.318230
1351.524871	-12.327492
1352.134441	-12.334877
1352.744560	-12.357220
1353.355231	-12.354177
1353.966453	-12.360668
1354.578227	-12.387402
1355.190555	-12.378547
1355.803436	-12.389433
1356.416872	-12.403565
1357.030863	-12.409379
1357.645411	-12.410082
1358.260515	-12.417920
1358.876177	-12.438621
1359.492397	-12.423680
1360.109176	-12.437921
1360.726516	-12.452840
1361.344416	-12.443517
1361.962877	-12.453075
1362.581901	-12.459611
1363.201487	-12.468910
1363.821637	-12.459205
1364.442352	-12.472780
1365.063632	-12.484517
1365.685478	-12.471616
1366.307891	-12.486155
1366.930871	-12.491038
1367.554420	-12.495536
1368.178538	-12.490788
1368.803226	-12.503895
1369.428485	-12.515482
1370.054315	-12.500742
1370.680717	-12.521279
1371.307693	-12.526679
1371.935242	-12.526731
1372.563366	-12.530086
1373.192065	-12.544548
1373.821341	-12.552256
1374.451193	-12.542590
1375.081623	-12.566988
1375.712632	-12.568575
1376.344221	-12.572730
1376.976389	-12.578093
1377.609139	-12.592579
1378.242470	-12.601481
1378.876384	-12.592984
1379.510881	-12.619331
1380.145963	-12.620992
1380.781629	-12.625275
1381.417881	-12.631137
1382.054720	-12.648843
1382.692147	-12.652346
1383.330161	-12.648493
1383.968765	-12.674114
1384.607959	-12.672408
1385.247743	-12.682161
1385.888119	-12.682569
1386.529087	-12.703984
1387.170648	-12.705347
1387.812804	-12.702193
1388.455554	-12.724782
1389.098899	-12.725507
1389.742842	-12.732924
1390.387381	-12.730003
1391.032519	-12.756303
1391.678256	-12.750033
1392.324592	-12.754404
1392.971529	-12.769546
1393.619068	-12.776033
1394.267208	-12.782804
1394.915952	-12.780283
1395.565300	-12.807636
1396.215253	-12.801926
1396.865812	-12.812961
1397.516977	-12.817097
1398.168749	-12.837649
1398.821130	-12.835344
1399.474120	-12.840192
1400.127719	-12.861580
1400.781930	-12.861863
1401.436752	-12.874494
1402.092186	-12.873224
1402.748234	-12.902875
1403.404897	-12.896441
1404.062174	-12.912262
1404.720067	-12.921183
1405.378577	-12.942016
1406.037705	-12.944542
1406.697451	-12.953665
1407.357817	-12.979667
1408.018803	-12.981293
1408.680410	-12.998557
1409.342639	-13.000968
1410.005492	-13.033149
1410.668968	-13.026012
1411.333068	-13.048253
1411.997795	-13.053287
1412.663147	-13.076890
1413.329127	-13.077632
1413.995736	-13.088947
1414.662973	-13.108114
1415.330840	-13.115179
1415.999339	-13.127527
1416.668469	-13.129726
1417.338232	-13.160902
1418.008628	-13.153727
1418.679659	-13.176390
1419.351325	-13.175216
1420.023628	-13.205313
1420.696568	-13.196835
1421.370145	-13.215858
1422.044362	-13.220336
1422.719219	-13.238905
1423.394717	-13.237815
1424.070856	-13.247127
1424.747638	-13.262450
1425.425064	-13.265719
1426.103134	-13.275733
1426.781850	-13.272692
1427.461212	-13.296902
1428.141221	-13.286314
1428.821878	-13.302581
1429.503185	-13.293378
1430.185141	-13.320463
1430.867749	-13.305336
1431.551008	-13.324946
1432.234920	-13.317537
1432.919486	-13.342948
1433.604707	-13.330072
1434.290583	-13.345984
1434.977116	-13.342926
1435.664307	-13.358752
1436.352156	-13.350877
1437.040664	-13.357924
1437.729833	-13.362949
1438.419663	-13.370298
1439.110156	-13.372641
1439.801312	-13.374710
1440.493132	-13.390850
1441.185617	-13.390493
1441.878768	-13.401001
1442.572586	-13.393700
1443.267072	-13.413214
1443.962228	-13.400195
1444.658053	-13.412281
1445.354549	-13.395831
1446.051717	-13.418348
1446.749558	-13.402148
1447.448073	-13.421945
1448.147263	-13.408688
1448.847128	-13.440465
1449.547671	-13.427667
1450.248891	-13.453470
1450.950789	-13.439241
1451.653368	-13.468502
1452.356627	-13.448307
1453.060568	-13.466555
1453.765192	-13.443578
1454.470500	-13.466413
1455.176492	-13.443712
1455.883170	-13.464499
1456.590534	-13.449584
1457.298586	-13.483388
1458.007327	-13.474927
1458.716758	-13.508654
1459.426880	-13.503999
1460.137693	-13.541957
1460.849199	-13.530872
1461.561398	-13.555539
1462.274293	-13.535260
1462.987883	-13.554540
1463.702170	-13.524889
1464.417155	-13.535298
1465.132838	-13.506256
1465.849222	-13.526496
1466.566306	-13.506876
1467.284093	-13.535931
1468.002582	-13.530874
1468.721775	-13.578509
1469.441674	-13.582617
1470.162278	-13.631136
1470.883590	-13.631769
1471.605609	-13.673508
1472.328338	-13.655189
1473.051777	-13.667930
1473.775928	-13.620298
1474.500790	-13.607714
1475.226367	-13.536203
1475.952657	-13.500707
1476.679663	-13.418172
1477.407386	-13.383052
1478.135826	-13.309756
1478.864985	-13.282636
1479.594863	-13.224301
1480.325463	-13.212518
1481.056784	-13.167897
1481.788828	-13.153959
1482.521597	-13.101719
1483.255090	-13.067372
1483.989309	-12.989953
1484.724256	-12.912149
1485.459931	-12.792915
1486.196336	-12.669946
1486.933471	-12.520726
1487.671337	-12.367839
1488.409937	-12.210376
1489.149270	-12.059789
1489.889337	-11.931674
1490.630141	-11.815425
1491.371682	-11.742441
1492.113961	-11.686036
1492.856979	-11.690743
1493.600738	-11.708248
1494.345238	-11.792851
1495.090481	-11.884285
1495.836467	-12.043055
1496.583198	-12.195231
1497.330675	-12.399632
1498.078899	-12.580624
1498.827872	-12.792390
1499.577593	-12.960562
1500.328065	-13.128173
1501.079289	-13.237565
1501.831265	-13.325477
1502.583995	-13.358809
1503.337480	-13.361470
1504.091721	-13.331706
1504.846719	-13.280017
1505.602475	-13.231493
1506.358991	-13.170781
1507.116268	-13.141486
1507.874306	-13.105109
1508.633108	-13.118041
1509.392673	-13.117047
1510.153004	-13.158659
1510.914101	-13.164679
1511.675965	-13.185454
1512.438599	-13.135941
1513.202002	-13.051353
1513.966176	-12.860749
1514.731122	-12.596632
1515.496842	-12.226528
1516.263336	-11.783289
1517.030607	-11.275734
1517.798654	-10.727565
1518.567479	-10.174446
1519.337083	-9.615956
1520.107468	-9.094780
1520.878634	-8.589732
1521.650584	-8.143534
1522.423317	-7.727090
1523.196836	-7.373347
1523.971141	-7.058141
1524.746233	-6.799918
1525.522115	-6.589981
1526.298786	-6.427488
1527.076249	-6.320874
1527.854504	-6.253292
1528.633553	-6.246580
1529.413397	-6.275596
1530.194037	-6.362305
1530.975474	-6.486610
1531.757709	-6.658105
1532.540745	-6.872183
1533.324581	-7.115791
1534.109220	-7.402059
1534.894662	-7.700840
1535.680909	-8.030990
1536.467961	-8.362011
1537.255821	-8.699182
1538.044489	-9.036546
1538.833967	-9.354744
1539.624256	-9.677280
1540.415357	-9.974128
1541.207271	-10.278634
1542.000000	-10.580257
1542.793545	-10.887223
1543.587907	-11.224294
1544.383087	-11.568080
1545.179088	-11.958939
1545.975909	-12.365093
1546.773552	-12.798632
1547.572019	-13.255634
1548.371311	-13.694410
1549.171428	-14.133528
1549.972373	-14.505034
1550.774147	-14.811515
1551.576751	-15.027884
1552.380185	-15.115682
1553.184453	-15.117851
1553.989554	-15.002183
1554.795490	-14.822599
1555.602263	-14.596453
1556.409873	-14.329834
1557.218322	-14.080073
1558.027612	-13.824402
1558.837743	-13.606203
1559.648717	-13.419260
1560.460536	-13.265189
1561.273200	-13.170229
1562.086710	-13.105414
1562.901069	-13.103772
1563.716278	-13.141787
1564.532337	-13.230524
1565.349249	-13.375301
1566.167014	-13.553978
1566.985634	-13.794368
1567.805111	-14.061991
1568.625444	-14.380022
1569.446637	-14.727313
1570.268690	-15.094227
1571.091605	-15.487415
1571.915382	-15.860838
1572.740024	-16.235323
1573.565532	-16.549734
1574.391907	-16.810421
1575.219150	-16.981009
1576.047262	-17.044257
1576.876246	-17.015468
1577.706103	-16.864699
1578.536833	-16.649513
1579.368439	-16.349637
1580.200922	-16.019768
1581.034282	-15.664621
1581.868522	-15.299096
1582.703643	-14.954107
1583.539646	-14.610670
1584.376532	-14.308632
1585.214304	-14.023437
1586.052962	-13.773816
1586.892508	-13.558229
1587.732943	-13.364371
1588.574269	-13.214121
1589.416487	-13.080038
1590.259599	-12.980704
1591.103605	-12.902681
1591.948508	-12.840788
1592.794309	-12.807484
1593.641009	-12.776997
1594.488609	-12.768231
1595.337112	-12.763100
1596.186518	-12.762302
1597.036829	-12.773734
1597.888047	-12.775786
1598.740172	-12.789292
1599.593207	-12.795719
1600.447153	-12.802021
1601.302010	-12.814896
1602.157782	-12.817177
1603.014469	-12.831296
1603.872072	-12.839386
1604.730593	-12.851195
1605.590034	-12.872218
1606.450397	-12.886701
1607.311681	-12.917908
1608.173890	-12.946709
1609.037024	-12.984291
1609.901085	-13.035186
1610.766075	-13.083035
1611.631995	-13.150798
1612.498846	-13.218184
1613.366630	-13.295211
1614.235349	-13.386805
1615.105004	-13.473798
1615.975596	-13.580037
1616.847128	-13.684333
1617.719600	-13.793606
1618.593014	-13.915350
1619.467372	-14.025286
1620.342675	-14.148326
1621.218924	-14.264253
1622.096122	-14.375283
1622.974270	-14.494737
1623.853369	-14.596127
1624.733420	-14.703809
1625.614427	-14.805520
1626.496389	-14.895205
1627.379308	-14.995449
1628.263187	-15.078124
1629.148026	-15.164364
1630.033828	-15.251954
1630.920593	-15.326746
1631.808324	-15.415940
1632.697022	-15.494820
1633.586688	-15.574525
1634.477324	-15.663265
1635.368932	-15.737883
1636.261514	-15.824081
1637.155070	-15.904256
1638.049602	-15.975421
1638.945113	-16.055455
1639.841603	-16.116694
1640.739075	-16.178790
1641.637529	-16.235644
1642.536968	-16.271877
1643.437393	-16.312580
1644.338806	-16.335022
1645.241209	-16.348171
1646.144602	-16.362403
1647.048988	-16.356223
1647.954368	-16.353397
1648.860744	-16.345806
1649.768118	-16.325542
1650.676491	-16.315197
1651.585865	-16.292469
1652.496241	-16.267983
1653.407621	-16.249506
1654.320008	-16.216254
1655.233401	-16.189143
1656.147804	-16.158112
1657.063218	-16.115335
1657.979645	-16.080618
1658.897085	-16.035264
1659.815542	-15.985375
1660.735016	-15.941003
1661.655509	-15.883319
1662.577023	-15.829456
1663.499560	-15.777014
1664.423121	-15.714632
1665.347709	-15.660843
1666.273324	-15.603261
1667.199969	-15.541468
1668.127645	-15.488468
1669.056353	-15.428325
1669.986097	-15.368787
1670.916877	-15.314750
1671.848695	-15.252185
1672.781553	-15.194084
1673.715452	-15.137294
1674.650395	-15.072934
1675.586383	-15.015048
1676.523418	-14.954775
1677.461501	-14.891053
1678.400635	-14.834793
1679.340821	-14.774594
1680.282061	-14.714401
1681.224357	-14.660564
1682.167710	-14.601661
1683.112122	-14.545062
1684.057595	-14.492317
1685.004132	-14.433858
1685.951732	-14.379702
1686.900400	-14.327210
1687.850135	-14.270739
1688.800940	-14.219271
1689.752818	-14.167861
1690.705768	-14.113747
1691.659795	-14.065441
1692.614898	-14.016200
1693.571081	-13.965928
1694.528345	-13.920705
1695.486691	-13.873226
1696.446122	-13.825544
1697.406640	-13.782040
1698.368245	-13.735923
1699.330941	-13.691190
1700.294729	-13.650407
1701.259611	-13.607944
1702.225588	-13.568131
1703.192664	-13.531592
1704.160838	-13.493013
1705.130114	-13.457017
1706.100493	-13.423379
1707.071977	-13.388097
1708.044568	-13.355836
1709.018268	-13.325288
1709.993079	-13.293194
1710.969003	-13.264135
1711.946041	-13.236100
1712.924196	-13.206798
1713.903469	-13.180545
1714.883862	-13.155120
1715.865378	-13.128890
1716.848017	-13.105689
1717.831783	-13.082876
1718.816677	-13.059156
1719.802701	-13.038508
1720.789857	-13.018262
1721.778147	-12.997323
1722.767573	-12.979247
1723.758136	-12.960896
1724.749840	-12.941460
1725.742685	-12.924478
1726.736673	-12.907490
1727.731808	-12.889744
1728.728090	-12.874536
1729.725521	-12.859450
1730.724105	-12.843285
1731.723842	-12.829502
1732.724735	-12.815688
1733.726785	-12.800731
1734.729995	-12.788079
1735.734366	-12.775877
1736.739902	-12.762977
1737.746603	-12.752188
1738.754472	-12.741957
1739.763510	-12.730682
1740.773721	-12.721334
1741.785105	-12.713138
1742.797665	-12.704183
1743.811403	-12.697241
1744.826321	-12.691371
1745.842422	-12.684745
1746.859706	-12.679214
1747.878177	-12.674680
1748.897835	-12.669100
1749.918685	-12.664656
1750.940726	-12.661740
1751.963963	-12.658192
1752.988395	-12.655615
1754.014027	-12.654456
1755.040860	-12.652653
1756.068895	-12.651480
1757.098135	-12.652044
1758.128583	-12.652179
1759.160240	-12.652373
1760.193109	-12.653909
1761.227191	-12.655118
1762.262488	-12.656359
1763.299004	-12.659492
1764.336740	-12.663113
1765.375697	-12.666749
1766.415880	-12.671865
1767.457288	-12.677314
1768.499926	-12.682036
1769.543794	-12.687891
1770.588895	-12.694681
1771.635231	-12.701336
1772.682805	-12.709291
1773.731619	-12.718264
1774.781674	-12.726298
1775.832973	-12.734545
1776.885519	-12.743628
1777.939312	-12.751978
1778.994357	-12.760305
1780.050654	-12.769897
1781.108207	-12.779081
1782.167017	-12.787546
1783.227087	-12.797027
1784.288418	-12.806484
1785.351013	-12.815011
1786.414875	-12.824685
1787.480006	-12.835154
1788.546407	-12.844753
1789.614082	-12.854819
1790.683032	-12.866204
1791.753259	-12.877157
1792.824767	-12.888118
1793.897557	-12.900772
1794.971632	-12.913563
1796.046994	-12.925935
1797.123645	-12.939729
1798.201588	-12.954286
1799.280824	-12.968378
1800.361357	-12.983160
1801.443188	-12.999260
1802.526320	-13.014971
1803.610756	-13.030900
1804.696497	-13.048202
1805.783546	-13.065332
1806.871906	-13.081961
1807.961578	-13.099707
1809.052565	-13.118223
1810.144870	-13.136368
1811.238494	-13.155274
1812.333441	-13.175191
1813.429713	-13.194492
1814.527311	-13.213351
1815.626239	-13.233224
1816.726499	-13.253332
1817.828094	-13.273351
1818.931025	-13.294340
1820.035295	-13.315830
1821.140906	-13.336616
1822.247862	-13.357579
1823.356165	-13.379225
1824.465816	-13.400660
1825.576819	-13.421944
1826.689175	-13.444388
1827.802888	-13.467250
1828.917960	-13.489496
1830.034394	-13.511923
1831.152191	-13.534572
1832.271354	-13.556323
1833.391887	-13.577952
1834.513790	-13.600571
1835.637068	-13.623340
1836.761722	-13.645664
1837.887755	-13.668749
1839.015169	-13.692592
1840.143968	-13.715512
1841.274153	-13.738061
1842.405727	-13.761802
1843.538693	-13.785769
1844.673053	-13.809269
1845.808810	-13.833894
1846.945966	-13.859698
1848.084525	-13.884907
1849.224488	-13.909648
1850.365858	-13.935328
1851.508638	-13.960962
1852.652831	-13.985558
1853.798438	-14.010646
1854.945463	-14.036626
1856.093909	-14.061810
1857.243777	-14.086474
1858.395071	-14.111640
1859.547794	-14.137113
1860.701947	-14.161832
1861.857533	-14.186750
1863.014556	-14.213074
1864.173018	-14.239328
1865.332922	-14.264755
1866.494270	-14.290428
1867.657065	-14.316800
1868.821309	-14.342886
1869.987006	-14.368787
1871.154158	-14.395577
1872.322768	-14.422803
1873.492839	-14.449288
1874.664373	-14.475339
1875.837373	-14.501565
1877.011841	-14.527292
1878.187782	-14.552296
1879.365197	-14.577500
1880.544089	-14.603145
1881.724460	-14.628093
1882.906315	-14.651954
1884.089655	-14.675483
1885.274483	-14.698183
1886.460803	-14.718907
1887.648616	-14.738769
1888.837927	-14.759168
1890.028736	-14.778920
1891.221049	-14.797023
1892.414866	-14.814686
1893.610192	-14.831656
1894.807028	-14.846652
1896.005379	-14.861055
1897.205246	-14.875857
1898.406633	-14.889157
1899.609542	-14.900874
1900.813977	-14.912505
1902.019940	-14.923556
1903.227434	-14.932835
1904.436462	-14.941510
1905.647028	-14.949978
1906.859133	-14.957085
1908.072781	-14.963264
1909.287976	-14.969662
1910.504719	-14.975348
1911.723013	-14.979415
1912.942863	-14.983168
1914.164270	-14.987052
1915.387238	-14.990175
1916.611770	-14.992557
1917.837868	-14.994668
1919.065536	-14.995979
1920.294777	-14.996329
1921.525594	-14.996255
1922.757989	-14.995607
1923.991967	-14.993705
1925.227529	-14.990706
1926.464679	-14.986803
1927.703420	-14.982110
1928.943755	-14.976911
1930.185688	-14.970970
1931.429221	-14.963658
1932.674356	-14.954840
1933.921099	-14.944893
1935.169451	-14.933362
1936.419415	-14.919974
1937.670996	-14.905489
1938.924195	-14.890484
1940.179017	-14.874354
1941.435463	-14.856423
1942.693538	-14.836397
1943.953245	-14.814328
1945.214586	-14.790840
1946.477566	-14.766740
1947.742186	-14.742536
1949.008451	-14.717450
1950.276363	-14.690669
1951.545926	-14.662364
1952.817143	-14.633259
1954.090017	-14.603710
1955.364551	-14.574010
1956.640749	-14.544129
1957.918615	-14.513765
1959.198150	-14.482702
1960.479359	-14.451015
1961.762244	-14.419281
1963.046810	-14.388435
1964.333059	-14.358563
1965.620995	-14.328620
1966.910621	-14.297681
1968.201940	-14.265626
1969.494956	-14.233115
1970.789672	-14.201038
1972.086091	-14.169635
1973.384217	-14.138407
1974.684053	-14.106569
1975.985602	-14.074107
1977.288869	-14.041811
1978.593855	-14.010647
1979.900566	-13.980494
1981.209003	-13.950191
1982.519171	-13.919179
1983.831073	-13.887438
1985.144712	-13.854449
1986.460093	-13.820385
1987.777217	-13.786061
1989.096089	-13.752207
1990.416713	-13.718251
1991.739092	-13.683297
1993.063228	-13.647825
1994.389127	-13.613082
1995.716791	-13.579571
1997.046223	-13.546503
1998.377428	-13.513008
1999.710409	-13.478720
2001.045169	-13.443795
2002.381713	-13.408946
2003.720043	-13.374645
2005.060163	-13.340279
2006.402077	-13.305212
2007.745788	-13.269827
2009.091301	-13.234585
2010.438618	-13.199604
2011.787743	-13.165032
2013.138680	-13.131139
2014.491433	-13.097801
2015.846005	-13.064571
2017.202399	-13.031330
2018.560621	-12.998629
2019.920673	-12.966967
2021.282558	-12.935936
2022.646281	-12.904850
2024.011846	-12.873873
2025.379256	-12.843590
2026.748515	-12.814753
2028.119626	-12.786806
2029.492594	-12.759259
2030.867422	-12.732509
2032.244114	-12.706600
2033.622673	-12.681215
2035.003104	-12.656291
2036.385411	-12.631736
2037.769597	-12.607789
2039.155665	-12.584330
2040.543621	-12.560903
2041.933467	-12.537781
2043.325208	-12.515612
2044.718847	-12.495011
2046.114389	-12.475743
2047.511837	-12.457542
2048.911195	-12.441198
2050.312467	-12.426321
2051.715657	-12.412088
2053.120769	-12.398011
2054.527807	-12.384250
2055.936775	-12.370628
2057.347677	-12.355684
2058.760516	-12.338432
2060.175297	-12.319178
2061.592025	-12.299004
2063.010701	-12.277599
2064.431332	-12.254097
2065.853921	-12.229768
2067.278472	-12.206290
2068.704988	-12.183802
2070.133475	-12.162159
2071.563936	-12.141812
2072.996375	-12.123067
2074.430796	-12.105967
2075.867204	-12.090395
2077.305603	-12.076475
2078.745996	-12.064430
2080.188389	-12.054318
2081.632784	-12.045360
2083.079187	-12.037446
2084.527601	-12.031552
2085.978030	-12.027891
2087.430480	-12.025439
2088.884954	-12.023671
2090.341455	-12.022426
2091.799990	-12.021489
2093.260561	-12.020533
2094.723173	-12.019115
2096.187831	-12.017157
2097.654538	-12.014653
2099.123300	-12.011917
2100.594119	-12.008812
2102.067001	-12.004847
2103.541950	-11.999419
2105.018971	-11.992379
2106.498067	-11.984054
2107.979243	-11.974488
2109.462503	-11.963263
2110.947853	-11.950744
2112.435295	-11.938282
2113.924836	-11.926979
2115.416478	-11.916582
2116.910227	-11.907145
2118.406087	-11.900142
2119.904063	-11.896977
2121.404158	-11.897624
2122.906378	-11.901208
2124.410727	-11.907727
2125.917210	-11.917482
2127.425831	-11.930459
2128.936594	-11.946052
2130.449505	-11.963301
2131.964567	-11.981418
2133.481786	-11.999711
2135.001166	-12.018098
2136.522711	-12.036034
2138.046427	-12.052631
2139.572317	-12.068099
2141.100388	-12.083237
2142.630642	-12.098202
2144.163085	-12.112378
2145.697722	-12.125328
2147.234558	-12.137974
2148.773596	-12.151350
2150.314842	-12.164792
2151.858301	-12.177276
2153.403977	-12.189244
2154.951875	-12.201911
2156.502000	-12.214895
2158.054357	-12.226573
2159.608950	-12.237319
2161.165785	-12.249333
2162.724866	-12.263115
2164.286198	-12.277183
2165.849786	-12.291433
2167.415635	-12.307873
2168.983749	-12.326682
2170.554134	-12.346891
2172.126795	-12.368627
2173.701737	-12.392778
2175.278964	-12.419503
2176.858481	-12.448560
2178.440294	-12.479938
2180.024408	-12.512520
2181.610827	-12.546276
2183.199557	-12.581980
2184.790602	-12.618487
2186.383968	-12.654308
2187.979660	-12.690455
2189.577683	-12.728470
2191.178041	-12.766514
2192.780741	-12.803617
2194.385787	-12.841877
2195.993185	-12.881671
2197.602939	-12.920444
2199.215054	-12.958419
2200.829537	-12.996683
2202.446392	-13.034783
2204.065624	-13.072993
2205.687239	-13.111380
2207.311242	-13.149070
2208.937638	-13.186477
2210.566433	-13.225056
2212.197631	-13.263836
2213.831239	-13.300842
2215.467261	-13.338407
2217.105703	-13.379039
2218.746570	-13.420329
2220.389867	-13.461828
2222.035601	-13.505920
2223.683776	-13.553753
2225.334398	-13.605051
2226.987472	-13.658444
2228.643004	-13.713623
2230.300999	-13.773418
2231.961463	-13.837369
2233.624402	-13.901558
2235.289820	-13.966580
2236.957723	-14.035273
2238.628118	-14.105173
2240.301009	-14.173114
2241.976402	-14.241961
2243.654303	-14.313070
2245.334717	-14.383339
2247.017650	-14.453227
2248.703108	-14.524232
2250.391096	-14.595083
2252.081620	-14.665152
2253.774686	-14.734242
2255.470300	-14.802649
2257.168467	-14.871094
2258.869193	-14.939205
2260.572484	-15.007141
2262.278345	-15.076479
2263.986783	-15.146236
2265.697804	-15.214286
2267.411412	-15.282590
2269.127615	-15.353196
2270.846417	-15.424587
2272.567826	-15.497057
2274.291846	-15.572009
2276.018484	-15.649611
2277.747745	-15.730424
2279.479637	-15.813574
2281.214164	-15.900819
2282.951333	-15.995367
2284.691149	-16.093917
2286.433619	-16.193561
2288.178750	-16.298305
2289.926546	-16.407165
2291.677014	-16.515306
2293.430161	-16.624536
2295.185992	-16.736929
2296.944513	-16.847128
2298.705732	-16.954045
2300.469653	-17.061832
2302.236283	-17.171593
2304.005629	-17.279277
2305.777696	-17.383807
2307.552492	-17.489571
2309.330022	-17.597141
2311.110292	-17.701214
2312.893310	-17.801655
2314.679080	-17.903425
2316.467611	-18.005953
2318.258907	-18.105097
2320.052976	-18.203833
2321.849824	-18.305892
2323.649457	-18.408934
2325.451883	-18.510441
2327.257106	-18.614430
2329.065135	-18.722329
2330.875975	-18.830262
2332.689633	-18.944071
2334.506116	-19.064624
2336.325430	-19.187064
2338.147581	-19.315096
2339.972578	-19.452995
2341.800425	-19.595810
2343.631130	-19.739675
2345.464700	-19.887247
2347.301141	-20.042589
2349.140461	-20.199698
2350.982665	-20.348910
2352.827760	-20.498384
2354.675754	-20.648280
2356.526653	-20.790002
2358.380464	-20.930689
2360.237195	-21.071142
2362.096851	-21.206122
2363.959440	-21.340724
2365.824968	-21.474023
2367.693444	-21.603828
2369.564873	-21.732896
2371.439263	-21.860880
2373.316620	-21.986782
2375.196953	-22.105581
2377.080267	-22.224153
2378.966570	-22.351864
2380.855869	-22.473729
2382.748171	-22.590106
2384.643484	-22.718385
2386.541815	-22.854286
2388.443170	-22.989462
2390.347557	-23.126498
2392.254984	-23.275761
2394.165457	-23.437765
2396.078984	-23.597611
2397.995572	-23.767026
2399.915229	-23.957682
2401.837961	-24.146465
2403.763777	-24.328952
2405.692684	-24.522707
2407.624689	-24.722159
2409.559800	-24.901395
2411.498023	-25.072962
2413.439368	-25.251112
2415.383840	-25.412226
2417.331449	-25.559072
2419.282201	-25.714324
2421.236104	-25.856203
2423.193165	-25.991310
2425.153393	-26.130312
2427.116795	-26.263712
2429.083378	-26.394095
2431.053151	-26.528719
2433.026121	-26.648290
2435.002297	-26.761136
2436.981685	-26.888438
2438.964293	-27.006411
2440.950131	-27.118470
2442.939204	-27.262185
2444.931522	-27.397279
2446.927092	-27.523760
2448.925923	-27.694538
2450.928022	-27.874998
2452.933397	-28.031180
2454.942056	-28.229038
2456.954008	-28.459978
2458.969260	-28.664054
2460.987821	-28.893633
2463.009699	-29.154645
2465.034902	-29.368384
2467.063437	-29.577945
2469.095315	-29.812373
2471.130542	-29.995478
2473.169127	-30.143726
2475.211078	-30.321046
2477.256404	-30.467007
2479.305112	-30.569362
2481.357212	-30.698383
2483.412713	-30.833909
2485.471621	-30.932965
2487.533946	-31.044265
2489.599696	-31.172665
2491.668880	-31.255003
2493.741507	-31.341689
2495.817585	-31.451064
2497.897122	-31.526268
2499.980127	-31.610077
2502.066609	-31.738433
2504.156578	-31.858343
2506.250040	-31.989858
2508.347006	-32.150271
2510.447483	-32.324849
2512.551482	-32.527186
2514.659010	-32.757111
2516.770076	-33.000606
2518.884690	-33.287368
2521.002861	-33.580607
2523.124597	-33.885021
2525.249907	-34.199604
2527.378801	-34.463255
2529.511287	-34.714513
2531.647375	-34.957284
2533.787074	-35.126873
2535.930393	-35.260755
2538.077340	-35.410542
2540.227927	-35.503527
2542.382160	-35.581137
2544.540051	-35.679465
2546.701608	-35.737783
2548.866840	-35.807667
2551.035757	-35.878729
2553.208369	-35.898232
2555.384684	-35.921707
2557.564713	-35.948646
2559.748465	-35.944277
2561.935948	-35.990718
2564.127174	-36.034479
2566.322152	-36.106714
2568.520890	-36.231119
2570.723399	-36.372874
2572.929689	-36.540678
2575.139769	-36.739736
2577.353649	-36.997580
2579.571340	-37.328980
2581.792849	-37.672648
2584.018189	-38.046848
2586.247368	-38.500705
2588.480396	-38.930677
2590.717284	-39.295900
2592.958041	-39.669613
2595.202678	-40.018779
2597.451204	-40.248855
2599.703630	-40.436931
2601.959966	-40.604742
2604.220222	-40.773779
2606.484408	-40.863439
2608.752535	-40.905795
2611.024612	-41.005545
2613.300651	-41.043814
2615.580661	-40.924662
2617.864653	-40.864288
2620.152638	-40.785861
2622.444625	-40.572066
2624.740626	-40.435538
2627.040651	-40.361729
2629.344710	-40.302485
2631.652814	-40.233929
2633.964974	-40.248437
2636.281200	-40.351245
2638.601504	-40.411991
2640.925896	-40.522625
2643.254386	-40.827581
2645.586987	-41.135342
2647.923707	-41.441596
2650.264559	-41.923894
2652.609554	-42.435873
2654.958702	-42.836461
2657.312015	-43.332386
2659.669503	-43.848477
2662.031178	-44.277655
2664.397051	-44.661518
2666.767132	-45.073260
2669.141434	-45.479037
2671.519968	-45.882597
2673.902745	-46.326595
2676.289776	-46.716831
2678.681072	-46.956418
2681.076646	-47.129314
2683.476508	-47.122518
2685.880671	-46.828323
2688.289145	-46.547583
2690.701942	-46.157010
2693.119075	-45.806628
2695.540554	-45.554703
2697.966391	-45.261728
2700.396599	-45.037885
2702.831189	-44.872632
2705.270172	-44.679674
2707.713561	-44.617748
2710.161368	-44.692513
2712.613605	-44.808017
2715.070283	-45.049073
2717.531416	-45.345205
2719.997014	-45.645829
2722.467090	-45.890995
2724.941657	-46.239013
2727.420726	-46.502088
2729.904310	-46.733395
2732.392421	-47.045221
2734.885072	-47.350712
2737.382275	-47.798721
2739.884042	-48.271971
2742.390387	-48.858607
2744.901321	-49.766976
2747.416857	-50.471696
2749.937008	-51.375867
2752.461787	-52.299639
2754.991206	-52.675165
2757.525279	-53.170652
2760.064017	-53.123141
2762.607434	-52.874506
2765.155544	-52.652888
2767.708358	-52.358274
2770.265890	-51.770338
2772.828153	-51.197539
2775.395160	-50.918004
2777.966924	-50.592501
2780.543459	-50.537142
2783.124778	-50.511588
2785.710894	-50.698646
2788.301821	-50.857789
2790.897572	-50.775671
2793.498160	-51.009526
2796.103599	-50.713199
2798.713903	-50.670013
2801.329085	-50.612390
2803.949159	-50.182487
2806.574139	-50.361172
2809.204038	-50.282972
2811.838871	-50.447149
2814.478650	-50.810510
2817.123391	-51.192432
2819.773107	-51.982415
2822.427812	-52.410620
2825.087521	-53.292969
2827.752247	-54.152486
2830.422005	-54.577089
2833.096808	-55.647091
2835.776672	-56.149126
2838.461611	-56.978873
2841.151638	-57.495606
2843.846769	-57.134389
2846.547019	-56.887292
2849.252401	-56.470157
2851.962930	-56.334749
2854.678621	-56.349075
2857.399489	-56.829372
2860.125549	-57.346618
2862.856815	-58.017709
2865.593302	-58.619505
2868.335026	-59.021294
2871.082002	-59.070446
2873.834244	-58.512545
2876.591767	-57.946645
2879.354588	-57.041570
2882.122721	-56.395146
2884.896181	-55.841765
2887.674984	-55.511068
2890.459146	-55.511003
2893.248681	-55.120136
2896.043606	-55.514785
2898.843937	-55.984042
2901.649687	-55.170711
2904.460875	-56.691495
2907.277515	-56.755276
2910.099623	-56.108276
2912.927215	-60.072313
2915.760308	-59.306804
2918.598916	-59.782756
2921.443057	-59.402641
2924.292747	-60.170209
2927.148002	-59.746748
2930.008837	-58.614695
2932.875270	-57.950389
2935.747318	-58.721456
2938.624995	-59.374824
2941.508320	-59.601936
2944.397308	-59.622215
2947.291977	-60.738624
2950.192343	-61.644358
2953.098423	-64.098964
2956.010234	-64.786268
2958.927792	-66.390878
2961.851116	-65.569245
2964.780221	-65.794774
2967.715126	-65.063976
2970.655847	-65.166974
2973.602402	-62.956244
2976.554808	-63.028892
2979.513083	-61.341482
2982.477243	-61.710495
2985.447308	-60.469475
2988.423293	-60.497751
2991.405218	-61.906510
2994.393099	-62.193661
2997.386955	-64.021182
