# 2022-03-21_14.27.54
# shape = sech2
# FWHM_ps = 0.1
# carrier_nm = 1542
# frep_MHz = 12126
# pow_mW = 8000
# GDD = 0.0
# propa_len = 0.13666666666666666
# untap_len = 0.01
# taper_len = 0.07666666666666666
# waist_len = 0.02
# uptap_len = 0.02
# untap_scale = 1.0
# waist_scale = 0.1
# workingDir = NL_20110305_12 (Spirou)
# axis = slow
# window_ps = 10.0
# steps = 200
# points = 13000
# 
# wavelength [nm]	 power spectral density [dB]
1000.248639	-24.537707
1000.582480	-24.670665
1000.916545	-24.704884
1001.250832	-24.603274
1001.585343	-24.642580
1001.920077	-24.750092
1002.255035	-24.711666
1002.590218	-24.645957
1002.925624	-24.767027
1003.261255	-24.794667
1003.597111	-24.691570
1003.933192	-24.758856
1004.269497	-24.822677
1004.606029	-24.750080
1004.942785	-24.731992
1005.279768	-24.791029
1005.616977	-24.782202
1005.954412	-24.677158
1006.292074	-24.719346
1006.629962	-24.729183
1006.968077	-24.621758
1007.306420	-24.590051
1007.644990	-24.611790
1007.983787	-24.550988
1008.322813	-24.429521
1008.662067	-24.453951
1009.001549	-24.435716
1009.341259	-24.283242
1009.681199	-24.252176
1010.021367	-24.301499
1010.361765	-24.130505
1010.702392	-24.085502
1011.043250	-24.097032
1011.384337	-24.045721
1011.725654	-23.894410
1012.067202	-23.940906
1012.408980	-23.912834
1012.750989	-23.812474
1013.093230	-23.732429
1013.435702	-23.850530
1013.778405	-23.702502
1014.121341	-23.643716
1014.464508	-23.702721
1014.807908	-23.707329
1015.151540	-23.531752
1015.495405	-23.638510
1015.839503	-23.646588
1016.183835	-23.558306
1016.528400	-23.510287
1016.873198	-23.669298
1017.218231	-23.535742
1017.563498	-23.501303
1017.908999	-23.596092
1018.254735	-23.602597
1018.600707	-23.463309
1018.946913	-23.576303
1019.293354	-23.594202
1019.640032	-23.524716
1019.986945	-23.476400
1020.334094	-23.632366
1020.681480	-23.514157
1021.029102	-23.449256
1021.376961	-23.572044
1021.725058	-23.537626
1022.073391	-23.395433
1022.421962	-23.504977
1022.770772	-23.501280
1023.119819	-23.366783
1023.469104	-23.387175
1023.818628	-23.443306
1024.168391	-23.321829
1024.518393	-23.274437
1024.868634	-23.344370
1025.219115	-23.284439
1025.569836	-23.148538
1025.920796	-23.244381
1026.271997	-23.216684
1026.623438	-23.057753
1026.975121	-23.135532
1027.327044	-23.143157
1027.679208	-23.000109
1028.031614	-23.027651
1028.384262	-23.082301
1028.737152	-22.952822
1029.090284	-22.956029
1029.443659	-23.000674
1029.797276	-22.958469
1030.151137	-22.869862
1030.505240	-22.969378
1030.859587	-22.932588
1031.214178	-22.840920
1031.569013	-22.910133
1031.924093	-22.933440
1032.279417	-22.806498
1032.634985	-22.873707
1032.990799	-22.905792
1033.346858	-22.794531
1033.703162	-22.829061
1034.059712	-22.861227
1034.416509	-22.787267
1034.773551	-22.763119
1035.130841	-22.818581
1035.488377	-22.755936
1035.846160	-22.708221
1036.204190	-22.738899
1036.562468	-22.727968
1036.920994	-22.628193
1037.279768	-22.666781
1037.638790	-22.664639
1037.998061	-22.559817
1038.357581	-22.567137
1038.717350	-22.597183
1039.077368	-22.482615
1039.437636	-22.464328
1039.798154	-22.521998
1040.158922	-22.391692
1040.519940	-22.379160
1040.881209	-22.413611
1041.242729	-22.326649
1041.604501	-22.266255
1041.966524	-22.317490
1042.328798	-22.245815
1042.691325	-22.174534
1043.054103	-22.204808
1043.417135	-22.179026
1043.780419	-22.064505
1044.143956	-22.109230
1044.507746	-22.100374
1044.871791	-21.974341
1045.236088	-22.013724
1045.600641	-22.025647
1045.965447	-21.893390
1046.330508	-21.925912
1046.695824	-21.956476
1047.061395	-21.821724
1047.427222	-21.845375
1047.793304	-21.891123
1048.159642	-21.765583
1048.526237	-21.770398
1048.893088	-21.835156
1049.260196	-21.711165
1049.627561	-21.714456
1049.995183	-21.774124
1050.363063	-21.678328
1050.731201	-21.650800
1051.099597	-21.730554
1051.468251	-21.641997
1051.837164	-21.603601
1052.206336	-21.689830
1052.575767	-21.612704
1052.945458	-21.562162
1053.315409	-21.648167
1053.685619	-21.592464
1054.056090	-21.516445
1054.426821	-21.620043
1054.797814	-21.557830
1055.169067	-21.485957
1055.540582	-21.580109
1055.912359	-21.529545
1056.284398	-21.438891
1056.656698	-21.541991
1057.029262	-21.483420
1057.402088	-21.398270
1057.775177	-21.491699
1058.148530	-21.430524
1058.522146	-21.347537
1058.896027	-21.425462
1059.270171	-21.375501
1059.644580	-21.278874
1060.019254	-21.360268
1060.394193	-21.297799
1060.769397	-21.214625
1061.144867	-21.275319
1061.520602	-21.222801
1061.896604	-21.124370
1062.272872	-21.191920
1062.649407	-21.124207
1063.026210	-21.040817
1063.403279	-21.090511
1063.780616	-21.024135
1064.158221	-20.939476
1064.536094	-20.979402
1064.914235	-20.921287
1065.292645	-20.825495
1065.671325	-20.878390
1066.050273	-20.796323
1066.429491	-20.726267
1066.808979	-20.759380
1067.188738	-20.690106
1067.568766	-20.613673
1067.949066	-20.658678
1068.329636	-20.578340
1068.710478	-20.520033
1069.091592	-20.559630
1069.472977	-20.475689
1069.854635	-20.434342
1070.236565	-20.463589
1070.618768	-20.394890
1071.001243	-20.345601
1071.383993	-20.390576
1071.767016	-20.302648
1072.150313	-20.277406
1072.533884	-20.317524
1072.917730	-20.224273
1073.301850	-20.218711
1073.686246	-20.242261
1074.070917	-20.163896
1074.455864	-20.159179
1074.841087	-20.191369
1075.226586	-20.097925
1075.612362	-20.125493
1075.998415	-20.138367
1076.384745	-20.056919
1076.771353	-20.098064
1077.158238	-20.096148
1077.545401	-20.028781
1077.932843	-20.076062
1078.320564	-20.070729
1078.708564	-20.000281
1079.096842	-20.069077
1079.485401	-20.032752
1079.874240	-19.983033
1080.263358	-20.054951
1080.652757	-19.989740
1081.042438	-19.966273
1081.432399	-20.020302
1081.822641	-19.944125
1082.213166	-19.936708
1082.603972	-19.971049
1082.995061	-19.889896
1083.386433	-19.892768
1083.778087	-19.914346
1084.170025	-19.820046
1084.562246	-19.844929
1084.954751	-19.838044
1085.347541	-19.754753
1085.740615	-19.787617
1086.133973	-19.759498
1086.527617	-19.676831
1086.921546	-19.732019
1087.315761	-19.659706
1087.710262	-19.619521
1088.105050	-19.647891
1088.500124	-19.569318
1088.895485	-19.535291
1089.291134	-19.560834
1089.687070	-19.463417
1090.083294	-19.446702
1090.479806	-19.459314
1090.876607	-19.333356
1091.273696	-19.364037
1091.671075	-19.316895
1092.068744	-19.225300
1092.466702	-19.246844
1092.864950	-19.187422
1093.263489	-19.105033
1093.662319	-19.135829
1094.061440	-19.053077
1094.460852	-18.999376
1094.860555	-19.036606
1095.260551	-18.929972
1095.660840	-18.921811
1096.061421	-18.936674
1096.462295	-18.839436
1096.863462	-18.863889
1097.264923	-18.859679
1097.666678	-18.772303
1098.068727	-18.824086
1098.471071	-18.792261
1098.873710	-18.730653
1099.276644	-18.797359
1099.679874	-18.725470
1100.083400	-18.710348
1100.487222	-18.754682
1100.891340	-18.668697
1101.295756	-18.687104
1101.700468	-18.695592
1102.105478	-18.612062
1102.510787	-18.657119
1102.916393	-18.615237
1103.322298	-18.556753
1103.728502	-18.605432
1104.135005	-18.527080
1104.541807	-18.511464
1104.948909	-18.534090
1105.356312	-18.441143
1105.764015	-18.471360
1106.172019	-18.451461
1106.580324	-18.385817
1106.988931	-18.426728
1107.397840	-18.378738
1107.807051	-18.345137
1108.216564	-18.390893
1108.626380	-18.317990
1109.036500	-18.326808
1109.446923	-18.347092
1109.857649	-18.274734
1110.268680	-18.312485
1110.680016	-18.292860
1111.091657	-18.239197
1111.503602	-18.285315
1111.915854	-18.224496
1112.328411	-18.199543
1112.741275	-18.215630
1113.154445	-18.144418
1113.567922	-18.136799
1113.981706	-18.116511
1114.395798	-18.033371
1114.810198	-18.046219
1115.224906	-17.976847
1115.639923	-17.921206
1116.055249	-17.917817
1116.470884	-17.817542
1116.886829	-17.802739
1117.303084	-17.764318
1117.719650	-17.673461
1118.136526	-17.679157
1118.553713	-17.610136
1118.971212	-17.554732
1119.389022	-17.564870
1119.807145	-17.478029
1120.225580	-17.472668
1120.644328	-17.461421
1121.063389	-17.395537
1121.482763	-17.419019
1121.902452	-17.383465
1122.322454	-17.360296
1122.742771	-17.390168
1123.163404	-17.341008
1123.584351	-17.366125
1124.005614	-17.362978
1124.427193	-17.342638
1124.849089	-17.383333
1125.271301	-17.350221
1125.693830	-17.360688
1126.116677	-17.387576
1126.539842	-17.347609
1126.963324	-17.376673
1127.387126	-17.368293
1127.811246	-17.338157
1128.235685	-17.368093
1128.660444	-17.322957
1129.085522	-17.313221
1129.510922	-17.315200
1129.936641	-17.258543
1130.362682	-17.260662
1130.789044	-17.217180
1131.215728	-17.180267
1131.642734	-17.169673
1132.070063	-17.102160
1132.497714	-17.082420
1132.925689	-17.044476
1133.353987	-16.986306
1133.782610	-16.969380
1134.211556	-16.911239
1134.640827	-16.866429
1135.070424	-16.851382
1135.500345	-16.784391
1135.930593	-16.757258
1136.361166	-16.733083
1136.792067	-16.669795
1137.223294	-16.672580
1137.654848	-16.607073
1138.086730	-16.599926
1138.518940	-16.573188
1138.951479	-16.523003
1139.384346	-16.539032
1139.817543	-16.474673
1140.251069	-16.488225
1140.684925	-16.455294
1141.119111	-16.428687
1141.553628	-16.433351
1141.988475	-16.400639
1142.423655	-16.394849
1142.859166	-16.375636
1143.295009	-16.362866
1143.731185	-16.354213
1144.167694	-16.334768
1144.604536	-16.315793
1145.041711	-16.324369
1145.479221	-16.275801
1145.917065	-16.297386
1146.355245	-16.253060
1146.793759	-16.250397
1147.232609	-16.241734
1147.671795	-16.198607
1148.111317	-16.211376
1148.551177	-16.164765
1148.991373	-16.168368
1149.431907	-16.130434
1149.872779	-16.114978
1150.313989	-16.100181
1150.755538	-16.072925
1151.197426	-16.041171
1151.639653	-16.039922
1152.082220	-15.994777
1152.525128	-15.988042
1152.968376	-15.951087
1153.411966	-15.934459
1153.855897	-15.916917
1154.300169	-15.873095
1154.744784	-15.875390
1155.189742	-15.831476
1155.635042	-15.820524
1156.080687	-15.797330
1156.526674	-15.765902
1156.973007	-15.758008
1157.419683	-15.732016
1157.866705	-15.699286
1158.314072	-15.703353
1158.761786	-15.661985
1159.209845	-15.651255
1159.658251	-15.639665
1160.107004	-15.599771
1160.556104	-15.619572
1161.005553	-15.559224
1161.455349	-15.569739
1161.905494	-15.562008
1162.355989	-15.509402
1162.806832	-15.533995
1163.258026	-15.497184
1163.709570	-15.484117
1164.161464	-15.482551
1164.613710	-15.448715
1165.066307	-15.451502
1165.519256	-15.439110
1165.972558	-15.399435
1166.426212	-15.428189
1166.880219	-15.381319
1167.334580	-15.372588
1167.789295	-15.386743
1168.244364	-15.334861
1168.699788	-15.345987
1169.155567	-15.338952
1169.611702	-15.288256
1170.068193	-15.331728
1170.525041	-15.262251
1170.982245	-15.274392
1171.439807	-15.279687
1171.897726	-15.206549
1172.356004	-15.255073
1172.814640	-15.202347
1173.273635	-15.177713
1173.732989	-15.207664
1174.192703	-15.123922
1174.652778	-15.161763
1175.113213	-15.120028
1175.574009	-15.077791
1176.035167	-15.114737
1176.496687	-15.027295
1176.958569	-15.048953
1177.420814	-15.025118
1177.883422	-14.961524
1178.346394	-14.998801
1178.809730	-14.920580
1179.273430	-14.921978
1179.737496	-14.902596
1180.201927	-14.845289
1180.666723	-14.864639
1181.131886	-14.793818
1181.597416	-14.794627
1182.063312	-14.768701
1182.529576	-14.713700
1182.996209	-14.730274
1183.463209	-14.660479
1183.930579	-14.663630
1184.398317	-14.625913
1184.866426	-14.591346
1185.334904	-14.588386
1185.803754	-14.527943
1186.272974	-14.541645
1186.742566	-14.482272
1187.212529	-14.470236
1187.682865	-14.460667
1188.153574	-14.399536
1188.624656	-14.414228
1189.096112	-14.364199
1189.567942	-14.349130
1190.040147	-14.332334
1190.512726	-14.289422
1190.985681	-14.299053
1191.459012	-14.240275
1191.932720	-14.244412
1192.406804	-14.221597
1192.881265	-14.176776
1193.356104	-14.192199
1193.831322	-14.142091
1194.306918	-14.135813
1194.782893	-14.119901
1195.259248	-14.087009
1195.735982	-14.086180
1196.213097	-14.053268
1196.690593	-14.043874
1197.168471	-14.025896
1197.646730	-14.004661
1198.125371	-13.995891
1198.604395	-13.971617
1199.083803	-13.962006
1199.563594	-13.948882
1200.043769	-13.920670
1200.524329	-13.929332
1201.005273	-13.893079
1201.486604	-13.887648
1201.968320	-13.886630
1202.450422	-13.847605
1202.932912	-13.857865
1203.415789	-13.837829
1203.899054	-13.815449
1204.382707	-13.822564
1204.866748	-13.789071
1205.351179	-13.796070
1205.836000	-13.767689
1206.321211	-13.767468
1206.806812	-13.749273
1207.292805	-13.735156
1207.779189	-13.733607
1208.265965	-13.700381
1208.753134	-13.714892
1209.240696	-13.676951
1209.728651	-13.673087
1210.217000	-13.673605
1210.705744	-13.627152
1211.194883	-13.648081
1211.684417	-13.611682
1212.174347	-13.601030
1212.664673	-13.593611
1213.155396	-13.566514
1213.646516	-13.562777
1214.138034	-13.534212
1214.629951	-13.531127
1215.122266	-13.500525
1215.614980	-13.497861
1216.108095	-13.467447
1216.601609	-13.457816
1217.095524	-13.443997
1217.589841	-13.408611
1218.084559	-13.416369
1218.579679	-13.376873
1219.075202	-13.366130
1219.571128	-13.357247
1220.067458	-13.319999
1220.564191	-13.322864
1221.061330	-13.290246
1221.558874	-13.277207
1222.056823	-13.266562
1222.555178	-13.235021
1223.053940	-13.232379
1223.553109	-13.208333
1224.052686	-13.191378
1224.552671	-13.179723
1225.053065	-13.161165
1225.553867	-13.145666
1226.055079	-13.133956
1226.556702	-13.114497
1227.058735	-13.106409
1227.561179	-13.090055
1228.064035	-13.072730
1228.567303	-13.072141
1229.070983	-13.046129
1229.575077	-13.043241
1230.079585	-13.032743
1230.584506	-13.013288
1231.089842	-13.016734
1231.595594	-12.992881
1232.101761	-12.994612
1232.608345	-12.982003
1233.115345	-12.969149
1233.622762	-12.972106
1234.130597	-12.952319
1234.638851	-12.956106
1235.147523	-12.940160
1235.656615	-12.942474
1236.166126	-12.929467
1236.676058	-12.927661
1237.186411	-12.922096
1237.697185	-12.915090
1238.208381	-12.912746
1238.719999	-12.906042
1239.232040	-12.903808
1239.744505	-12.897966
1240.257394	-12.895433
1240.770708	-12.889347
1241.284446	-12.891536
1241.798610	-12.877849
1242.313201	-12.886850
1242.828218	-12.873219
1243.343662	-12.874389
1243.859534	-12.873767
1244.375834	-12.860736
1244.892563	-12.872890
1245.409721	-12.850946
1245.927309	-12.863702
1246.445327	-12.850509
1246.963777	-12.847284
1247.482657	-12.849799
1248.001970	-12.834382
1248.521716	-12.842653
1249.041894	-12.825159
1249.562506	-12.829307
1250.083553	-12.820097
1250.605034	-12.811803
1251.126950	-12.810948
1251.649302	-12.797118
1252.172091	-12.797737
1252.695316	-12.781497
1253.218979	-12.780258
1253.743079	-12.767127
1254.267619	-12.758470
1254.792597	-12.750735
1255.318015	-12.734971
1255.843874	-12.733063
1256.370173	-12.707555
1256.896913	-12.711670
1257.424095	-12.683208
1257.951720	-12.682278
1258.479787	-12.661441
1259.008298	-12.645893
1259.537254	-12.642704
1260.066654	-12.605040
1260.596499	-12.619388
1261.126790	-12.570565
1261.657527	-12.584113
1262.188711	-12.544482
1262.720342	-12.538791
1263.252422	-12.524686
1263.784950	-12.489292
1264.317928	-12.500236
1264.851355	-12.448945
1265.385232	-12.464394
1265.919560	-12.418160
1266.454340	-12.419382
1266.989572	-12.394037
1267.525256	-12.372682
1268.061394	-12.367159
1268.597985	-12.333169
1269.135031	-12.334209
1269.672531	-12.298977
1270.210487	-12.298172
1270.748899	-12.269175
1271.287768	-12.262612
1271.827094	-12.238959
1272.366877	-12.229522
1272.907119	-12.210027
1273.447820	-12.196282
1273.988981	-12.183781
1274.530601	-12.165284
1275.072683	-12.157766
1275.615226	-12.136726
1276.158230	-12.130665
1276.701697	-12.113599
1277.245627	-12.101874
1277.790021	-12.093306
1278.334879	-12.075818
1278.880202	-12.072813
1279.425991	-12.053306
1279.972245	-12.051122
1280.518966	-12.036470
1281.066155	-12.028320
1281.613811	-12.021891
1282.161936	-12.008307
1282.710529	-12.008398
1283.259593	-11.991028
1283.809126	-11.995638
1284.359131	-11.978072
1284.909607	-11.982903
1285.460555	-11.967085
1286.011976	-11.972819
1286.563870	-11.959539
1287.116237	-11.963203
1287.669080	-11.955172
1288.222397	-11.955976
1288.776191	-11.953280
1289.330460	-11.949387
1289.885207	-11.953842
1290.440431	-11.947311
1290.996133	-11.953706
1291.552314	-11.949170
1292.108975	-11.954780
1292.666115	-11.954790
1293.223737	-11.954738
1293.781839	-11.963002
1294.340424	-11.958228
1294.899491	-11.971748
1295.459041	-11.963154
1296.019075	-11.981144
1296.579593	-11.971746
1297.140597	-11.988560
1297.702086	-11.982793
1298.264061	-11.996751
1298.826524	-11.995512
1299.389474	-12.003153
1299.952912	-12.009058
1300.516839	-12.011422
1301.081255	-12.020993
1301.646162	-12.020073
1302.211559	-12.031996
1302.777448	-12.030926
1303.343829	-12.039282
1303.910702	-12.042861
1304.478069	-12.045877
1305.045930	-12.054245
1305.614285	-12.049609
1306.183136	-12.065178
1306.752483	-12.054011
1307.322326	-12.073120
1307.892666	-12.057980
1308.463504	-12.079244
1309.034841	-12.062622
1309.606677	-12.081050
1310.179012	-12.067934
1310.751849	-12.081350
1311.325186	-12.072457
1311.899025	-12.078657
1312.473366	-12.077031
1313.048211	-12.075455
1313.623559	-12.078598
1314.199412	-12.071726
1314.775770	-12.078820
1315.352634	-12.068109
1315.930004	-12.075293
1316.507881	-12.065055
1317.086266	-12.070153
1317.665159	-12.061006
1318.244562	-12.062384
1318.824474	-12.056656
1319.404897	-12.053633
1319.985831	-12.049949
1320.567276	-12.043585
1321.149234	-12.042309
1321.731706	-12.032630
1322.314691	-12.031421
1322.898190	-12.021681
1323.482205	-12.019075
1324.066736	-12.009641
1324.651783	-12.004015
1325.237347	-11.997951
1325.823430	-11.988068
1326.410031	-11.984126
1326.997151	-11.971570
1327.584791	-11.969588
1328.172952	-11.955089
1328.761634	-11.952518
1329.350839	-11.939425
1329.940566	-11.934863
1330.530817	-11.923574
1331.121592	-11.915641
1331.712891	-11.908124
1332.304716	-11.896757
1332.897068	-11.891446
1333.489946	-11.877872
1334.083352	-11.874443
1334.677287	-11.859790
1335.271750	-11.855704
1335.866744	-11.842313
1336.462268	-11.836878
1337.058323	-11.824841
1337.654910	-11.816741
1338.252029	-11.807778
1338.849682	-11.797006
1339.447869	-11.789599
1340.046591	-11.777145
1340.645848	-11.771149
1341.245641	-11.758582
1341.845972	-11.750650
1342.446840	-11.740430
1343.048246	-11.730787
1343.650191	-11.721508
1344.252677	-11.710867
1344.855702	-11.701967
1345.459269	-11.692313
1346.063379	-11.680967
1346.668030	-11.674228
1347.273226	-11.660392
1347.878965	-11.656269
1348.485250	-11.639395
1349.092080	-11.638700
1349.699456	-11.619705
1350.307380	-11.619299
1350.915851	-11.602137
1351.524871	-11.598721
1352.134441	-11.586590
1352.744560	-11.575967
1353.355231	-11.572993
1353.966453	-11.554275
1354.578227	-11.557517
1355.190555	-11.535133
1355.803436	-11.541544
1356.416872	-11.518334
1357.030863	-11.522861
1357.645411	-11.505049
1358.260515	-11.503554
1358.876177	-11.492457
1359.492397	-11.484277
1360.109176	-11.480516
1360.726516	-11.467629
1361.344416	-11.465671
1361.962877	-11.454354
1362.581901	-11.450419
1363.201487	-11.441865
1363.821637	-11.435393
1364.442352	-11.429451
1365.063632	-11.423032
1365.685478	-11.415088
1366.307891	-11.413107
1366.930871	-11.401049
1367.554420	-11.403727
1368.178538	-11.387695
1368.803226	-11.393440
1369.428485	-11.377705
1370.054315	-11.380132
1370.680717	-11.370869
1371.307693	-11.365618
1371.935242	-11.364372
1372.563366	-11.352493
1373.192065	-11.355276
1373.821341	-11.342468
1374.451193	-11.343955
1375.081623	-11.334232
1375.712632	-11.331933
1376.344221	-11.326071
1376.976389	-11.321396
1377.609139	-11.315701
1378.242470	-11.313216
1378.876384	-11.304105
1379.510881	-11.305781
1380.145963	-11.293035
1380.781629	-11.296744
1381.417881	-11.285211
1382.054720	-11.284837
1382.692147	-11.279726
1383.330161	-11.272127
1383.968765	-11.273445
1384.607959	-11.261519
1385.247743	-11.263699
1385.888119	-11.253519
1386.529087	-11.252059
1387.170648	-11.245451
1387.812804	-11.240674
1388.455554	-11.235000
1389.098899	-11.231538
1389.742842	-11.221596
1390.387381	-11.222785
1391.032519	-11.209148
1391.678256	-11.211526
1392.324592	-11.199463
1392.971529	-11.197413
1393.619068	-11.191259
1394.267208	-11.183034
1394.915952	-11.180867
1395.565300	-11.171464
1396.215253	-11.167804
1396.865812	-11.161621
1397.516977	-11.155220
1398.168749	-11.150530
1398.821130	-11.145440
1399.474120	-11.137499
1400.127719	-11.136996
1400.781930	-11.125132
1401.436752	-11.127155
1402.092186	-11.115008
1402.748234	-11.115191
1403.404897	-11.106521
1404.062174	-11.102920
1404.720067	-11.097414
1405.378577	-11.092884
1406.037705	-11.086937
1406.697451	-11.084806
1407.357817	-11.076867
1408.018803	-11.076375
1408.680410	-11.069613
1409.342639	-11.066041
1410.005492	-11.064046
1410.668968	-11.056186
1411.333068	-11.057009
1411.997795	-11.048934
1412.663147	-11.048664
1413.329127	-11.043945
1413.995736	-11.041863
1414.662973	-11.038602
1415.330840	-11.038648
1415.999339	-11.033315
1416.668469	-11.037474
1417.338232	-11.029958
1418.008628	-11.034924
1418.679659	-11.030155
1419.351325	-11.031242
1420.023628	-11.030896
1420.696568	-11.030601
1421.370145	-11.030437
1422.044362	-11.033356
1422.719219	-11.031919
1423.394717	-11.037570
1424.070856	-11.038481
1424.747638	-11.042129
1425.425064	-11.048282
1426.103134	-11.049548
1426.781850	-11.057405
1427.461212	-11.059387
1428.141221	-11.065978
1428.821878	-11.069841
1429.503185	-11.075259
1430.185141	-11.079327
1430.867749	-11.087977
1431.551008	-11.090057
1432.234920	-11.102993
1432.919486	-11.106431
1433.604707	-11.119824
1434.290583	-11.128382
1434.977116	-11.140184
1435.664307	-11.151233
1436.352156	-11.164657
1437.040664	-11.172609
1437.729833	-11.187831
1438.419663	-11.194263
1439.110156	-11.206365
1439.801312	-11.215464
1440.493132	-11.223719
1441.185617	-11.235147
1441.878768	-11.245275
1442.572586	-11.256961
1443.267072	-11.272032
1443.962228	-11.286604
1444.658053	-11.303614
1445.354549	-11.323986
1446.051717	-11.340246
1446.749558	-11.363955
1447.448073	-11.379298
1448.147263	-11.399696
1448.847128	-11.415243
1449.547671	-11.429579
1450.248891	-11.440400
1450.950789	-11.454098
1451.653368	-11.457734
1452.356627	-11.471025
1453.060568	-11.475330
1453.765192	-11.486499
1454.470500	-11.497563
1455.176492	-11.511034
1455.883170	-11.526544
1456.590534	-11.549521
1457.298586	-11.566985
1458.007327	-11.594576
1458.716758	-11.617604
1459.426880	-11.640570
1460.137693	-11.663660
1460.849199	-11.680214
1461.561398	-11.693005
1462.274293	-11.701939
1462.987883	-11.701036
1463.702170	-11.698055
1464.417155	-11.690148
1465.132838	-11.674405
1465.849222	-11.664511
1466.566306	-11.647870
1467.284093	-11.637061
1468.002582	-11.630519
1468.721775	-11.627862
1469.441674	-11.631039
1470.162278	-11.646512
1470.883590	-11.659466
1471.605609	-11.688252
1472.328338	-11.714913
1473.051777	-11.746036
1473.775928	-11.778163
1474.500790	-11.807877
1475.226367	-11.828493
1475.952657	-11.850149
1476.679663	-11.853454
1477.407386	-11.853759
1478.135826	-11.842919
1478.864985	-11.821707
1479.594863	-11.796153
1480.325463	-11.768307
1481.056784	-11.735730
1481.788828	-11.713012
1482.521597	-11.693374
1483.255090	-11.685468
1483.989309	-11.695652
1484.724256	-11.718120
1485.459931	-11.763322
1486.196336	-11.830595
1486.933471	-11.916059
1487.671337	-12.025812
1488.409937	-12.157641
1489.149270	-12.301523
1489.889337	-12.467944
1490.630141	-12.637883
1491.371682	-12.813231
1492.113961	-12.985631
1492.856979	-13.144492
1493.600738	-13.278857
1494.345238	-13.393598
1495.090481	-13.463564
1495.836467	-13.504711
1496.583198	-13.509627
1497.330675	-13.482991
1498.078899	-13.435104
1498.827872	-13.380394
1499.577593	-13.316521
1500.328065	-13.270999
1501.079289	-13.241554
1501.831265	-13.239055
1502.583995	-13.276248
1503.337480	-13.353366
1504.091721	-13.473484
1504.846719	-13.648603
1505.602475	-13.868769
1506.358991	-14.136806
1507.116268	-14.452679
1507.874306	-14.793943
1508.633108	-15.153414
1509.392673	-15.502448
1510.153004	-15.802032
1510.914101	-16.015815
1511.675965	-16.113266
1512.438599	-16.052843
1513.202002	-15.854191
1513.966176	-15.525975
1514.731122	-15.106068
1515.496842	-14.635986
1516.263336	-14.154779
1517.030607	-13.675659
1517.798654	-13.232938
1518.567479	-12.825351
1519.337083	-12.460789
1520.107468	-12.143575
1520.878634	-11.870500
1521.650584	-11.634487
1522.423317	-11.441204
1523.196836	-11.275699
1523.971141	-11.138031
1524.746233	-11.023061
1525.522115	-10.920925
1526.298786	-10.826505
1527.076249	-10.735735
1527.854504	-10.634351
1528.633553	-10.522345
1529.413397	-10.388817
1530.194037	-10.228696
1530.975474	-10.041059
1531.757709	-9.823818
1532.540745	-9.577573
1533.324581	-9.312632
1534.109220	-9.029994
1534.894662	-8.743511
1535.680909	-8.460678
1536.467961	-8.191118
1537.255821	-7.944289
1538.044489	-7.729444
1538.833967	-7.550515
1539.624256	-7.418700
1540.415357	-7.334516
1541.207271	-7.305308
1542.000000	-7.334829
1542.793545	-7.425958
1543.587907	-7.581420
1544.383087	-7.808018
1545.179088	-8.104217
1545.975909	-8.478629
1546.773552	-8.934218
1547.572019	-9.476522
1548.371311	-10.114163
1549.171428	-10.858818
1549.972373	-11.719463
1550.774147	-12.721810
1551.576751	-13.888400
1552.380185	-15.259595
1553.184453	-16.901470
1553.989554	-18.913552
1554.795490	-21.468226
1555.602263	-24.906376
1556.409873	-29.635340
1557.218322	-32.309571
1558.027612	-28.020638
1558.837743	-24.101432
1559.648717	-21.349521
1560.460536	-19.313615
1561.273200	-17.747198
1562.086710	-16.495913
1562.901069	-15.477681
1563.716278	-14.642323
1564.532337	-13.949763
1565.349249	-13.375978
1566.167014	-12.905518
1566.985634	-12.522315
1567.805111	-12.215801
1568.625444	-11.981859
1569.446637	-11.809258
1570.268690	-11.696322
1571.091605	-11.637832
1571.915382	-11.630041
1572.740024	-11.668474
1573.565532	-11.754667
1574.391907	-11.878881
1575.219150	-12.044817
1576.047262	-12.246291
1576.876246	-12.481223
1577.706103	-12.744514
1578.536833	-13.038797
1579.368439	-13.350961
1580.200922	-13.685524
1581.034282	-14.033144
1581.868522	-14.390898
1582.703643	-14.750314
1583.539646	-15.113273
1584.376532	-15.463090
1585.214304	-15.803417
1586.052962	-16.123869
1586.892508	-16.419053
1587.732943	-16.682684
1588.574269	-16.916944
1589.416487	-17.107881
1590.259599	-17.260846
1591.103605	-17.374326
1591.948508	-17.442986
1592.794309	-17.471835
1593.641009	-17.464382
1594.488609	-17.419564
1595.337112	-17.340956
1596.186518	-17.239756
1597.036829	-17.108672
1597.888047	-16.960702
1598.740172	-16.796296
1599.593207	-16.620178
1600.447153	-16.430571
1601.302010	-16.241604
1602.157782	-16.042725
1603.014469	-15.845653
1603.872072	-15.649163
1604.730593	-15.457265
1605.590034	-15.266727
1606.450397	-15.089083
1607.311681	-14.916022
1608.173890	-14.754746
1609.037024	-14.605791
1609.901085	-14.469057
1610.766075	-14.343213
1611.631995	-14.233529
1612.498846	-14.134389
1613.366630	-14.046066
1614.235349	-13.970933
1615.105004	-13.903032
1615.975596	-13.842160
1616.847128	-13.788127
1617.719600	-13.737898
1618.593014	-13.686750
1619.467372	-13.639845
1620.342675	-13.588744
1621.218924	-13.536183
1622.096122	-13.480621
1622.974270	-13.422636
1623.853369	-13.357663
1624.733420	-13.293573
1625.614427	-13.223121
1626.496389	-13.151584
1627.379308	-13.078292
1628.263187	-13.005922
1629.148026	-12.931118
1630.033828	-12.862155
1630.920593	-12.793480
1631.808324	-12.729363
1632.697022	-12.670092
1633.586688	-12.616350
1634.477324	-12.565368
1635.368932	-12.522060
1636.261514	-12.481954
1637.155070	-12.445198
1638.049602	-12.413066
1638.945113	-12.383288
1639.841603	-12.354029
1640.739075	-12.326984
1641.637529	-12.300363
1642.536968	-12.271349
1643.437393	-12.243585
1644.338806	-12.213265
1645.241209	-12.181605
1646.144602	-12.148542
1647.048988	-12.115840
1647.954368	-12.079975
1648.860744	-12.046939
1649.768118	-12.012820
1650.676491	-11.980436
1651.585865	-11.948994
1652.496241	-11.921461
1653.407621	-11.893363
1654.320008	-11.870353
1655.233401	-11.848461
1656.147804	-11.829287
1657.063218	-11.811638
1657.979645	-11.797224
1658.897085	-11.781887
1659.815542	-11.769061
1660.735016	-11.756199
1661.655509	-11.743018
1662.577023	-11.729943
1663.499560	-11.717461
1664.423121	-11.704004
1665.347709	-11.691141
1666.273324	-11.679980
1667.199969	-11.668187
1668.127645	-11.658756
1669.056353	-11.650345
1669.986097	-11.643489
1670.916877	-11.637043
1671.848695	-11.633726
1672.781553	-11.629321
1673.715452	-11.627565
1674.650395	-11.625691
1675.586383	-11.625293
1676.523418	-11.623971
1677.461501	-11.625440
1678.400635	-11.624989
1679.340821	-11.626266
1680.282061	-11.627592
1681.224357	-11.629563
1682.167710	-11.631250
1683.112122	-11.634763
1684.057595	-11.638155
1685.004132	-11.642163
1685.951732	-11.647755
1686.900400	-11.653423
1687.850135	-11.660133
1688.800940	-11.667487
1689.752818	-11.676131
1690.705768	-11.683951
1691.659795	-11.694326
1692.614898	-11.703594
1693.571081	-11.714415
1694.528345	-11.724854
1695.486691	-11.737270
1696.446122	-11.748265
1697.406640	-11.762007
1698.368245	-11.775200
1699.330941	-11.789589
1700.294729	-11.804299
1701.259611	-11.820445
1702.225588	-11.836090
1703.192664	-11.852930
1704.160838	-11.870520
1705.130114	-11.887658
1706.100493	-11.906374
1707.071977	-11.925109
1708.044568	-11.944640
1709.018268	-11.963943
1709.993079	-11.985287
1710.969003	-12.004816
1711.946041	-12.026298
1712.924196	-12.047031
1713.903469	-12.068545
1714.883862	-12.089271
1715.865378	-12.112216
1716.848017	-12.133805
1717.831783	-12.156929
1718.816677	-12.180438
1719.802701	-12.203939
1720.789857	-12.227403
1721.778147	-12.251498
1722.767573	-12.275188
1723.758136	-12.298248
1724.749840	-12.322873
1725.742685	-12.345965
1726.736673	-12.370237
1727.731808	-12.394237
1728.728090	-12.419081
1729.725521	-12.442794
1730.724105	-12.468555
1731.723842	-12.492680
1732.724735	-12.517637
1733.726785	-12.542372
1734.729995	-12.567087
1735.734366	-12.590943
1736.739902	-12.615674
1737.746603	-12.639705
1738.754472	-12.663306
1739.763510	-12.688006
1740.773721	-12.711901
1741.785105	-12.736391
1742.797665	-12.761039
1743.811403	-12.786361
1744.826321	-12.810515
1745.842422	-12.835998
1746.859706	-12.859783
1747.878177	-12.883833
1748.897835	-12.907413
1749.918685	-12.931120
1750.940726	-12.954296
1751.963963	-12.978680
1752.988395	-13.002811
1754.014027	-13.027103
1755.040860	-13.052543
1756.068895	-13.077302
1757.098135	-13.102452
1758.128583	-13.127784
1759.160240	-13.153508
1760.193109	-13.178231
1761.227191	-13.204781
1762.262488	-13.230616
1763.299004	-13.257103
1764.336740	-13.284092
1765.375697	-13.312009
1766.415880	-13.339297
1767.457288	-13.367632
1768.499926	-13.396262
1769.543794	-13.424218
1770.588895	-13.452414
1771.635231	-13.480601
1772.682805	-13.508386
1773.731619	-13.535417
1774.781674	-13.563544
1775.832973	-13.590845
1776.885519	-13.618294
1777.939312	-13.645621
1778.994357	-13.673137
1780.050654	-13.698989
1781.108207	-13.725160
1782.167017	-13.750546
1783.227087	-13.774949
1784.288418	-13.799300
1785.351013	-13.823683
1786.414875	-13.847561
1787.480006	-13.871259
1788.546407	-13.895470
1789.614082	-13.918383
1790.683032	-13.941634
1791.753259	-13.964136
1792.824767	-13.986639
1793.897557	-14.008732
1794.971632	-14.031573
1796.046994	-14.053870
1797.123645	-14.076519
1798.201588	-14.098751
1799.280824	-14.120360
1800.361357	-14.141984
1801.443188	-14.163110
1802.526320	-14.184613
1803.610756	-14.206058
1804.696497	-14.228150
1805.783546	-14.249297
1806.871906	-14.270921
1807.961578	-14.291243
1809.052565	-14.311210
1810.144870	-14.330499
1811.238494	-14.349349
1812.333441	-14.367755
1813.429713	-14.386134
1814.527311	-14.404668
1815.626239	-14.422319
1816.726499	-14.440294
1817.828094	-14.456713
1818.931025	-14.472809
1820.035295	-14.487784
1821.140906	-14.502750
1822.247862	-14.517145
1823.356165	-14.531904
1824.465816	-14.546507
1825.576819	-14.560552
1826.689175	-14.574412
1827.802888	-14.586999
1828.917960	-14.599293
1830.034394	-14.610458
1831.152191	-14.621723
1832.271354	-14.632279
1833.391887	-14.643155
1834.513790	-14.653453
1835.637068	-14.663312
1836.761722	-14.672593
1837.887755	-14.681043
1839.015169	-14.689321
1840.143968	-14.697095
1841.274153	-14.705394
1842.405727	-14.713132
1843.538693	-14.721255
1844.673053	-14.728510
1845.808810	-14.735359
1846.945966	-14.741648
1848.084525	-14.747587
1849.224488	-14.753462
1850.365858	-14.759136
1851.508638	-14.765071
1852.652831	-14.770087
1853.798438	-14.775066
1854.945463	-14.778703
1856.093909	-14.781768
1857.243777	-14.784070
1858.395071	-14.785912
1859.547794	-14.787135
1860.701947	-14.787793
1861.857533	-14.787906
1863.014556	-14.786823
1864.173018	-14.785446
1865.332922	-14.782898
1866.494270	-14.779668
1867.657065	-14.775472
1868.821309	-14.770236
1869.987006	-14.764165
1871.154158	-14.757851
1872.322768	-14.751463
1873.492839	-14.744631
1874.664373	-14.737796
1875.837373	-14.729970
1877.011841	-14.721529
1878.187782	-14.712372
1879.365197	-14.702473
1880.544089	-14.692099
1881.724460	-14.681785
1882.906315	-14.671542
1884.089655	-14.661179
1885.274483	-14.651029
1886.460803	-14.640012
1887.648616	-14.628535
1888.837927	-14.616583
1890.028736	-14.604341
1891.221049	-14.592284
1892.414866	-14.580542
1893.610192	-14.568707
1894.807028	-14.556731
1896.005379	-14.544855
1897.205246	-14.532453
1898.406633	-14.520092
1899.609542	-14.507473
1900.813977	-14.494402
1902.019940	-14.481180
1903.227434	-14.467860
1904.436462	-14.454587
1905.647028	-14.441703
1906.859133	-14.429240
1908.072781	-14.416593
1909.287976	-14.404068
1910.504719	-14.391125
1911.723013	-14.377803
1912.942863	-14.364498
1914.164270	-14.351383
1915.387238	-14.338530
1916.611770	-14.326076
1917.837868	-14.313429
1919.065536	-14.300046
1920.294777	-14.286384
1921.525594	-14.271979
1922.757989	-14.257218
1923.991967	-14.242156
1925.227529	-14.226270
1926.464679	-14.209772
1927.703420	-14.192614
1928.943755	-14.174824
1930.185688	-14.156816
1931.429221	-14.138948
1932.674356	-14.120922
1933.921099	-14.103062
1935.169451	-14.085302
1936.419415	-14.067367
1937.670996	-14.049652
1938.924195	-14.031773
1940.179017	-14.013921
1941.435463	-13.996377
1942.693538	-13.978911
1943.953245	-13.961431
1945.214586	-13.943836
1946.477566	-13.925831
1947.742186	-13.907683
1949.008451	-13.889992
1950.276363	-13.872684
1951.545926	-13.856005
1952.817143	-13.839463
1954.090017	-13.822426
1955.364551	-13.805490
1956.640749	-13.789112
1957.918615	-13.774029
1959.198150	-13.760357
1960.479359	-13.747144
1961.762244	-13.733661
1963.046810	-13.719741
1964.333059	-13.705722
1965.620995	-13.692435
1966.910621	-13.680245
1968.201940	-13.668563
1969.494956	-13.656805
1970.789672	-13.644369
1972.086091	-13.631333
1973.384217	-13.618357
1974.684053	-13.605563
1975.985602	-13.593015
1977.288869	-13.580447
1978.593855	-13.567582
1979.900566	-13.554316
1981.209003	-13.540582
1982.519171	-13.526643
1983.831073	-13.512803
1985.144712	-13.499182
1986.460093	-13.485282
1987.777217	-13.470724
1989.096089	-13.455591
1990.416713	-13.440370
1991.739092	-13.425523
1993.063228	-13.410490
1994.389127	-13.394636
1995.716791	-13.377910
1997.046223	-13.361013
1998.377428	-13.344881
1999.710409	-13.329303
2001.045169	-13.313441
2002.381713	-13.296633
2003.720043	-13.279072
2005.060163	-13.261714
2006.402077	-13.245414
2007.745788	-13.230427
2009.091301	-13.216342
2010.438618	-13.202422
2011.787743	-13.188238
2013.138680	-13.174182
2014.491433	-13.161232
2015.846005	-13.150268
2017.202399	-13.141267
2018.560621	-13.133086
2019.920673	-13.124720
2021.282558	-13.116033
2022.646281	-13.107644
2024.011846	-13.100544
2025.379256	-13.095056
2026.748515	-13.090665
2028.119626	-13.086484
2029.492594	-13.081903
2030.867422	-13.077092
2032.244114	-13.072468
2033.622673	-13.068325
2035.003104	-13.064836
2036.385411	-13.061864
2037.769597	-13.059226
2039.155665	-13.056656
2040.543621	-13.053679
2041.933467	-13.050109
2043.325208	-13.046228
2044.718847	-13.042616
2046.114389	-13.039787
2047.511837	-13.037211
2048.911195	-13.033914
2050.312467	-13.029240
2051.715657	-13.023268
2053.120769	-13.017269
2054.527807	-13.012246
2055.936775	-13.007980
2057.347677	-13.003674
2058.760516	-12.998541
2060.175297	-12.992714
2061.592025	-12.986808
2063.010701	-12.981328
2064.431332	-12.976663
2065.853921	-12.972216
2067.278472	-12.967257
2068.704988	-12.961846
2070.133475	-12.956577
2071.563936	-12.952315
2072.996375	-12.949033
2074.430796	-12.946421
2075.867204	-12.944373
2077.305603	-12.942566
2078.745996	-12.941489
2080.188389	-12.941605
2081.632784	-12.942945
2083.079187	-12.945481
2084.527601	-12.948729
2085.978030	-12.952640
2087.430480	-12.957146
2088.884954	-12.962318
2090.341455	-12.968721
2091.799990	-12.976196
2093.260561	-12.984576
2094.723173	-12.993438
2096.187831	-13.002517
2097.654538	-13.012065
2099.123300	-13.021876
2100.594119	-13.031948
2102.067001	-13.041817
2103.541950	-13.051419
2105.018971	-13.061364
2106.498067	-13.071596
2107.979243	-13.081892
2109.462503	-13.091330
2110.947853	-13.099659
2112.435295	-13.107665
2113.924836	-13.116230
2115.416478	-13.125544
2116.910227	-13.134558
2118.406087	-13.143149
2119.904063	-13.151559
2121.404158	-13.160295
2122.906378	-13.169460
2124.410727	-13.178227
2125.917210	-13.186801
2127.425831	-13.195770
2128.936594	-13.205904
2130.449505	-13.216627
2131.964567	-13.227010
2133.481786	-13.237013
2135.001166	-13.246918
2136.522711	-13.257636
2138.046427	-13.269161
2139.572317	-13.281442
2141.100388	-13.294193
2142.630642	-13.307794
2144.163085	-13.322919
2145.697722	-13.338854
2147.234558	-13.355017
2148.773596	-13.371663
2150.314842	-13.390287
2151.858301	-13.410681
2153.403977	-13.431249
2154.951875	-13.451937
2156.502000	-13.474422
2158.054357	-13.499454
2159.608950	-13.525244
2161.165785	-13.550949
2162.724866	-13.577564
2164.286198	-13.606171
2165.849786	-13.635881
2167.415635	-13.665431
2168.983749	-13.694881
2170.554134	-13.724850
2172.126795	-13.755448
2173.701737	-13.785713
2175.278964	-13.814427
2176.858481	-13.840557
2178.440294	-13.864861
2180.024408	-13.888910
2181.610827	-13.913894
2183.199557	-13.940309
2184.790602	-13.969935
2186.383968	-14.004607
2187.979660	-14.043490
2189.577683	-14.082872
2191.178041	-14.119955
2192.780741	-14.153849
2194.385787	-14.182678
2195.993185	-14.203333
2197.602939	-14.214665
2199.215054	-14.213372
