# 2022-03-22_00.18.54
# shape = sech2
# FWHM_ps = 0.1
# carrier_nm = 1542
# frep_MHz = 12126
# pow_mW = 8000
# GDD = 0.0
# propa_len = 0.13933333333333334
# untap_len = 0.01
# taper_len = 0.07933333333333334
# waist_len = 0.02
# uptap_len = 0.02
# untap_scale = 1.0
# waist_scale = 0.1473684210526316
# workingDir = NL_20110305_12 (Spirou)
# axis = slow
# window_ps = 10.0
# steps = 200
# points = 21700
# 
# wavelength [nm]	 power spectral density [dB]
600.043425	-82.817877
600.163550	-82.081396
600.283723	-82.346014
600.403943	-83.865280
600.524212	-85.128651
600.644529	-85.197550
600.764895	-87.548161
600.885308	-93.783598
601.005770	-95.066474
601.126280	-96.909330
601.246839	-101.297247
601.367446	-90.535504
601.488101	-90.873405
601.608804	-95.352739
601.729557	-88.702897
601.850357	-88.735779
601.971206	-93.810854
602.092104	-90.845395
602.213050	-90.619803
602.334045	-103.313735
602.455089	-90.827150
602.576181	-90.726545
602.697322	-95.694793
602.818511	-87.893725
602.939749	-88.574436
603.061036	-93.365726
603.182372	-90.249561
603.303757	-90.260346
603.425191	-99.898609
603.546673	-96.630247
603.668204	-102.750641
603.789785	-95.025990
603.911414	-91.245927
604.033092	-94.570253
604.154820	-105.952665
604.276596	-109.387980
604.398422	-94.271838
604.520297	-89.200493
604.642220	-89.196898
604.764193	-88.311002
604.886216	-85.486496
605.008287	-84.828555
605.130408	-85.529889
605.252578	-84.729526
605.374798	-82.941892
605.497066	-84.062676
605.619385	-86.407631
605.741752	-85.483841
605.864169	-85.435502
605.986636	-90.745198
606.109152	-99.385706
606.231718	-92.744316
606.354333	-97.810198
606.476998	-90.462243
606.599712	-89.272272
606.722476	-97.249509
606.845290	-87.923235
606.968154	-86.045916
607.091067	-94.390915
607.214030	-88.121493
607.337043	-86.554370
607.460106	-97.105655
607.583219	-87.713097
607.706381	-87.062981
607.829594	-90.965080
607.952856	-84.931191
608.076169	-84.062219
608.199531	-87.660654
608.322944	-86.238865
608.446407	-85.995295
608.569920	-92.283880
608.693483	-94.818451
608.817096	-91.437430
608.940759	-97.733936
609.064473	-94.573741
609.188237	-87.915127
609.312051	-90.178277
609.435916	-94.360688
609.559831	-85.102035
609.683796	-84.451058
609.807812	-87.838832
609.931878	-83.098107
610.055995	-80.875016
610.180162	-84.945842
610.304380	-86.809085
610.428648	-83.105620
610.552967	-85.426557
610.677337	-96.344168
610.801757	-96.115814
610.926228	-88.508531
611.050750	-87.178277
611.175323	-92.065762
611.299946	-99.504692
611.424620	-90.469402
611.549345	-86.201298
611.674121	-87.420174
611.798948	-94.035537
611.923826	-85.735621
612.048755	-85.592872
612.173734	-95.392098
612.298765	-89.560260
612.423847	-92.524510
612.548980	-95.898496
612.674165	-88.177082
612.799400	-88.731135
612.924687	-87.099367
613.050025	-84.117478
613.175414	-85.607934
613.300854	-89.855730
613.426346	-89.078030
613.551889	-91.193559
613.677484	-103.857348
613.803130	-98.919473
613.928827	-104.414710
614.054576	-90.522489
614.180377	-88.736470
614.306229	-94.017317
614.432132	-91.986696
614.558087	-87.707142
614.684094	-87.143480
614.810153	-89.148447
614.936263	-86.019917
615.062425	-84.107059
615.188639	-87.275727
615.314904	-86.722507
615.441222	-85.298555
615.567591	-91.185231
615.694012	-97.779599
615.820486	-94.107171
615.947011	-92.989791
616.073588	-90.230690
616.200217	-93.383272
616.326898	-92.269672
616.453632	-89.996616
616.580417	-94.932876
616.707255	-104.809298
616.834144	-98.583931
616.961086	-95.318804
617.088081	-95.525258
617.215127	-100.819354
617.342226	-101.072542
617.469378	-91.324166
617.596581	-89.169407
617.723837	-93.932062
617.851146	-87.238135
617.978507	-83.835408
618.105920	-87.482028
618.233386	-91.183514
618.360905	-85.877093
618.488476	-93.916858
618.616100	-91.572202
618.743777	-88.639082
618.871506	-104.749555
618.999288	-87.365595
619.127123	-84.789209
619.255011	-89.707119
619.382951	-85.095303
619.510945	-80.983052
619.638991	-81.660479
619.767090	-80.893609
619.895243	-78.309231
620.023448	-79.401999
620.151706	-82.643692
620.280017	-81.939381
620.408382	-84.758385
620.536799	-114.248142
620.665270	-91.391725
620.793794	-89.253107
620.922371	-82.896401
621.051002	-81.142278
621.179686	-83.301660
621.308423	-82.855948
621.437213	-82.994402
621.566057	-88.985120
621.694954	-96.017501
621.823905	-95.162805
621.952909	-89.343200
622.081967	-87.889597
622.211079	-86.898968
622.340244	-83.908935
622.469462	-83.369220
622.598735	-83.207318
622.728061	-82.876294
622.857441	-82.759677
622.986874	-82.977608
623.116361	-85.206619
623.245903	-85.084676
623.375498	-85.987105
623.505147	-93.512505
623.634850	-89.581922
623.764606	-90.704009
623.894417	-89.262946
624.024282	-83.930706
624.154201	-86.591853
624.284174	-87.068427
624.414202	-85.040345
624.544283	-89.939533
624.674419	-100.164741
624.804609	-90.712291
624.934853	-88.105312
625.065151	-93.035420
625.195504	-93.269572
625.325911	-89.602628
625.456373	-97.002328
625.586889	-96.870593
625.717460	-88.854186
625.848085	-88.525024
625.978764	-89.394517
626.109498	-85.557592
626.240287	-88.817004
626.371131	-95.028121
626.502029	-93.340461
626.632982	-94.866624
626.763989	-88.964893
626.895052	-93.574933
627.026169	-84.598067
627.157341	-84.519595
627.288568	-89.809720
627.419850	-83.504484
627.551187	-84.081491
627.682579	-90.220665
627.814026	-84.377222
627.945528	-84.720375
628.077085	-99.635655
628.208697	-90.023261
628.340364	-101.878355
628.472087	-85.242002
628.603865	-85.287134
628.735698	-84.943163
628.867586	-80.475016
628.999530	-82.740704
629.131529	-82.502321
629.263584	-81.481427
629.395694	-84.338997
629.527859	-84.394203
629.660080	-84.377820
629.792357	-85.098190
629.924689	-82.514532
630.057077	-82.194330
630.189520	-82.353586
630.322019	-80.073692
630.454574	-81.774684
630.587184	-84.583655
630.719851	-81.024393
630.852573	-80.911692
630.985351	-84.859392
631.118185	-80.983458
631.251075	-80.781635
631.384021	-89.427131
631.517023	-86.981287
631.650081	-85.328830
631.783195	-84.717256
631.916365	-87.138415
632.049592	-79.951238
632.182874	-79.858970
632.316213	-82.343680
632.449608	-80.936465
632.583059	-85.464278
632.716567	-90.635149
632.850131	-100.611390
632.983751	-92.214960
633.117428	-97.617474
633.251161	-86.146996
633.384951	-90.836966
633.518797	-88.675708
633.652700	-87.870906
633.786660	-90.501643
633.920676	-85.283497
634.054749	-92.518123
634.188879	-80.234304
634.323065	-84.152692
634.457308	-84.820697
634.591608	-81.535554
634.725965	-91.676509
634.860379	-94.308060
634.994850	-84.755438
635.129377	-82.803377
635.263962	-85.437065
635.398604	-79.495281
635.533303	-81.720389
635.668058	-83.077016
635.802872	-80.999680
635.937742	-87.830548
636.072669	-91.487576
636.207654	-89.694832
636.342696	-90.128734
636.477796	-104.610124
636.612953	-95.254569
636.748167	-91.908323
636.883439	-87.680590
637.018768	-84.620184
637.154155	-80.711313
637.289599	-82.353492
637.425101	-80.362870
637.560660	-80.759411
637.696277	-86.615403
637.831952	-85.737366
637.967685	-97.552088
638.103475	-86.629258
638.239324	-88.763512
638.375230	-81.957214
638.511194	-81.481516
638.647215	-84.489957
638.783295	-84.099330
638.919433	-86.931540
639.055629	-90.912298
639.191883	-89.428806
639.328195	-88.816499
639.464565	-92.380948
639.600994	-88.750109
639.737481	-87.324853
639.874025	-105.130075
640.010629	-89.779033
640.147290	-100.534013
640.284010	-81.603950
640.420789	-82.232915
640.557625	-83.679870
640.694521	-81.159775
640.831474	-90.449526
640.968487	-88.077393
641.105558	-94.461323
641.242687	-83.485667
641.379876	-82.830131
641.517123	-80.632157
641.654429	-79.750724
641.791793	-82.248574
641.929216	-83.817418
642.066699	-90.910401
642.204240	-95.536576
642.341840	-85.917001
642.479499	-83.106514
642.617217	-81.413868
642.754994	-80.400901
642.892830	-82.525098
643.030726	-82.337030
643.168680	-84.554968
643.306694	-91.771853
643.444767	-90.633218
643.582899	-86.887098
643.721091	-89.051732
643.859342	-87.164316
643.997652	-85.596199
644.136022	-90.585858
644.274451	-89.563055
644.412940	-85.867348
644.551488	-80.065193
644.690096	-78.790505
644.828763	-78.521404
644.967490	-78.097268
645.106277	-80.713047
645.245124	-82.614538
645.384030	-89.616383
645.522997	-93.746972
645.662023	-91.894234
645.801109	-82.075330
645.940255	-82.882769
646.079460	-81.224555
646.218726	-82.400303
646.358052	-83.751847
646.497438	-82.197907
646.636884	-82.670436
646.776391	-79.713069
646.915957	-81.823811
647.055584	-78.131783
647.195271	-81.420016
647.335019	-78.202242
647.474826	-81.994078
647.614695	-83.512794
647.754623	-87.536112
647.894612	-86.670970
648.034662	-88.438901
648.174772	-84.840356
648.314943	-85.592368
648.455174	-86.299363
648.595466	-84.065412
648.735819	-88.491649
648.876233	-85.009900
649.016707	-87.818740
649.157242	-82.470720
649.297838	-84.936175
649.438495	-81.858811
649.579213	-90.030281
649.719992	-86.928926
649.860832	-93.679586
650.001733	-83.464818
650.142695	-86.727843
650.283718	-81.963206
650.424803	-83.816233
650.565949	-80.353949
650.707156	-80.159346
650.848424	-79.610716
650.989754	-80.159162
651.131145	-83.116261
651.272597	-85.789935
651.414111	-91.125925
651.555687	-105.965976
651.697324	-93.924960
651.839022	-86.269487
651.980782	-85.058701
652.122604	-81.063145
652.264488	-79.239683
652.406433	-78.460896
652.548441	-77.424050
652.690510	-78.906651
652.832640	-77.940801
652.974833	-80.579104
653.117088	-78.974785
653.259405	-82.475308
653.401784	-83.805961
653.544224	-95.008597
653.686727	-87.397473
653.829293	-89.173928
653.971920	-80.511407
654.114609	-82.763078
654.257361	-78.616448
654.400175	-83.142735
654.543052	-80.858034
654.685991	-83.943829
654.828992	-82.613178
654.972056	-85.600515
655.115183	-82.984166
655.258372	-83.418491
655.401623	-82.305227
655.544937	-81.615455
655.688314	-80.549449
655.831754	-80.297486
655.975256	-81.020482
656.118822	-78.863011
656.262450	-77.811754
656.406141	-78.010090
656.549894	-81.074488
656.693711	-81.523846
656.837591	-85.494634
656.981534	-87.080128
657.125540	-87.776562
657.269610	-85.355392
657.413742	-83.661477
657.557938	-81.975373
657.702196	-81.683492
657.846519	-86.487125
657.990904	-89.034572
658.135353	-89.527274
658.279866	-86.469964
658.424441	-89.117564
658.569081	-84.433104
658.713784	-84.340448
658.858550	-81.307463
659.003381	-82.158211
659.148274	-77.628228
659.293232	-82.215451
659.438253	-77.118733
659.583339	-82.623745
659.728488	-76.692104
659.873701	-84.611988
660.018978	-77.844062
660.164318	-85.227743
660.309723	-80.192219
660.455192	-90.500452
660.600725	-80.981321
660.746323	-90.646618
660.891984	-83.178716
661.037710	-94.611555
661.183500	-80.863170
661.329354	-90.203189
661.475272	-78.249917
661.621255	-85.151059
661.767303	-78.809033
661.913415	-88.650738
662.059591	-83.195558
662.205833	-101.481126
662.352138	-79.847345
662.498509	-88.957900
662.644944	-78.544861
662.791443	-88.258225
662.938008	-79.395296
663.084638	-86.776699
663.231332	-77.695246
663.378091	-81.337587
663.524915	-78.022947
663.671804	-78.824295
663.818759	-77.557353
663.965778	-77.380053
664.112863	-82.000030
664.260012	-82.285528
664.407227	-93.413890
664.554507	-89.940729
664.701853	-80.224612
664.849264	-81.643269
664.996740	-80.667957
665.144282	-84.708971
665.291889	-83.109674
665.439561	-83.901557
665.587300	-81.041922
665.735103	-80.743429
665.882973	-79.561087
666.030908	-79.257775
666.178909	-81.961750
666.326976	-78.649326
666.475109	-85.666815
666.623307	-82.226553
666.771571	-91.348205
666.919902	-89.133426
667.068298	-82.829810
667.216761	-87.765343
667.365289	-78.372268
667.513884	-83.833733
667.662545	-76.530070
667.811272	-78.225060
667.960065	-75.649429
668.108925	-77.843903
668.257851	-77.438681
668.406843	-79.060546
668.555902	-83.206616
668.705027	-83.497633
668.854219	-81.741510
669.003478	-80.564009
669.152803	-84.579145
669.302195	-82.563278
669.451653	-88.518064
669.601179	-90.099791
669.750771	-82.897966
669.900430	-79.843251
670.050156	-79.176788
670.199949	-77.118591
670.349808	-77.787409
670.499735	-78.622595
670.649729	-81.285637
670.799790	-81.218250
670.949918	-79.167951
671.100114	-80.789290
671.250377	-76.182353
671.400707	-79.715473
671.551104	-77.526688
671.701569	-80.397852
671.852101	-83.827273
672.002700	-87.798479
672.153368	-79.644508
672.304102	-83.401698
672.454905	-81.452862
672.605775	-84.234626
672.756713	-83.763471
672.907718	-84.491732
673.058791	-84.103832
673.209933	-91.277695
673.361142	-84.000692
673.512419	-87.413841
673.663764	-82.129527
673.815177	-86.280537
673.966658	-79.639828
674.118207	-86.475634
674.269825	-79.245680
674.421510	-84.506915
674.573264	-77.968570
674.725086	-84.834725
674.876977	-77.860737
675.028936	-91.304237
675.180963	-79.996871
675.333059	-89.891802
675.485224	-83.605599
675.637457	-83.376963
675.789758	-89.619857
675.942129	-83.649532
676.094568	-91.931280
676.247075	-80.827404
676.399652	-101.794225
676.552298	-83.200159
676.705012	-87.192118
676.857795	-77.257012
677.010648	-81.365405
677.163569	-75.378503
677.316560	-77.768313
677.469619	-76.270508
677.622748	-77.216224
677.775946	-82.282315
677.929214	-76.078155
678.082551	-78.288446
678.235957	-74.402896
678.389432	-74.730765
678.542977	-78.771748
678.696592	-76.682877
678.850276	-88.699230
679.004030	-78.481797
679.157853	-76.422653
679.311746	-79.613543
679.465709	-73.582983
679.619742	-76.565192
679.773844	-74.666249
679.928017	-74.007774
680.082259	-78.069070
680.236571	-74.109923
680.390954	-74.382836
680.545406	-72.777585
680.699929	-71.158914
680.854522	-75.205931
681.009185	-74.043567
681.163918	-81.660845
681.318722	-77.522994
681.473596	-91.377793
681.628540	-90.721243
681.783555	-78.174493
681.938641	-77.039461
682.093797	-76.640920
682.249023	-73.921677
682.404321	-83.253447
682.559689	-75.842673
682.715128	-82.493653
682.870637	-76.785250
683.026218	-76.569354
683.181869	-77.257549
683.337591	-75.956392
683.493385	-78.652258
683.649249	-77.143598
683.805185	-79.525105
683.961191	-83.862268
684.117269	-74.408921
684.273418	-79.383938
684.429639	-73.924293
684.585930	-80.068792
684.742294	-75.628256
684.898728	-83.885187
685.055234	-83.204712
685.211812	-81.111387
685.368461	-80.978256
685.525182	-75.835231
685.681975	-75.987224
685.838839	-74.377462
685.995775	-74.971720
686.152783	-75.981759
686.309863	-77.170617
686.467014	-80.985337
686.624238	-82.865810
686.781534	-89.544572
686.938902	-83.891953
687.096342	-77.779097
687.253854	-77.283254
687.411438	-73.417292
687.569095	-77.871272
687.726824	-74.529879
687.884626	-81.830858
688.042499	-77.706555
688.200446	-80.483273
688.358465	-82.481898
688.516556	-72.898765
688.674720	-75.644765
688.832957	-70.568987
688.991266	-77.365568
689.149649	-73.042189
689.308104	-84.537833
689.466632	-77.229544
689.625233	-81.310721
689.783906	-80.770420
689.942653	-77.121198
690.101473	-87.681816
690.260367	-73.053000
690.419333	-80.341905
690.578372	-72.763731
690.737485	-77.175589
690.896672	-71.563369
691.055931	-77.091353
691.215264	-74.426488
691.374671	-97.528568
691.534151	-91.137741
691.693704	-76.331150
691.853332	-79.200312
692.013033	-72.867155
692.172807	-75.042108
692.332656	-73.966674
692.492578	-83.543665
692.652575	-88.997567
692.812645	-76.553859
692.972789	-73.482289
693.133007	-69.471407
693.293300	-68.903026
693.453666	-70.407554
693.614107	-70.676281
693.774622	-71.815787
693.935211	-74.228346
694.095875	-88.237010
694.256613	-88.253759
694.417426	-79.266557
694.578313	-76.929649
694.739274	-74.654258
694.900311	-77.428931
695.061421	-82.765638
695.222607	-75.281062
695.383868	-94.642428
695.545203	-74.660956
695.706613	-78.905417
695.868098	-76.210520
696.029658	-74.613464
696.191293	-76.675874
696.353003	-75.762440
696.514789	-88.772319
696.676649	-72.679208
696.838585	-78.638389
697.000596	-74.818724
697.162682	-73.478709
697.324844	-74.307875
697.487081	-75.749971
697.649394	-79.666559
697.811782	-77.726470
697.974246	-84.237825
698.136786	-78.016141
698.299401	-80.652852
698.462092	-76.133341
698.624859	-75.445341
698.787702	-73.232548
698.950621	-74.330573
699.113616	-72.552220
699.276686	-75.276825
699.439833	-77.190775
699.603056	-78.135102
699.766355	-87.582887
699.929731	-73.650281
700.093183	-76.923443
700.256711	-74.293868
700.420315	-71.331326
700.583996	-74.111756
700.747754	-73.642709
700.911588	-77.914793
701.075499	-75.758349
701.239486	-72.689634
701.403550	-73.968472
701.567691	-72.449061
701.731909	-81.746526
701.896203	-72.945452
702.060575	-78.628288
702.225024	-72.960769
702.389549	-76.781101
702.554152	-81.814557
702.718832	-73.602852
702.883589	-79.238494
703.048424	-73.543366
703.213335	-71.387937
703.378324	-71.364172
703.543391	-68.553124
703.708535	-71.868313
703.873757	-70.284976
704.039056	-82.540796
704.204433	-77.469745
704.369887	-75.433394
704.535420	-75.022846
704.701030	-76.889173
704.866718	-77.356423
705.032484	-81.040970
705.198328	-77.117998
705.364250	-72.349631
705.530250	-74.535632
705.696328	-70.851889
705.862485	-79.166882
706.028720	-79.557360
706.195033	-74.140974
706.361424	-87.968312
706.527894	-71.439393
706.694442	-73.650858
706.861069	-69.783868
707.027775	-71.451136
707.194559	-73.774922
707.361422	-74.274751
707.528363	-83.432831
707.695384	-73.940423
707.862483	-73.808751
708.029661	-77.591992
708.196918	-73.451375
708.364254	-77.650951
708.531670	-69.377957
708.699164	-69.101741
708.866738	-68.541233
709.034391	-76.032530
709.202123	-83.810803
709.369935	-78.674183
709.537826	-74.646116
709.705796	-73.735760
709.873847	-71.670045
710.041976	-71.407894
710.210186	-67.965559
710.378475	-76.381645
710.546844	-71.723375
710.715292	-74.814615
710.883821	-78.913493
711.052429	-72.764136
711.221118	-76.800746
711.389887	-80.478701
711.558735	-75.428660
711.727664	-73.455308
711.896673	-68.374987
712.065763	-68.045745
712.234932	-70.851939
712.404183	-80.301303
712.573513	-74.767930
712.742924	-71.964341
712.912416	-69.390093
713.081988	-70.661787
713.251641	-79.366553
713.421375	-69.900266
713.591190	-72.286618
713.761085	-69.471038
713.931061	-68.072731
714.101119	-77.486752
714.271257	-70.547819
714.441476	-74.065597
714.611777	-74.604413
714.782159	-70.223710
714.952622	-80.056783
715.123166	-69.052445
715.293792	-68.279924
715.464499	-70.303242
715.635288	-65.976358
715.806158	-68.833665
715.977110	-67.321554
716.148143	-69.767040
716.319259	-71.703623
716.490456	-73.425870
716.661735	-71.139571
716.833096	-68.426900
717.004538	-69.500471
717.176063	-71.817285
717.347670	-73.338999
717.519359	-73.425798
717.691130	-68.772644
717.862984	-66.844853
718.034920	-67.506308
718.206938	-69.173892
718.379039	-74.805321
718.551222	-71.076842
718.723488	-67.389018
718.895836	-65.550265
719.068267	-66.284980
719.240781	-69.111631
719.413377	-66.729019
719.586057	-65.847047
719.758819	-63.651068
719.931664	-66.826087
720.104593	-75.243207
720.277604	-72.339802
720.450699	-66.366552
720.623876	-64.125442
720.797137	-63.447086
720.970482	-72.732609
721.143910	-68.340489
721.317421	-65.668965
721.491016	-66.531985
721.664694	-62.775091
721.838456	-64.667028
722.012302	-65.780074
722.186231	-67.383947
722.360244	-72.744477
722.534342	-69.257691
722.708523	-66.886220
722.882788	-67.049286
723.057137	-65.860702
723.231570	-65.936421
723.406088	-65.070312
723.580689	-62.656074
723.755375	-62.244544
723.930146	-64.145558
724.105000	-66.534119
724.279940	-69.336438
724.454963	-67.557971
724.630072	-63.447594
724.805265	-63.699086
724.980543	-64.014793
725.155905	-64.695289
725.331353	-70.573841
725.506885	-68.018444
725.682503	-62.386010
725.858205	-63.245110
726.033993	-63.591302
726.209865	-65.270646
726.385823	-67.385479
726.561866	-63.382508
726.737995	-62.977716
726.914209	-64.977582
727.090508	-63.553217
727.266893	-63.872629
727.443364	-62.987042
727.619920	-61.905367
727.796562	-64.299585
727.973290	-65.969933
728.150103	-66.539258
728.327003	-65.753541
728.503988	-64.066753
728.681060	-62.778560
728.858218	-63.365517
729.035461	-63.089720
729.212791	-61.117040
729.390208	-61.045645
729.567710	-60.976498
729.745299	-61.298564
729.922975	-63.826572
730.100737	-64.687539
730.278586	-63.060750
730.456521	-64.469327
730.634543	-64.749674
730.812652	-63.481904
730.990848	-62.400241
731.169130	-60.267173
731.347500	-61.937254
731.525957	-66.772789
731.704500	-63.491569
731.883131	-60.757286
732.061850	-60.726734
732.240655	-61.012529
732.419548	-63.953596
732.598528	-66.302179
732.777596	-62.840901
732.956751	-61.274123
733.135994	-61.621526
733.315325	-61.027251
733.494744	-61.414769
733.674250	-61.797166
733.853844	-60.878112
734.033526	-60.467967
734.213296	-60.292377
734.393154	-60.509457
734.573101	-61.748022
734.753135	-62.675831
734.933258	-62.347353
735.113469	-62.777471
735.293769	-64.794151
735.474157	-62.944580
735.654633	-59.259624
735.835198	-59.105572
736.015852	-61.420078
736.196594	-63.497711
736.377426	-61.663412
736.558346	-59.890618
736.739355	-59.464804
736.920453	-61.082068
737.101640	-65.962513
737.282916	-63.997032
737.464282	-59.268532
737.645736	-57.872658
737.827280	-58.728228
738.008914	-60.481206
738.190637	-63.400817
738.372449	-62.263084
738.554351	-59.829270
738.736342	-59.917326
738.918424	-61.146885
739.100595	-62.204395
739.282855	-62.005960
739.465206	-60.172827
739.647647	-58.681736
739.830178	-60.164151
740.012799	-61.558949
740.195510	-61.350621
740.378311	-61.116954
740.561203	-59.851502
740.744185	-58.797070
740.927258	-61.208705
741.110421	-63.772623
741.293674	-61.212941
741.477018	-59.873360
741.660453	-61.451883
741.843979	-62.275339
742.027596	-60.475537
742.211303	-59.162510
742.395102	-59.228125
742.578991	-62.047844
742.762972	-61.433740
742.947044	-58.636470
743.131207	-58.446581
743.315461	-59.503030
743.499807	-63.096991
743.684244	-64.216017
743.868773	-60.081925
744.053394	-59.354193
744.238106	-59.756275
744.422910	-60.316894
744.607805	-63.261265
744.792793	-62.872214
744.977872	-59.025844
745.163044	-59.366515
745.348307	-61.125044
745.533663	-61.014951
745.719111	-61.230086
745.904651	-59.704092
746.090283	-57.852260
746.276008	-60.958052
746.461826	-66.837994
746.647735	-61.761655
746.833738	-57.830340
747.019833	-57.398370
747.206021	-58.545896
747.392302	-62.381623
747.578676	-64.186679
747.765143	-63.128529
747.951703	-61.136584
748.138356	-60.148735
748.325102	-59.958120
748.511941	-59.780123
748.698874	-59.846603
748.885900	-61.956660
749.073019	-64.577776
749.260232	-62.547976
749.447539	-59.837826
749.634939	-59.750763
749.822433	-60.145769
750.010021	-62.255982
750.197703	-62.978019
750.385479	-61.064101
750.573348	-59.783347
750.761312	-60.324552
750.949370	-60.091182
751.137523	-60.622031
751.325769	-62.217495
751.514110	-61.185573
751.702545	-62.153034
751.891075	-64.286371
752.079700	-61.083483
752.268419	-60.563708
752.457233	-64.456389
752.646142	-63.438360
752.835145	-60.900799
753.024244	-60.796427
753.213437	-61.842622
753.402726	-62.951419
753.592110	-63.848758
753.781589	-63.188063
753.971163	-60.236323
754.160833	-59.875423
754.350598	-61.851098
754.540459	-63.194667
754.730415	-64.144499
754.920467	-64.084964
755.110615	-62.227924
755.300858	-65.302093
755.491198	-65.805268
755.681633	-61.521815
755.872164	-59.513490
756.062792	-62.049161
756.253515	-64.612444
756.444335	-64.918690
756.635252	-62.942842
756.826264	-62.570184
757.017373	-63.294667
757.208579	-66.119244
757.399881	-65.590078
757.591280	-63.240831
757.782776	-65.210274
757.974368	-66.409215
758.166058	-61.755732
758.357844	-62.076924
758.549728	-65.709628
758.741708	-68.612133
758.933786	-65.214494
759.125961	-65.261055
759.318233	-63.045853
759.510603	-62.867960
759.703071	-70.135300
759.895635	-69.657276
760.088298	-62.210474
760.281058	-66.090828
760.473916	-70.015544
760.666872	-61.878719
760.859926	-61.748368
761.053078	-65.478377
761.246328	-65.950231
761.439676	-76.265401
761.633122	-70.602437
761.826667	-66.245355
762.020310	-62.504811
762.214052	-63.808708
762.407892	-66.662294
762.601831	-68.604729
762.795868	-65.042608
762.990004	-66.552297
763.184239	-74.169364
763.378573	-62.004679
763.573006	-62.978035
763.767538	-61.975810
763.962169	-71.225329
764.156900	-65.872956
764.351729	-65.265694
764.546658	-62.101258
764.741687	-70.252523
764.936815	-74.771182
765.132042	-65.932661
765.327370	-60.295136
765.522797	-64.966044
765.718324	-69.695915
765.913950	-71.032978
766.109677	-62.639297
766.305504	-62.952683
766.501431	-64.051279
766.697458	-64.837083
766.893586	-65.195612
767.089814	-64.248035
767.286142	-69.943819
767.482571	-66.852062
767.679100	-62.271407
767.875730	-60.362464
768.072461	-70.342802
768.269293	-79.741728
768.466225	-63.818668
768.663259	-59.838523
768.860393	-63.437811
769.057629	-63.979713
769.254966	-63.593146
769.452404	-61.585295
769.649944	-62.608688
769.847585	-60.134361
770.045328	-62.571408
770.243172	-68.464029
770.441118	-64.696744
770.639166	-59.258379
770.837315	-62.094681
771.035567	-67.833699
771.233920	-59.155525
771.432376	-58.091777
771.630934	-63.186143
771.829594	-63.829327
772.028356	-59.701574
772.227220	-58.463293
772.426188	-59.069729
772.625257	-60.312329
772.824430	-59.997476
773.023705	-59.135454
773.223083	-58.146012
773.422563	-60.564086
773.622147	-63.378341
773.821834	-60.604822
774.021624	-56.530859
774.221517	-56.262154
774.421513	-60.686582
774.621613	-60.405816
774.821816	-56.533335
775.022122	-57.560402
775.222532	-61.800772
775.423046	-60.148357
775.623664	-55.064410
775.824385	-55.389273
776.025211	-60.054900
776.226140	-58.901524
776.427173	-55.336110
776.628311	-57.001924
776.829553	-58.241673
777.030899	-58.308364
777.232350	-57.631318
777.433905	-55.659814
777.635564	-53.108264
777.837328	-54.674755
778.039197	-60.048888
778.241171	-57.216496
778.443250	-54.112782
778.645433	-56.821368
778.847722	-58.518472
779.050116	-56.830693
779.252615	-54.209909
779.455219	-53.895917
779.657929	-56.664691
779.860744	-55.325506
780.063665	-52.638564
780.266691	-55.028691
780.469823	-58.167218
780.673061	-54.511785
780.876405	-52.310468
781.079855	-54.186514
781.283410	-57.131015
781.487072	-55.443728
781.690840	-52.498156
781.894715	-52.896136
782.098695	-55.335246
782.302783	-55.527278
782.506976	-52.600968
782.711277	-52.966740
782.915684	-53.484173
783.120198	-52.745663
783.324818	-52.865444
783.529546	-53.434596
783.734381	-53.450503
783.939322	-54.754897
784.144372	-54.067211
784.349528	-51.851937
784.554792	-50.687629
784.760163	-52.559507
784.965642	-54.072857
785.171228	-52.986096
785.376922	-51.379755
785.582724	-51.759302
785.788634	-53.055013
785.994651	-52.715944
786.200777	-52.661641
786.407011	-52.197862
786.613353	-51.111990
786.819804	-51.585122
787.026363	-50.919539
787.233030	-50.966231
787.439806	-52.479869
787.646691	-51.233894
787.853684	-50.256020
788.060786	-52.463179
788.267997	-53.727285
788.475317	-51.054243
788.682746	-49.241464
788.890285	-50.712671
789.097932	-52.517448
789.305689	-50.960644
789.513555	-49.533616
789.721531	-50.440914
789.929617	-52.811454
790.137812	-52.008315
790.346117	-49.695612
790.554531	-49.179434
790.763056	-51.083283
790.971691	-52.147015
791.180436	-49.717622
791.389291	-48.824111
791.598256	-49.905657
791.807332	-51.157070
792.016518	-50.901908
792.225815	-49.539882
792.435222	-50.061776
792.644740	-50.389779
792.854369	-49.267972
793.064109	-49.420390
793.273960	-49.807537
793.483922	-49.911853
793.693995	-49.649667
793.904180	-48.815890
794.114475	-49.368859
794.324882	-50.855939
794.535401	-49.632637
794.746031	-48.094290
794.956774	-49.368080
795.167627	-50.079411
795.378593	-49.081692
795.589671	-49.113930
795.800861	-49.215294
796.012162	-49.373830
796.223577	-48.938691
796.435103	-48.379165
796.646742	-49.196603
796.858493	-48.887626
797.070357	-48.215699
797.282334	-48.459940
797.494423	-49.148054
797.706626	-49.167819
797.918941	-48.257129
798.131369	-48.029777
798.343911	-48.448159
798.556566	-49.648755
798.769334	-48.610382
798.982215	-47.845433
799.195210	-48.450257
799.408319	-48.157202
799.621541	-47.983486
799.834877	-48.430464
800.048327	-48.769074
800.261890	-48.347580
800.475568	-47.318946
800.689360	-47.915079
800.903266	-48.747501
801.117287	-48.127388
801.331422	-47.396455
801.545671	-47.469330
801.760036	-48.412516
801.974514	-49.021560
802.189108	-47.869002
802.403816	-46.575397
802.618640	-47.841554
802.833578	-48.872225
803.048632	-47.292837
803.263800	-47.196446
803.479085	-48.163538
803.694484	-48.061711
803.909999	-47.303404
804.125630	-47.427730
804.341376	-48.113439
804.557239	-47.201336
804.773217	-47.133395
804.989311	-47.960599
805.205521	-47.871736
805.421847	-46.669558
805.638290	-46.774616
805.854849	-48.371809
806.071524	-47.859732
806.288316	-46.558464
806.505225	-46.426053
806.722250	-48.029116
806.939393	-48.759673
807.156652	-46.857873
807.374028	-46.424644
807.591521	-47.270054
807.809132	-47.442262
808.026859	-47.011762
808.244705	-47.217567
808.462667	-47.195419
808.680748	-46.566427
808.898946	-47.206576
809.117261	-47.583135
809.335695	-47.174956
809.554246	-46.720725
809.772916	-46.738427
809.991704	-47.088165
810.210610	-47.107348
810.429634	-47.306724
810.648777	-46.952410
810.868039	-46.427223
811.087419	-46.573513
811.306918	-47.404849
811.526535	-47.337475
811.746272	-46.630344
811.966127	-46.815685
812.186102	-47.059576
812.406196	-47.221210
812.626409	-46.640312
812.846742	-46.525866
813.067194	-46.707556
813.287766	-46.398706
813.508457	-46.727835
813.729269	-46.701308
813.950200	-47.124295
814.171251	-47.034592
814.392422	-46.419886
814.613714	-46.634077
814.835126	-46.992720
815.056658	-47.040382
815.278311	-45.940237
815.500084	-46.309858
815.721978	-47.638920
815.943993	-47.196178
816.166128	-46.230785
816.388385	-46.244255
816.610762	-47.163656
816.833261	-46.636270
817.055881	-45.927086
817.278623	-46.363922
817.501486	-47.476535
817.724471	-46.426287
817.947577	-45.767181
818.170805	-47.097210
818.394155	-47.121818
818.617627	-46.508303
818.841221	-46.144867
819.064937	-46.894915
819.288775	-47.180803
819.512736	-46.061813
819.736819	-46.375256
819.961025	-47.094344
820.185354	-46.510281
820.409805	-45.830908
820.634379	-47.497382
820.859076	-47.524843
821.083897	-45.207264
821.308840	-45.647955
821.533907	-47.532457
821.759097	-47.971461
821.984411	-46.262428
822.209848	-45.949061
822.435409	-46.827871
822.661093	-46.380572
822.886902	-46.319186
823.112834	-47.472996
823.338891	-46.833764
823.565072	-45.795986
823.791377	-46.721419
824.017807	-46.615741
824.244361	-46.177893
824.471039	-46.641391
824.697843	-47.506092
824.924771	-46.969571
825.151824	-45.423186
825.379002	-46.135116
825.606306	-47.443938
825.833734	-46.787317
826.061288	-46.545472
826.288967	-47.360256
826.516772	-46.423003
826.744703	-45.686025
826.972759	-46.243041
827.200941	-47.231742
827.429249	-46.921134
827.657683	-46.181215
827.886243	-46.960713
828.114930	-46.650059
828.343743	-46.308016
828.572682	-46.507047
828.801748	-47.410556
829.030941	-46.313833
829.260260	-45.942163
829.489706	-47.717011
829.719280	-46.550853
829.948980	-45.764869
830.178808	-46.348800
830.408763	-47.161372
830.638845	-46.049532
830.869055	-46.053019
831.099393	-47.995742
831.329858	-46.945488
831.560451	-45.374190
831.791173	-46.289372
832.022022	-47.967157
832.252999	-46.305876
832.484105	-46.261987
832.715339	-47.422593
832.946702	-46.040557
833.178193	-45.673042
833.409813	-47.547486
833.641561	-47.414892
833.873439	-45.530206
834.105445	-45.787339
834.337581	-47.990032
834.569846	-47.145669
834.802241	-45.835427
835.034764	-47.130646
835.267418	-46.588173
835.500201	-45.529228
835.733114	-46.427723
835.966157	-48.269248
836.199329	-46.271306
836.432632	-45.014194
836.666065	-46.678579
836.899629	-47.133769
837.133323	-45.872151
837.367147	-46.052290
837.601102	-47.704366
837.835188	-46.231323
838.069405	-46.037799
838.303752	-46.603553
838.538231	-46.411137
838.772841	-45.615930
839.007582	-45.802870
839.242455	-47.324894
839.477459	-46.228806
839.712595	-46.056238
839.947863	-45.749572
840.183263	-46.812575
840.418794	-46.529318
840.654458	-45.906732
840.890254	-45.943453
841.126182	-46.558346
841.362242	-45.733889
841.598435	-45.097627
841.834761	-47.027065
842.071220	-46.107495
842.307811	-45.043834
842.544536	-45.829384
842.781393	-47.682244
843.018384	-45.019398
843.255508	-44.853370
843.492765	-46.384075
843.730156	-45.691929
843.967681	-44.639552
844.205339	-45.667235
844.443132	-47.072363
844.681058	-44.683358
844.919118	-44.715691
845.157313	-46.177706
845.395642	-45.878996
845.634105	-44.204372
845.872703	-45.021026
846.111436	-45.823264
846.350303	-45.472237
846.589306	-44.753448
846.828443	-45.404294
847.067716	-45.571380
847.307124	-44.875997
847.546667	-44.480919
847.786345	-44.173008
848.026160	-45.824378
848.266110	-44.862516
848.506195	-44.061760
848.746417	-44.706977
848.986775	-45.512768
849.227269	-43.868867
849.467899	-44.026294
849.708666	-45.522190
849.949569	-44.088644
850.190609	-43.507361
850.431785	-44.592463
850.673099	-44.228632
850.914549	-43.552829
851.156137	-44.311631
851.397861	-44.593154
851.639723	-43.640003
851.881723	-43.295567
852.123860	-43.672456
852.366135	-43.906295
852.608547	-43.864722
852.851098	-42.899190
853.093786	-43.262396
853.336613	-44.043485
853.579578	-43.739849
853.822681	-42.647298
854.065923	-43.003773
854.309304	-43.943985
854.552823	-42.909225
854.796481	-42.267468
855.040278	-43.265114
855.284215	-43.356927
855.528290	-42.387135
855.772505	-42.899453
856.016859	-42.855678
856.261353	-42.444523
856.505987	-42.671010
856.750760	-42.352405
856.995673	-42.006877
857.240727	-42.822945
857.485920	-42.043136
857.731254	-41.933535
857.976729	-42.381469
858.222343	-42.248842
858.468099	-41.503378
858.713995	-42.059008
858.960032	-42.227679
859.206211	-41.250095
859.452530	-41.560657
859.698991	-41.620047
859.945593	-41.442656
860.192336	-41.498439
860.439222	-41.575742
860.686248	-41.018431
860.933417	-41.554914
861.180728	-41.466476
861.428181	-40.806290
861.675776	-40.928001
861.923514	-41.259784
862.171394	-40.511706
862.419417	-40.828856
862.667582	-40.821918
862.915890	-40.598670
863.164342	-40.426788
863.412936	-40.994087
863.661674	-40.227114
863.910555	-40.472817
864.159579	-40.666092
864.408747	-39.969557
864.658059	-40.011788
864.907515	-40.356548
865.157114	-39.812415
865.406858	-40.150437
865.656746	-40.008718
865.906778	-39.531573
866.156955	-39.973463
866.407277	-39.948271
866.657743	-39.491385
866.908354	-39.631928
867.159110	-39.839382
867.410011	-39.150782
867.661057	-39.447460
867.912249	-39.131504
868.163586	-39.336634
868.415069	-39.087736
868.666697	-39.347535
868.918472	-38.726557
869.170392	-39.243011
869.422458	-38.931100
869.674671	-38.871097
869.927030	-38.752805
870.179536	-39.211058
870.432188	-38.351833
870.684987	-38.785640
870.937933	-38.471756
871.191026	-38.420512
871.444266	-38.335912
871.697653	-38.666593
871.951188	-37.832620
872.204870	-38.567272
872.458700	-38.102884
872.712677	-38.085891
872.966803	-38.182428
873.221076	-38.074147
873.475498	-37.643077
873.730068	-38.496031
873.984787	-37.675385
874.239654	-37.495946
874.494669	-37.744301
874.749834	-37.548283
875.005147	-37.527798
875.260610	-37.593790
875.516222	-37.246169
875.771983	-37.318108
876.027894	-37.700988
876.283954	-37.025524
876.540164	-37.130352
876.796524	-37.227489
877.053033	-37.088246
877.309693	-36.952580
877.566503	-37.301190
877.823464	-36.640172
878.080575	-37.209324
878.337837	-36.764607
878.595249	-36.652811
878.852813	-36.668229
879.110528	-37.013133
879.368393	-36.219654
879.626410	-36.881575
879.884579	-36.176568
880.142899	-36.772872
880.401371	-36.418315
880.659994	-36.435300
880.918770	-36.028521
881.177698	-36.767789
881.436778	-36.018838
881.696010	-36.437042
881.955395	-36.080208
882.214933	-36.292018
882.474623	-35.987205
882.734467	-36.206593
882.994463	-35.801581
883.254613	-36.356632
883.514916	-35.694058
883.775372	-35.822385
884.035982	-35.908181
884.296746	-35.861074
884.557664	-35.576022
884.818735	-35.817324
885.079961	-35.450492
885.341341	-35.783595
885.602876	-35.459896
885.864565	-35.538003
886.126409	-35.485188
886.388407	-35.537182
886.650561	-35.207714
886.912870	-35.510737
887.175334	-35.397194
887.437953	-35.210722
887.700728	-35.265582
887.963658	-35.262692
888.226745	-35.072750
888.489987	-35.345865
888.753385	-34.928325
889.016940	-35.037662
889.280651	-34.992955
889.544518	-34.823936
889.808543	-35.125797
890.072723	-34.842501
890.337061	-34.611826
890.601556	-34.792986
890.866208	-34.756461
891.131017	-34.835453
891.395984	-34.606383
891.661109	-34.508411
891.926391	-34.563511
892.191831	-34.546199
892.457429	-34.610331
892.723186	-34.450607
892.989100	-34.513940
893.255173	-34.275784
893.521405	-34.470811
893.787796	-34.313427
894.054345	-34.372806
894.321053	-34.321277
894.587921	-34.187510
894.854948	-34.226247
895.122134	-34.123761
895.389480	-34.056269
895.656986	-34.348689
895.924651	-33.826772
896.192477	-34.171183
896.460463	-33.753684
896.728609	-33.911061
896.996915	-33.968955
897.265382	-33.833831
897.534010	-33.797751
897.802799	-33.728052
898.071749	-33.561878
898.340860	-33.858140
898.610132	-33.552174
898.879566	-33.734508
899.149162	-33.479377
899.418919	-33.569739
899.688838	-33.440019
899.958919	-33.504113
900.229162	-33.443591
900.499568	-33.364324
900.770136	-33.369971
901.040867	-33.332767
901.311761	-33.283072
901.582817	-33.142997
901.854037	-33.244266
902.125420	-33.235463
902.396966	-33.130050
902.668676	-33.109540
902.940550	-33.030313
903.212587	-32.988053
903.484788	-33.043304
903.757153	-32.858496
904.029683	-33.104184
904.302377	-32.799664
904.575236	-32.867019
904.848259	-32.811714
905.121447	-32.813752
905.394800	-32.802255
905.668319	-32.720216
905.942002	-32.834056
906.215852	-32.672016
906.489866	-32.670958
906.764047	-32.545778
907.038393	-32.528056
907.312906	-32.658291
907.587584	-32.504844
907.862429	-32.460349
908.137441	-32.419827
908.412619	-32.320491
908.687964	-32.456977
908.963476	-32.218466
909.239155	-32.273929
909.515002	-32.365216
909.791015	-32.192661
910.067197	-32.145253
910.343546	-32.150995
910.620063	-32.028311
910.896748	-32.103852
911.173601	-31.924652
911.450623	-32.180892
911.727813	-31.936920
912.005171	-31.974443
912.282699	-31.876230
912.560395	-31.944590
912.838261	-31.824787
913.116296	-31.684659
913.394500	-31.908944
913.672874	-31.685645
913.951418	-31.794205
914.230131	-31.628151
914.509015	-31.721873
914.788068	-31.629485
915.067292	-31.557745
915.346687	-31.516345
915.626252	-31.600412
915.905988	-31.334267
916.185895	-31.629188
916.465973	-31.333670
916.746223	-31.430048
917.026644	-31.455291
917.307236	-31.237478
917.588000	-31.503677
917.868937	-31.132098
918.150045	-31.390492
918.431325	-31.343007
918.712778	-31.081686
918.994404	-31.376300
919.276202	-31.101166
919.558173	-31.225569
919.840317	-31.159433
920.122634	-30.990152
920.405125	-31.251288
920.687789	-30.941248
920.970627	-31.070483
921.253639	-31.004602
921.536824	-30.829256
921.820184	-31.065038
922.103718	-30.708285
922.387427	-30.916551
922.671310	-30.821307
922.955368	-30.669897
923.239601	-30.906924
923.524009	-30.435699
923.808592	-30.962496
924.093351	-30.520429
924.378285	-30.534731
924.663396	-30.762558
924.948682	-30.313139
925.234144	-30.849769
925.519782	-30.221453
925.805597	-30.599381
926.091589	-30.485463
926.377757	-30.207260
926.664102	-30.587334
926.950624	-30.143887
927.237323	-30.397091
927.524200	-30.231167
927.811255	-30.067813
928.098487	-30.358723
928.385897	-29.943832
928.673485	-30.195815
928.961251	-29.987801
929.249196	-29.895096
929.537319	-30.124186
929.825621	-29.700564
930.114102	-29.992584
930.402762	-29.763123
930.691601	-29.781720
930.980620	-29.808720
931.269818	-29.555688
931.559196	-29.832013
931.848753	-29.577568
932.138491	-29.681634
932.428409	-29.490407
932.718508	-29.642264
933.008787	-29.472444
933.299246	-29.623204
933.589887	-29.386124
933.880709	-29.494744
934.171712	-29.500444
934.462896	-29.312051
934.754262	-29.463527
935.045810	-29.296607
935.337539	-29.383076
935.629451	-29.257959
935.921545	-29.235556
936.213822	-29.278603
936.506281	-29.201032
936.798922	-29.110749
937.091747	-29.227195
937.384755	-29.098226
937.677946	-29.035884
937.971321	-29.124678
938.264879	-28.994566
938.558621	-29.042111
938.852547	-29.035467
939.146657	-28.877102
939.440952	-29.152598
939.735431	-28.697853
940.030095	-29.113941
940.324943	-28.882535
940.619977	-28.779673
940.915196	-29.051789
941.210600	-28.633923
941.506189	-29.049467
941.801965	-28.637116
942.097926	-28.869190
942.394074	-28.777402
942.690407	-28.666436
942.986927	-28.772130
943.283634	-28.659749
943.580527	-28.621584
943.877608	-28.677968
944.174875	-28.526739
944.472330	-28.655958
944.769972	-28.470482
945.067802	-28.551856
945.365820	-28.458174
945.664026	-28.468077
945.962420	-28.410534
946.261002	-28.442932
946.559773	-28.338905
946.858733	-28.401639
947.157881	-28.311368
947.457219	-28.297702
947.756746	-28.391964
948.056462	-28.152016
948.356368	-28.454470
948.656464	-28.065376
948.956749	-28.458540
949.257225	-28.069366
949.557891	-28.283562
949.858748	-28.191625
950.159796	-28.104708
950.461034	-28.319229
950.762463	-27.939068
951.064084	-28.260704
951.365896	-27.951514
951.667900	-28.100757
951.970095	-28.060336
952.272483	-27.800017
952.575063	-28.178680
952.877835	-27.673913
953.180799	-28.094972
953.483956	-27.690004
953.787307	-27.800957
954.090850	-27.850052
954.394586	-27.565699
954.698516	-27.879263
955.002640	-27.509092
955.306957	-27.633156
955.611469	-27.711520
955.916174	-27.358434
956.221074	-27.787964
956.526169	-27.282611
956.831458	-27.639014
957.136942	-27.415370
957.442622	-27.447355
957.748496	-27.512261
958.054567	-27.371334
958.360833	-27.392852
958.667294	-27.491566
958.973952	-27.267487
959.280806	-27.507880
959.587857	-27.248442
959.895104	-27.412655
960.202548	-27.318412
960.510189	-27.331050
960.818027	-27.354245
961.126062	-27.267353
961.434295	-27.329029
961.742726	-27.199259
962.051355	-27.341779
962.360182	-27.194164
962.669207	-27.246969
962.978431	-27.173947
963.287854	-27.156448
963.597475	-27.242511
963.907296	-27.040667
964.217315	-27.223431
964.527535	-27.005701
964.837954	-27.137167
965.148573	-27.011604
965.459392	-27.113719
965.770411	-26.955810
966.081630	-27.029679
966.393051	-26.943839
966.704672	-27.041107
967.016494	-26.861737
967.328517	-27.027989
967.640742	-26.912527
967.953169	-26.827860
968.265797	-27.117224
968.578627	-26.654588
968.891660	-27.124205
969.204895	-26.789931
969.518332	-26.857792
969.831972	-27.016473
970.145816	-26.684490
970.459862	-27.058791
970.774112	-26.781625
971.088565	-26.858171
971.403223	-26.919906
971.718084	-26.802753
972.033149	-26.869625
972.348419	-26.918165
972.663893	-26.710854
972.979572	-27.009500
973.295456	-26.664856
973.611546	-26.920495
973.927840	-26.789915
974.244340	-26.742685
974.561046	-26.866712
974.877958	-26.701597
975.195076	-26.750134
975.512401	-26.775011
975.829932	-26.606501
976.147670	-26.867831
976.465615	-26.465771
976.783767	-26.822320
977.102126	-26.497108
977.420693	-26.678567
977.739468	-26.551038
978.058451	-26.547842
978.377642	-26.586104
978.697041	-26.451081
979.016649	-26.489289
979.336466	-26.543108
979.656492	-26.361271
979.976727	-26.484526
980.297171	-26.433353
980.617825	-26.277750
980.938689	-26.544459
981.259763	-26.222946
981.581048	-26.417454
981.902542	-26.358539
982.224248	-26.264382
982.546164	-26.332921
982.868291	-26.341807
983.190630	-26.161425
983.513180	-26.480015
983.835942	-26.070879
984.158916	-26.375288
984.482101	-26.213036
984.805500	-26.225233
985.129110	-26.177718
985.452934	-26.349470
985.776970	-25.958246
986.101220	-26.474831
986.425683	-25.914169
986.750359	-26.309015
987.075250	-26.119544
987.400354	-26.085071
987.725673	-26.147272
988.051206	-26.134272
988.376954	-25.986465
988.702916	-26.167806
989.029094	-26.011468
989.355487	-26.011510
989.682095	-26.123279
990.008919	-25.896143
990.335959	-26.094555
990.663216	-25.933412
990.990688	-26.001492
991.318377	-25.956699
991.646283	-25.935341
991.974406	-26.008651
992.302746	-25.871129
992.631304	-25.954660
992.960079	-25.961071
993.289072	-25.825252
993.618283	-25.993375
993.947713	-25.899572
994.277361	-25.789511
994.607227	-26.067157
994.937313	-25.731030
995.267618	-25.895023
995.598142	-26.029606
995.928886	-25.596889
996.259849	-26.076976
996.591033	-25.769238
996.922437	-25.767517
997.254061	-25.886067
997.585906	-25.855807
997.917972	-25.580974
998.250260	-26.095531
998.582768	-25.502500
998.915498	-25.851272
999.248450	-25.762529
999.581624	-25.623576
999.915020	-25.730769
1000.248639	-25.719195
1000.582480	-25.590481
1000.916545	-25.648292
1001.250832	-25.695532
1001.585343	-25.455502
1001.920077	-25.703895
1002.255035	-25.494841
1002.590218	-25.532406
1002.925624	-25.518053
1003.261255	-25.525413
1003.597111	-25.406071
1003.933192	-25.485663
1004.269497	-25.424351
1004.606029	-25.339718
1004.942785	-25.454299
1005.279768	-25.269937
1005.616977	-25.383012
1005.954412	-25.240804
1006.292074	-25.303384
1006.629962	-25.248905
1006.968077	-25.141933
1007.306420	-25.288166
1007.644990	-25.091128
1007.983787	-25.093808
1008.322813	-25.200371
1008.662067	-24.994330
1009.001549	-25.018160
1009.341259	-25.112073
1009.681199	-24.928388
1010.021367	-24.867972
1010.361765	-25.181778
1010.702392	-24.641556
1011.043250	-25.059275
1011.384337	-24.863250
1011.725654	-24.772779
1012.067202	-24.856227
1012.408980	-24.923377
1012.750989	-24.605008
1013.093230	-24.962699
1013.435702	-24.696446
1013.778405	-24.765167
1014.121341	-24.740955
1014.464508	-24.787246
1014.807908	-24.660940
1015.151540	-24.746774
1015.495405	-24.717678
1015.839503	-24.675116
1016.183835	-24.656636
1016.528400	-24.725917
1016.873198	-24.603796
1017.218231	-24.634585
1017.563498	-24.657915
1017.908999	-24.582679
1018.254735	-24.567880
1018.600707	-24.600473
1018.946913	-24.549251
1019.293354	-24.492356
1019.640032	-24.525634
1019.986945	-24.522804
1020.334094	-24.371389
1020.681480	-24.533454
1021.029102	-24.343729
1021.376961	-24.463307
1021.725058	-24.247674
1022.073391	-24.474609
1022.421962	-24.221981
1022.770772	-24.249759
1023.119819	-24.386551
1023.469104	-24.096620
1023.818628	-24.232639
1024.168391	-24.212244
1024.518393	-24.090520
1024.868634	-24.068555
1025.219115	-24.156771
1025.569836	-23.984069
1025.920796	-23.942829
1026.271997	-24.098388
1026.623438	-23.832582
1026.975121	-23.904340
1027.327044	-23.884233
1027.679208	-23.856615
1028.031614	-23.665336
1028.384262	-23.855018
1028.737152	-23.716793
1029.090284	-23.519748
1029.443659	-23.813313
1029.797276	-23.506750
1030.151137	-23.538824
1030.505240	-23.558660
1030.859587	-23.518210
1031.214178	-23.370788
1031.569013	-23.439695
1031.924093	-23.458255
1032.279417	-23.232294
1032.634985	-23.368126
1032.990799	-23.325182
1033.346858	-23.165150
1033.703162	-23.300615
1034.059712	-23.124691
1034.416509	-23.232214
1034.773551	-23.084003
1035.130841	-23.070869
1035.488377	-23.182273
1035.846160	-22.953503
1036.204190	-23.015088
1036.562468	-23.094307
1036.920994	-22.859214
1037.279768	-22.982796
1037.638790	-22.912422
1037.998061	-22.907491
1038.357581	-22.850251
1038.717350	-22.798349
1039.077368	-22.929446
1039.437636	-22.715656
1039.798154	-22.755196
1040.158922	-22.836086
1040.519940	-22.718309
1040.881209	-22.625948
1041.242729	-22.774911
1041.604501	-22.712605
1041.966524	-22.529966
1042.328798	-22.660561
1042.691325	-22.755620
1043.054103	-22.374888
1043.417135	-22.664618
1043.780419	-22.601899
1044.143956	-22.413023
1044.507746	-22.533626
1044.871791	-22.479375
1045.236088	-22.479168
1045.600641	-22.356553
1045.965447	-22.389860
1046.330508	-22.481690
1046.695824	-22.235886
1047.061395	-22.266463
1047.427222	-22.469656
1047.793304	-22.099468
1048.159642	-22.223311
1048.526237	-22.310337
1048.893088	-22.068295
1049.260196	-22.115514
1049.627561	-22.169382
1049.995183	-22.019077
1050.363063	-22.020173
1050.731201	-22.003363
1051.099597	-21.968841
1051.468251	-21.935634
1051.837164	-21.805204
1052.206336	-21.947590
1052.575767	-21.819487
1052.945458	-21.646500
1053.315409	-21.864668
1053.685619	-21.727005
1054.056090	-21.507511
1054.426821	-21.763921
1054.797814	-21.608758
1055.169067	-21.446112
1055.540582	-21.586492
1055.912359	-21.519430
1056.284398	-21.407021
1056.656698	-21.427510
1057.029262	-21.379745
1057.402088	-21.405634
1057.775177	-21.303532
1058.148530	-21.235389
1058.522146	-21.357523
1058.896027	-21.217610
1059.270171	-21.158333
1059.644580	-21.218213
1060.019254	-21.187615
1060.394193	-21.073957
1060.769397	-21.110364
1061.144867	-21.103475
1061.520602	-21.040722
1061.896604	-21.013806
1062.272872	-20.999905
1062.649407	-20.999434
1063.026210	-20.948006
1063.403279	-20.939755
1063.780616	-20.893844
1064.158221	-20.917259
1064.536094	-20.884616
1064.914235	-20.825874
1065.292645	-20.838297
1065.671325	-20.855705
1066.050273	-20.755846
1066.429491	-20.774490
1066.808979	-20.799062
1067.188738	-20.685412
1067.568766	-20.733114
1067.949066	-20.707467
1068.329636	-20.623394
1068.710478	-20.664508
1069.091592	-20.650399
1069.472977	-20.528987
1069.854635	-20.589600
1070.236565	-20.583198
1070.618768	-20.471244
1071.001243	-20.486347
1071.383993	-20.494870
1071.767016	-20.438516
1072.150313	-20.385947
1072.533884	-20.405861
1072.917730	-20.354441
1073.301850	-20.337748
1073.686246	-20.300991
1074.070917	-20.257256
1074.455864	-20.252784
1074.841087	-20.230801
1075.226586	-20.154391
1075.612362	-20.130530
1075.998415	-20.153633
1076.384745	-20.061979
1076.771353	-20.028609
1077.158238	-20.023750
1077.545401	-19.983943
1077.932843	-19.943232
1078.320564	-19.920652
1078.708564	-19.867212
1079.096842	-19.863683
1079.485401	-19.874348
1079.874240	-19.753956
1080.263358	-19.755450
1080.652757	-19.828035
1081.042438	-19.727424
1081.432399	-19.612806
1081.822641	-19.741823
1082.213166	-19.727587
1082.603972	-19.542507
1082.995061	-19.588455
1083.386433	-19.677738
1083.778087	-19.556860
1084.170025	-19.437784
1084.562246	-19.564251
1084.954751	-19.552932
1085.347541	-19.385921
1085.740615	-19.415263
1086.133973	-19.494429
1086.527617	-19.386707
1086.921546	-19.327469
1087.315761	-19.386271
1087.710262	-19.385406
1088.105050	-19.300088
1088.500124	-19.293662
1088.895485	-19.355995
1089.291134	-19.292464
1089.687070	-19.234681
1090.083294	-19.298832
1090.479806	-19.273322
1090.876607	-19.209943
1091.273696	-19.194016
1091.671075	-19.231333
1092.068744	-19.173056
1092.466702	-19.109507
1092.864950	-19.109329
1093.263489	-19.099359
1093.662319	-19.051812
1094.061440	-18.969684
1094.460852	-18.971884
1094.860555	-18.945235
1095.260551	-18.899496
1095.660840	-18.819292
1096.061421	-18.809025
1096.462295	-18.803645
1096.863462	-18.744254
1097.264923	-18.665329
1097.666678	-18.682856
1098.068727	-18.677948
1098.471071	-18.586176
1098.873710	-18.554200
1099.276644	-18.578756
1099.679874	-18.554300
1100.083400	-18.452933
1100.487222	-18.453527
1100.891340	-18.481243
1101.295756	-18.420224
1101.700468	-18.337557
1102.105478	-18.339667
1102.510787	-18.362555
1102.916393	-18.295420
1103.322298	-18.206767
1103.728502	-18.228884
1104.135005	-18.227686
1104.541807	-18.177131
1104.948909	-18.101543
1105.356312	-18.114852
1105.764015	-18.131539
1106.172019	-18.077613
1106.580324	-18.046169
1106.988931	-18.049308
1107.397840	-18.086916
1107.807051	-18.044287
1108.216564	-18.038316
1108.626380	-18.071098
1109.036500	-18.097093
1109.446923	-18.087110
1109.857649	-18.079538
1110.268680	-18.152040
1110.680016	-18.170644
1111.091657	-18.150239
1111.503602	-18.168945
1111.915854	-18.220948
1112.328411	-18.259697
1112.741275	-18.206815
1113.154445	-18.216711
1113.567922	-18.252271
1113.981706	-18.273456
1114.395798	-18.219951
1114.810198	-18.170834
1115.224906	-18.200627
1115.639923	-18.183923
1116.055249	-18.137955
1116.470884	-18.051801
1116.886829	-18.037939
1117.303084	-18.025529
1117.719650	-17.962489
1118.136526	-17.880716
1118.553713	-17.827011
1118.971212	-17.824819
1119.389022	-17.757836
1119.807145	-17.679649
1120.225580	-17.636566
1120.644328	-17.616136
1121.063389	-17.567856
1121.482763	-17.498718
1121.902452	-17.460709
1122.322454	-17.439305
1122.742771	-17.414106
1123.163404	-17.327443
1123.584351	-17.297745
1124.005614	-17.302862
1124.427193	-17.245826
1124.849089	-17.178782
1125.271301	-17.136090
1125.693830	-17.133619
1126.116677	-17.090259
1126.539842	-17.013147
1126.963324	-16.954653
1127.387126	-16.944447
1127.811246	-16.910002
1128.235685	-16.836002
1128.660444	-16.777721
1129.085522	-16.738898
1129.510922	-16.726435
1129.936641	-16.670781
1130.362682	-16.613754
1130.789044	-16.579134
1131.215728	-16.564114
1131.642734	-16.551948
1132.070063	-16.504493
1132.497714	-16.470312
1132.925689	-16.476074
1133.353987	-16.500684
1133.782610	-16.466226
1134.211556	-16.435669
1134.640827	-16.473609
1135.070424	-16.507043
1135.500345	-16.496964
1135.930593	-16.475994
1136.361166	-16.527339
1136.792067	-16.560332
1137.223294	-16.564624
1137.654848	-16.566413
1138.086730	-16.589626
1138.518940	-16.622676
1138.951479	-16.628149
1139.384346	-16.643902
1139.817543	-16.634178
1140.251069	-16.647981
1140.684925	-16.651422
1141.119111	-16.651029
1141.553628	-16.614547
1141.988475	-16.600423
1142.423655	-16.607676
1142.859166	-16.581544
1143.295009	-16.516490
1143.731185	-16.472145
1144.167694	-16.474722
1144.604536	-16.440869
1145.041711	-16.369879
1145.479221	-16.279698
1145.917065	-16.269215
1146.355245	-16.256142
1146.793759	-16.206147
1147.232609	-16.089944
1147.671795	-16.041159
1148.111317	-16.040597
1148.551177	-16.028953
1148.991373	-15.943546
1149.431907	-15.860381
1149.872779	-15.861497
1150.313989	-15.860319
1150.755538	-15.818896
1151.197426	-15.748199
1151.639653	-15.741637
1152.082220	-15.744824
1152.525128	-15.737674
1152.968376	-15.688723
1153.411966	-15.673739
1153.855897	-15.678786
1154.300169	-15.693146
1154.744784	-15.676072
1155.189742	-15.658055
1155.635042	-15.646516
1156.080687	-15.664127
1156.526674	-15.676533
1156.973007	-15.670471
1157.419683	-15.649499
1157.866705	-15.638539
1158.314072	-15.650215
1158.761786	-15.655569
1159.209845	-15.650053
1159.658251	-15.630530
1160.107004	-15.622697
1160.556104	-15.609510
1161.005553	-15.591929
1161.455349	-15.574652
1161.905494	-15.567703
1162.355989	-15.560743
1162.806832	-15.535060
1163.258026	-15.489135
1163.709570	-15.456268
1164.161464	-15.444681
1164.613710	-15.448105
1165.066307	-15.421931
1165.519256	-15.369391
1165.972558	-15.320752
1166.426212	-15.302266
1166.880219	-15.304385
1167.334580	-15.284571
1167.789295	-15.242713
1168.244364	-15.192066
1168.699788	-15.168941
1169.155567	-15.156009
1169.611702	-15.147173
1170.068193	-15.114892
1170.525041	-15.087053
1170.982245	-15.051718
1171.439807	-15.039599
1171.897726	-15.013117
1172.356004	-15.005081
1172.814640	-14.975857
1173.273635	-14.967924
1173.732989	-14.931086
1174.192703	-14.922192
1174.652778	-14.888445
1175.113213	-14.885982
1175.574009	-14.860841
1176.035167	-14.857934
1176.496687	-14.826875
1176.958569	-14.818234
1177.420814	-14.780238
1177.883422	-14.781365
1178.346394	-14.756720
1178.809730	-14.766564
1179.273430	-14.739310
1179.737496	-14.725661
1180.201927	-14.687332
1180.666723	-14.683642
1181.131886	-14.677134
1181.597416	-14.692708
1182.063312	-14.667004
1182.529576	-14.644225
1182.996209	-14.607124
1183.463209	-14.610240
1183.930579	-14.618364
1184.398317	-14.634624
1184.866426	-14.612855
1185.334904	-14.578168
1185.803754	-14.541915
1186.272974	-14.548799
1186.742566	-14.577084
1187.212529	-14.598365
1187.682865	-14.567166
1188.153574	-14.508530
1188.624656	-14.472977
1189.096112	-14.500144
1189.567942	-14.551275
1190.040147	-14.563241
1190.512726	-14.496257
1190.985681	-14.422379
1191.459012	-14.403937
1191.932720	-14.466459
1192.406804	-14.518556
1192.881265	-14.488415
1193.356104	-14.388073
1193.831322	-14.327549
1194.306918	-14.351373
1194.782893	-14.430556
1195.259248	-14.433588
1195.735982	-14.360409
1196.213097	-14.259737
1196.690593	-14.252243
1197.168471	-14.301280
1197.646730	-14.341156
1198.125371	-14.289920
1198.604395	-14.200125
1199.083803	-14.152537
1199.563594	-14.176543
1200.043769	-14.212729
1200.524329	-14.187064
1201.005273	-14.116790
1201.486604	-14.052534
1201.968320	-14.056458
1202.450422	-14.070505
1202.932912	-14.068250
1203.415789	-14.003046
1203.899054	-13.955535
1204.382707	-13.926547
1204.866748	-13.941314
1205.351179	-13.928586
1205.836000	-13.891826
1206.321211	-13.840458
1206.806812	-13.814040
1207.292805	-13.810833
1207.779189	-13.799253
1208.265965	-13.775901
1208.753134	-13.730311
1209.240696	-13.713024
1209.728651	-13.693452
1210.217000	-13.690729
1210.705744	-13.659173
1211.194883	-13.641611
1211.684417	-13.614866
1212.174347	-13.608766
1212.664673	-13.591655
1213.155396	-13.572831
1213.646516	-13.555626
1214.138034	-13.540211
1214.629951	-13.538035
1215.122266	-13.518214
1215.614980	-13.507985
1216.108095	-13.482957
1216.601609	-13.484285
1217.095524	-13.473487
1217.589841	-13.472932
1218.084559	-13.449312
1218.579679	-13.437518
1219.075202	-13.426827
1219.571128	-13.429687
1220.067458	-13.423474
1220.564191	-13.410811
1221.061330	-13.392486
1221.558874	-13.383714
1222.056823	-13.381507
1222.555178	-13.378939
1223.053940	-13.368732
1223.553109	-13.352181
1224.052686	-13.340778
1224.552671	-13.330950
1225.053065	-13.330163
1225.553867	-13.318931
1226.055079	-13.309717
1226.556702	-13.289866
1227.058735	-13.278923
1227.561179	-13.271613
1228.064035	-13.262431
1228.567303	-13.255667
1229.070983	-13.231605
1229.575077	-13.222800
1230.079585	-13.203450
1230.584506	-13.201063
1231.089842	-13.185742
1231.595594	-13.170047
1232.101761	-13.154176
1232.608345	-13.134297
1233.115345	-13.128854
1233.622762	-13.108933
1234.130597	-13.100809
1234.638851	-13.075597
1235.147523	-13.060395
1235.656615	-13.048913
1236.166126	-13.029179
1236.676058	-13.022463
1237.186411	-12.990122
1237.697185	-12.984087
1238.208381	-12.957087
1238.719999	-12.952459
1239.232040	-12.930845
1239.744505	-12.910612
1240.257394	-12.895775
1240.770708	-12.869789
1241.284446	-12.865667
1241.798610	-12.840231
1242.313201	-12.830258
1242.828218	-12.805212
1243.343662	-12.787932
1243.859534	-12.776197
1244.375834	-12.755276
1244.892563	-12.747166
1245.409721	-12.720911
1245.927309	-12.711501
1246.445327	-12.692878
1246.963777	-12.679549
1247.482657	-12.668826
1248.001970	-12.647267
1248.521716	-12.641514
1249.041894	-12.620884
1249.562506	-12.617579
1250.083553	-12.601207
1250.605034	-12.591737
1251.126950	-12.578203
1251.649302	-12.567223
1252.172091	-12.565661
1252.695316	-12.552038
1253.218979	-12.550001
1253.743079	-12.531264
1254.267619	-12.529236
1254.792597	-12.524257
1255.318015	-12.519613
1255.843874	-12.519492
1256.370173	-12.502400
1256.896913	-12.503863
1257.424095	-12.495010
1257.951720	-12.497514
1258.479787	-12.498265
1259.008298	-12.484151
1259.537254	-12.488151
1260.066654	-12.473004
1260.596499	-12.482254
1261.126790	-12.479360
1261.657527	-12.473459
1262.188711	-12.473392
1262.720342	-12.456998
1263.252422	-12.464979
1263.784950	-12.462452
1264.317928	-12.460304
1264.851355	-12.459570
1265.385232	-12.439346
1265.919560	-12.446430
1266.454340	-12.439169
1266.989572	-12.441571
1267.525256	-12.441697
1268.061394	-12.420442
1268.597985	-12.422889
1269.135031	-12.409607
1269.672531	-12.415414
1270.210487	-12.414996
1270.748899	-12.397648
1271.287768	-12.394347
1271.827094	-12.376222
1272.366877	-12.379786
1272.907119	-12.379357
1273.447820	-12.366076
1273.988981	-12.360621
1274.530601	-12.337916
1275.072683	-12.337077
1275.615226	-12.332496
1276.158230	-12.326647
1276.701697	-12.317993
1277.245627	-12.293968
1277.790021	-12.287058
1278.334879	-12.277536
1278.880202	-12.273292
1279.425991	-12.267528
1279.972245	-12.242379
1280.518966	-12.231303
1281.066155	-12.215509
1281.613811	-12.209203
1282.161936	-12.206810
1282.710529	-12.182388
1283.259593	-12.170741
1283.809126	-12.147466
1284.359131	-12.138197
1284.909607	-12.138128
1285.460555	-12.115543
1286.011976	-12.105028
1286.563870	-12.080944
1287.116237	-12.062385
1287.669080	-12.065742
1288.222397	-12.044326
1288.776191	-12.037368
1289.330460	-12.016526
1289.885207	-11.990779
1290.440431	-11.993464
1290.996133	-11.976706
1291.552314	-11.969676
1292.108975	-11.956312
1292.666115	-11.927912
1293.223737	-11.924929
1293.781839	-11.915969
1294.340424	-11.904485
1294.899491	-11.902481
1295.459041	-11.874787
1296.019075	-11.866421
1296.579593	-11.861645
1297.140597	-11.850469
1297.702086	-11.851671
1298.264061	-11.832434
1298.826524	-11.818974
1299.389474	-11.815680
1299.952912	-11.805560
1300.516839	-11.807032
1301.081255	-11.798678
1301.646162	-11.781150
1302.211559	-11.779549
1302.777448	-11.770112
1303.343829	-11.770733
1303.910702	-11.770396
1304.478069	-11.753225
1305.045930	-11.751966
1305.614285	-11.743083
1306.183136	-11.742098
1306.752483	-11.747485
1307.322326	-11.733883
1307.892666	-11.730369
1308.463504	-11.727248
1309.034841	-11.719225
1309.606677	-11.729359
1310.179012	-11.725116
1310.751849	-11.713722
1311.325186	-11.719383
1311.899025	-11.708082
1312.473366	-11.714484
1313.048211	-11.721979
1313.623559	-11.707984
1314.199412	-11.713243
1314.775770	-11.709917
1315.352634	-11.705523
1315.930004	-11.719660
1316.507881	-11.715768
1317.086266	-11.708876
1317.665159	-11.715986
1318.244562	-11.710673
1318.824474	-11.715062
1319.404897	-11.725884
1319.985831	-11.716093
1320.567276	-11.717891
1321.149234	-11.721722
1321.731706	-11.716478
1322.314691	-11.729080
1322.898190	-11.727278
1323.482205	-11.720263
1324.066736	-11.726148
1324.651783	-11.722632
1325.237347	-11.726724
1325.823430	-11.731503
1326.410031	-11.725253
1326.997151	-11.723100
1327.584791	-11.724858
1328.172952	-11.723097
1328.761634	-11.727720
1329.350839	-11.726926
1329.940566	-11.717401
1330.530817	-11.720485
1331.121592	-11.719082
1331.712891	-11.717943
1332.304716	-11.723654
1332.897068	-11.713245
1333.489946	-11.709105
1334.083352	-11.713719
1334.677287	-11.708731
1335.271750	-11.711590
1335.866744	-11.709644
1336.462268	-11.698195
1337.058323	-11.699300
1337.654910	-11.702653
1338.252029	-11.696970
1338.849682	-11.695487
1339.447869	-11.691642
1340.046591	-11.682283
1340.645848	-11.685084
1341.245641	-11.686166
1341.845972	-11.675691
1342.446840	-11.673443
1343.048246	-11.669553
1343.650191	-11.660357
1344.252677	-11.664016
1344.855702	-11.660577
1345.459269	-11.647928
1346.063379	-11.646870
1346.668030	-11.640486
1347.273226	-11.635093
1347.878965	-11.636771
1348.485250	-11.625960
1349.092080	-11.617585
1349.699456	-11.615909
1350.307380	-11.609776
1350.915851	-11.606059
1351.524871	-11.602170
1352.134441	-11.592024
1352.744560	-11.585686
1353.355231	-11.584646
1353.966453	-11.579660
1354.578227	-11.572524
1355.190555	-11.568712
1355.803436	-11.560572
1356.416872	-11.554322
1357.030863	-11.556697
1357.645411	-11.549636
1358.260515	-11.538860
1358.876177	-11.539593
1359.492397	-11.533393
1360.109176	-11.526751
1360.726516	-11.528834
1361.344416	-11.521553
1361.962877	-11.511119
1362.581901	-11.513005
1363.201487	-11.511193
1363.821637	-11.502922
1364.442352	-11.500711
1365.063632	-11.497805
1365.685478	-11.490365
1366.307891	-11.489715
1366.930871	-11.490494
1367.554420	-11.482870
1368.178538	-11.476578
1368.803226	-11.478087
1369.428485	-11.475801
1370.054315	-11.470350
1370.680717	-11.469810
1371.307693	-11.466837
1371.935242	-11.459823
1372.563366	-11.461647
1373.192065	-11.463488
1373.821341	-11.453687
1374.451193	-11.452246
1375.081623	-11.454548
1375.712632	-11.447259
1376.344221	-11.448595
1376.976389	-11.449934
1377.609139	-11.440919
1378.242470	-11.439594
1378.876384	-11.446149
1379.510881	-11.439858
1380.145963	-11.435794
1380.781629	-11.441173
1381.417881	-11.435243
1382.054720	-11.432010
1382.692147	-11.439435
1383.330161	-11.435820
1383.968765	-11.427098
1384.607959	-11.432010
1385.247743	-11.435464
1385.888119	-11.426944
1386.529087	-11.427918
1387.170648	-11.432229
1387.812804	-11.423848
1388.455554	-11.423752
1389.098899	-11.430910
1389.742842	-11.426403
1390.387381	-11.418064
1391.032519	-11.426295
1391.678256	-11.427691
1392.324592	-11.420228
1392.971529	-11.424761
1393.619068	-11.427145
1394.267208	-11.420677
1394.915952	-11.423833
1395.565300	-11.429158
1396.215253	-11.423321
1396.865812	-11.421216
1397.516977	-11.427654
1398.168749	-11.424569
1398.821130	-11.423453
1399.474120	-11.427322
1400.127719	-11.424751
1400.781930	-11.421019
1401.436752	-11.428581
1402.092186	-11.429405
1402.748234	-11.419398
1403.404897	-11.425427
1404.062174	-11.432641
1404.720067	-11.422448
1405.378577	-11.422942
1406.037705	-11.436300
1406.697451	-11.430135
1407.357817	-11.420303
1408.018803	-11.438000
1408.680410	-11.445579
1409.342639	-11.426196
1410.005492	-11.430309
1410.668968	-11.456373
1411.333068	-11.445784
1411.997795	-11.428458
1412.663147	-11.453706
1413.329127	-11.467901
1413.995736	-11.444856
1414.662973	-11.446150
1415.330840	-11.482051
1415.999339	-11.474380
1416.668469	-11.451177
1417.338232	-11.476261
1418.008628	-11.501882
1418.679659	-11.478244
1419.351325	-11.469185
1420.023628	-11.506133
1420.696568	-11.513065
1421.370145	-11.489818
1422.044362	-11.501423
1422.719219	-11.534329
1423.394717	-11.526945
1424.070856	-11.516053
1424.747638	-11.541533
1425.425064	-11.558225
1426.103134	-11.545020
1426.781850	-11.549370
1427.461212	-11.576247
1428.141221	-11.577293
1428.821878	-11.570188
1429.503185	-11.589192
1430.185141	-11.609359
1430.867749	-11.607604
1431.551008	-11.613443
1432.234920	-11.638606
1432.919486	-11.650968
1433.604707	-11.651791
1434.290583	-11.665022
1434.977116	-11.685293
1435.664307	-11.692455
1436.352156	-11.693134
1437.040664	-11.708842
1437.729833	-11.725822
1438.419663	-11.732442
1439.110156	-11.740444
1439.801312	-11.757760
1440.493132	-11.780333
1441.185617	-11.795707
1441.878768	-11.807514
1442.572586	-11.827345
1443.267072	-11.852806
1443.962228	-11.870363
1444.658053	-11.877064
1445.354549	-11.890163
1446.051717	-11.911578
1446.749558	-11.924639
1447.448073	-11.928262
1448.147263	-11.936874
1448.847128	-11.960721
1449.547671	-11.982384
1450.248891	-11.994754
1450.950789	-12.014084
1451.653368	-12.048176
1452.356627	-12.086618
1453.060568	-12.110972
1453.765192	-12.133221
1454.470500	-12.173320
1455.176492	-12.210988
1455.883170	-12.227325
1456.590534	-12.240047
1457.298586	-12.270770
1458.007327	-12.296700
1458.716758	-12.298921
1459.426880	-12.313978
1460.137693	-12.350445
1460.849199	-12.376261
1461.561398	-12.398105
1462.274293	-12.443219
1462.987883	-12.502781
1463.702170	-12.554491
1464.417155	-12.610618
1465.132838	-12.683134
1465.849222	-12.755687
1466.566306	-12.820448
1467.284093	-12.878406
1468.002582	-12.935117
1468.721775	-12.991836
1469.441674	-13.027054
1470.162278	-13.047612
1470.883590	-13.080143
1471.605609	-13.105468
1472.328338	-13.112607
1473.051777	-13.132098
1473.775928	-13.167251
1474.500790	-13.203039
1475.226367	-13.245695
1475.952657	-13.304895
1476.679663	-13.384683
1477.407386	-13.474674
1478.135826	-13.563169
1478.864985	-13.664082
1479.594863	-13.776117
1480.325463	-13.873937
1481.056784	-13.955271
1481.788828	-14.027902
1482.521597	-14.083068
1483.255090	-14.108071
1483.989309	-14.103471
1484.724256	-14.082046
1485.459931	-14.045133
1486.196336	-13.986690
1486.933471	-13.920472
1487.671337	-13.863746
1488.409937	-13.816415
1489.149270	-13.779584
1489.889337	-13.767071
1490.630141	-13.789013
1491.371682	-13.842598
1492.113961	-13.925600
1492.856979	-14.047214
1493.600738	-14.210993
1494.345238	-14.407719
1495.090481	-14.633438
1495.836467	-14.890054
1496.583198	-15.175155
1497.330675	-15.479273
1498.078899	-15.788851
1498.827872	-16.099601
1499.577593	-16.408769
1500.328065	-16.700817
1501.079289	-16.957091
1501.831265	-17.170688
1502.583995	-17.348394
1503.337480	-17.483410
1504.091721	-17.556594
1504.846719	-17.585874
1505.602475	-17.599741
1506.358991	-17.593850
1507.116268	-17.568006
1507.874306	-17.546549
1508.633108	-17.551213
1509.392673	-17.587039
1510.153004	-17.649118
1510.914101	-17.743426
1511.675965	-17.889276
1512.438599	-18.096217
1513.202002	-18.353592
1513.966176	-18.657473
1514.731122	-19.027632
1515.496842	-19.484298
1516.263336	-20.028244
1517.030607	-20.658838
1517.798654	-21.399617
1518.567479	-22.296391
1519.337083	-23.383742
1520.107468	-24.654547
1520.878634	-26.048331
1521.650584	-27.341545
1522.423317	-27.908907
1523.196836	-27.100554
1523.971141	-25.236925
1524.746233	-23.065072
1525.522115	-20.983478
1526.298786	-19.119129
1527.076249	-17.478225
1527.854504	-16.018882
1528.633553	-14.702737
1529.413397	-13.515030
1530.194037	-12.450328
1530.975474	-11.493612
1531.757709	-10.623147
1532.540745	-9.826182
1533.324581	-9.101989
1534.109220	-8.450873
1534.894662	-7.865556
1535.680909	-7.335978
1536.467961	-6.859590
1537.255821	-6.440931
1538.044489	-6.081310
1538.833967	-5.774785
1539.624256	-5.516183
1540.415357	-5.309151
1541.207271	-5.159285
1542.000000	-5.063324
1542.793545	-5.014635
1543.587907	-5.014594
1544.383087	-5.069055
1545.179088	-5.177385
1545.975909	-5.333285
1546.773552	-5.534368
1547.572019	-5.785634
1548.371311	-6.090929
1549.171428	-6.445703
1549.972373	-6.843944
1550.774147	-7.289574
1551.576751	-7.791661
1552.380185	-8.350520
1553.184453	-8.958228
1553.989554	-9.614262
1554.795490	-10.330153
1555.602263	-11.112222
1556.409873	-11.947238
1557.218322	-12.816312
1558.027612	-13.713769
1558.837743	-14.626694
1559.648717	-15.495516
1560.460536	-16.228279
1561.273200	-16.758925
1562.086710	-17.050756
1562.901069	-17.069611
1563.716278	-16.832838
1564.532337	-16.437803
1565.349249	-15.980348
1566.167014	-15.502364
1566.985634	-15.029404
1567.805111	-14.599674
1568.625444	-14.238371
1569.446637	-13.939693
1570.268690	-13.691218
1571.091605	-13.499073
1571.915382	-13.374982
1572.740024	-13.311441
1573.565532	-13.289515
1574.391907	-13.305250
1575.219150	-13.369416
1576.047262	-13.481164
1576.876246	-13.620345
1577.706103	-13.772694
1578.536833	-13.946560
1579.368439	-14.149230
1580.200922	-14.363861
1581.034282	-14.570281
1581.868522	-14.771454
1582.703643	-14.980897
1583.539646	-15.194197
1584.376532	-15.393814
1585.214304	-15.576091
1586.052962	-15.757004
1586.892508	-15.946497
1587.732943	-16.132680
1588.574269	-16.304743
1589.416487	-16.475260
1590.259599	-16.660334
1591.103605	-16.852883
1591.948508	-17.035895
1592.794309	-17.213083
1593.641009	-17.402382
1594.488609	-17.601977
1595.337112	-17.789865
1596.186518	-17.961227
1597.036829	-18.134904
1597.888047	-18.315158
1598.740172	-18.479135
1599.593207	-18.615612
1600.447153	-18.741788
1601.302010	-18.868501
1602.157782	-18.977050
1603.014469	-19.051427
1603.872072	-19.106569
1604.730593	-19.159152
1605.590034	-19.197158
1606.450397	-19.203289
1607.311681	-19.187808
1608.173890	-19.170307
1609.037024	-19.145589
1609.901085	-19.095630
1610.766075	-19.023836
1611.631995	-18.948767
1612.498846	-18.871145
1613.366630	-18.773588
1614.235349	-18.651930
1615.105004	-18.521748
1615.975596	-18.389658
1616.847128	-18.241472
1617.719600	-18.069353
1618.593014	-17.886894
1619.467372	-17.704987
1620.342675	-17.515312
1621.218924	-17.310705
1622.096122	-17.100758
1622.974270	-16.897217
1623.853369	-16.697849
1624.733420	-16.495842
1625.614427	-16.295391
1626.496389	-16.107224
1627.379308	-15.932549
1628.263187	-15.763774
1629.148026	-15.600316
1630.033828	-15.449682
1630.920593	-15.313764
1631.808324	-15.185263
1632.697022	-15.059513
1633.586688	-14.940564
1634.477324	-14.832099
1635.368932	-14.728390
1636.261514	-14.622445
1637.155070	-14.516335
1638.049602	-14.415078
1638.945113	-14.316068
1639.841603	-14.212834
1640.739075	-14.106214
1641.637529	-14.002263
1642.536968	-13.902175
1643.437393	-13.801269
1644.338806	-13.699213
1645.241209	-13.601667
1646.144602	-13.511009
1647.048988	-13.423877
1647.954368	-13.338194
1648.860744	-13.257821
1649.768118	-13.185739
1650.676491	-13.118975
1651.585865	-13.053767
1652.496241	-12.992120
1653.407621	-12.936888
1654.320008	-12.885388
1655.233401	-12.832714
1656.147804	-12.779743
1657.063218	-12.730107
1657.979645	-12.682800
1658.897085	-12.633816
1659.815542	-12.583905
1660.735016	-12.537405
1661.655509	-12.494863
1662.577023	-12.452899
1663.499560	-12.411004
1664.423121	-12.372896
1665.347709	-12.339731
1666.273324	-12.308392
1667.199969	-12.277041
1668.127645	-12.248563
1669.056353	-12.225311
1669.986097	-12.203626
1670.916877	-12.180814
1671.848695	-12.159516
1672.781553	-12.142280
1673.715452	-12.126268
1674.650395	-12.108587
1675.586383	-12.091588
1676.523418	-12.078582
1677.461501	-12.067666
1678.400635	-12.055635
1679.340821	-12.044582
1680.282061	-12.037571
1681.224357	-12.032818
1682.167710	-12.026883
1683.112122	-12.021451
1684.057595	-12.019683
1685.004132	-12.019943
1685.951732	-12.018701
1686.900400	-12.017472
1687.850135	-12.019529
1688.800940	-12.023236
1689.752818	-12.025105
1690.705768	-12.026292
1691.659795	-12.030389
1692.614898	-12.036248
1693.571081	-12.040465
1694.528345	-12.044221
1695.486691	-12.050928
1696.446122	-12.059666
1697.406640	-12.067026
1698.368245	-12.073437
1699.330941	-12.081896
1700.294729	-12.092037
1701.259611	-12.100498
1702.225588	-12.107509
1703.192664	-12.116290
1704.160838	-12.126834
1705.130114	-12.135930
1706.100493	-12.143655
1707.071977	-12.153424
1708.044568	-12.165024
1709.018268	-12.175142
1709.993079	-12.184063
1710.969003	-12.194861
1711.946041	-12.206890
1712.924196	-12.217091
1713.903469	-12.226601
1714.883862	-12.237812
1715.865378	-12.249704
1716.848017	-12.260069
1717.831783	-12.270275
1718.816677	-12.282142
1719.802701	-12.294537
1720.789857	-12.305812
1721.778147	-12.317168
1722.767573	-12.330054
1723.758136	-12.342970
1724.749840	-12.354588
1725.742685	-12.366783
1726.736673	-12.380433
1727.731808	-12.393669
1728.728090	-12.405956
1729.725521	-12.419155
1730.724105	-12.433753
1731.723842	-12.447795
1732.724735	-12.461300
1733.726785	-12.475989
1734.729995	-12.491797
1735.734366	-12.506773
1736.739902	-12.521566
1737.746603	-12.537958
1738.754472	-12.554850
1739.763510	-12.570791
1740.773721	-12.587162
1741.785105	-12.604979
1742.797665	-12.622884
1743.811403	-12.639943
1744.826321	-12.657569
1745.842422	-12.676339
1746.859706	-12.694441
1747.878177	-12.711764
1748.897835	-12.729939
1749.918685	-12.748975
1750.940726	-12.766978
1751.963963	-12.784225
1752.988395	-12.802115
1754.014027	-12.819800
1755.040860	-12.835932
1756.068895	-12.851713
1757.098135	-12.868396
1758.128583	-12.884593
1759.160240	-12.899744
1760.193109	-12.915450
1761.227191	-12.931981
1762.262488	-12.947770
1763.299004	-12.963220
1764.336740	-12.979643
1765.375697	-12.996105
1766.415880	-13.011901
1767.457288	-13.028277
1768.499926	-13.045662
1769.543794	-13.062937
1770.588895	-13.079902
1771.635231	-13.097370
1772.682805	-13.115267
1773.731619	-13.132821
1774.781674	-13.150694
1775.832973	-13.169560
1776.885519	-13.188288
1777.939312	-13.206307
1778.994357	-13.224442
1780.050654	-13.242694
1781.108207	-13.260265
1782.167017	-13.277679
1783.227087	-13.295730
1784.288418	-13.313312
1785.351013	-13.329883
1786.414875	-13.346560
1787.480006	-13.363134
1788.546407	-13.378565
1789.614082	-13.393819
1790.683032	-13.409872
1791.753259	-13.425663
1792.824767	-13.440899
1793.897557	-13.456525
1794.971632	-13.471995
1796.046994	-13.486201
1797.123645	-13.500307
1798.201588	-13.515316
1799.280824	-13.530323
1800.361357	-13.545405
1801.443188	-13.561528
1802.526320	-13.577863
1803.610756	-13.593113
1804.696497	-13.608140
1805.783546	-13.623574
1806.871906	-13.638428
1807.961578	-13.653341
1809.052565	-13.669538
1810.144870	-13.686153
1811.238494	-13.702347
1812.333441	-13.718595
1813.429713	-13.734432
1814.527311	-13.748818
1815.626239	-13.762852
1816.726499	-13.777701
1817.828094	-13.792731
1818.931025	-13.808086
1820.035295	-13.824184
1821.140906	-13.839868
1822.247862	-13.854271
1823.356165	-13.868061
1824.465816	-13.881298
1825.576819	-13.893745
1826.689175	-13.906234
1827.802888	-13.919118
1828.917960	-13.931513
1830.034394	-13.943222
1831.152191	-13.954391
1832.271354	-13.964518
1833.391887	-13.973834
1834.513790	-13.983112
1835.637068	-13.992185
1836.761722	-14.000872
1837.887755	-14.009471
1839.015169	-14.017450
1840.143968	-14.024423
1841.274153	-14.031254
1842.405727	-14.038068
1843.538693	-14.044469
1844.673053	-14.050892
1845.808810	-14.057173
1846.945966	-14.062655
1848.084525	-14.067732
1849.224488	-14.072844
1850.365858	-14.077422
1851.508638	-14.081658
1852.652831	-14.086202
1853.798438	-14.090631
1854.945463	-14.094617
1856.093909	-14.098449
1857.243777	-14.101658
1858.395071	-14.103843
1859.547794	-14.105753
1860.701947	-14.107571
1861.857533	-14.109086
1863.014556	-14.110726
1864.173018	-14.112400
1865.332922	-14.113659
1866.494270	-14.114869
1867.657065	-14.116053
1868.821309	-14.116839
1869.987006	-14.117505
1871.154158	-14.118221
1872.322768	-14.118559
1873.492839	-14.118585
1874.664373	-14.118419
1875.837373	-14.117668
1877.011841	-14.116431
1878.187782	-14.115127
1879.365197	-14.113707
1880.544089	-14.112255
1881.724460	-14.110682
1882.906315	-14.108238
1884.089655	-14.104762
1885.274483	-14.100553
1886.460803	-14.095932
1887.648616	-14.091273
1888.837927	-14.086542
1890.028736	-14.081577
1891.221049	-14.075914
1892.414866	-14.069030
1893.610192	-14.061044
1894.807028	-14.052216
1896.005379	-14.042860
1897.205246	-14.033522
1898.406633	-14.024364
1899.609542	-14.015153
1900.813977	-14.005335
1902.019940	-13.994566
1903.227434	-13.983164
1904.436462	-13.971338
1905.647028	-13.959715
1906.859133	-13.948896
1908.072781	-13.938433
1909.287976	-13.928097
1910.504719	-13.917378
1911.723013	-13.905663
1912.942863	-13.893504
1914.164270	-13.881041
1915.387238	-13.868421
1916.611770	-13.856453
1917.837868	-13.844653
1919.065536	-13.832841
1920.294777	-13.821385
1921.525594	-13.809818
1922.757989	-13.798577
1923.991967	-13.788163
1925.227529	-13.778102
1926.464679	-13.768532
1927.703420	-13.759300
1928.943755	-13.749903
1930.185688	-13.740506
1931.429221	-13.731190
1932.674356	-13.721536
1933.921099	-13.711552
1935.169451	-13.701284
1936.419415	-13.690536
1937.670996	-13.679506
1938.924195	-13.668616
1940.179017	-13.657621
1941.435463	-13.646335
1942.693538	-13.634738
1943.953245	-13.622633
1945.214586	-13.610266
1946.477566	-13.598357
1947.742186	-13.586822
1949.008451	-13.575128
1950.276363	-13.563081
1951.545926	-13.550561
1952.817143	-13.537441
1954.090017	-13.524200
1955.364551	-13.511104
1956.640749	-13.497834
1957.918615	-13.484402
1959.198150	-13.470871
1960.479359	-13.456974
1961.762244	-13.442915
1963.046810	-13.428907
1964.333059	-13.415023
1965.620995	-13.401437
1966.910621	-13.388016
1968.201940	-13.374514
1969.494956	-13.361256
1970.789672	-13.348643
1972.086091	-13.336634
1973.384217	-13.324886
1974.684053	-13.313179
1975.985602	-13.301573
1977.288869	-13.290442
1978.593855	-13.280133
1979.900566	-13.270592
1981.209003	-13.261127
1982.519171	-13.251292
1983.831073	-13.241324
1985.144712	-13.231691
1986.460093	-13.222770
1987.777217	-13.214658
1989.096089	-13.206920
1990.416713	-13.198789
1991.739092	-13.190142
1993.063228	-13.181720
1994.389127	-13.174215
1995.716791	-13.167375
1997.046223	-13.160333
1998.377428	-13.152552
1999.710409	-13.144144
2001.045169	-13.135540
2002.381713	-13.126970
2003.720043	-13.118262
2005.060163	-13.108708
2006.402077	-13.097793
2007.745788	-13.086098
2009.091301	-13.074521
2010.438618	-13.063437
2011.787743	-13.052411
2013.138680	-13.040649
2014.491433	-13.027932
2015.846005	-13.015241
2017.202399	-13.003593
2018.560621	-12.992965
2019.920673	-12.982416
2021.282558	-12.971535
2022.646281	-12.961042
2024.011846	-12.951756
2025.379256	-12.943719
2026.748515	-12.936165
2028.119626	-12.928722
2029.492594	-12.921856
2030.867422	-12.915763
2032.244114	-12.910426
2033.622673	-12.905982
2035.003104	-12.902461
2036.385411	-12.899560
2037.769597	-12.897173
2039.155665	-12.895651
2040.543621	-12.895187
2041.933467	-12.895290
2043.325208	-12.895223
2044.718847	-12.894897
2046.114389	-12.895080
2047.511837	-12.896216
2048.911195	-12.897913
2050.312467	-12.899752
2051.715657	-12.901563
2053.120769	-12.903385
2054.527807	-12.905519
2055.936775	-12.907695
2057.347677	-12.909354
2058.760516	-12.910224
2060.175297	-12.910589
2061.592025	-12.910966
2063.010701	-12.911206
2064.431332	-12.910460
2065.853921	-12.908515
2067.278472	-12.906234
2068.704988	-12.904500
2070.133475	-12.903027
2071.563936	-12.900993
2072.996375	-12.898363
2074.430796	-12.895962
2075.867204	-12.894366
2077.305603	-12.893467
2078.745996	-12.892714
2080.188389	-12.891967
2081.632784	-12.891847
2083.079187	-12.893125
2084.527601	-12.895650
2085.978030	-12.898614
2087.430480	-12.901495
2088.884954	-12.904687
2090.341455	-12.909349
2091.799990	-12.915818
2093.260561	-12.923299
2094.723173	-12.931124
2096.187831	-12.939585
2097.654538	-12.949192
2099.123300	-12.959733
2100.594119	-12.970474
2102.067001	-12.981153
2103.541950	-12.992530
2105.018971	-13.005003
2106.498067	-13.017830
2107.979243	-13.030159
2109.462503	-13.042156
2110.947853	-13.054535
2112.435295	-13.067488
2113.924836	-13.080750
2115.416478	-13.094279
2116.910227	-13.108254
2118.406087	-13.122641
2119.904063	-13.137198
2121.404158	-13.151846
2122.906378	-13.166737
2124.410727	-13.181561
2125.917210	-13.195662
2127.425831	-13.208660
2128.936594	-13.220629
2130.449505	-13.232046
2131.964567	-13.242702
2133.481786	-13.251614
2135.001166	-13.258437
2136.522711	-13.263833
2138.046427	-13.268930
2139.572317	-13.274000
2141.100388	-13.278533
2142.630642	-13.282596
2144.163085	-13.286877
2145.697722	-13.291820
2147.234558	-13.297406
2148.773596	-13.303906
2150.314842	-13.312077
2151.858301	-13.322890
2153.403977	-13.336961
2154.951875	-13.354284
2156.502000	-13.374502
2158.054357	-13.397993
2159.608950	-13.426284
2161.165785	-13.459604
2162.724866	-13.497066
2164.286198	-13.538599
2165.849786	-13.584372
2167.415635	-13.633748
2168.983749	-13.685598
2170.554134	-13.738984
2172.126795	-13.793405
2173.701737	-13.848055
2175.278964	-13.901838
2176.858481	-13.953811
2178.440294	-14.003143
2180.024408	-14.049391
2181.610827	-14.091941
2183.199557	-14.129399
2184.790602	-14.161381
2186.383968	-14.189918
2187.979660	-14.215842
2189.577683	-14.236259
2191.178041	-14.250624
2192.780741	-14.262928
2194.385787	-14.275120
2195.993185	-14.285299
2197.602939	-14.292601
2199.215054	-14.299126
2200.829537	-14.306747
2202.446392	-14.315856
2204.065624	-14.326434
2205.687239	-14.339843
2207.311242	-14.357920
2208.937638	-14.380307
2210.566433	-14.405591
2212.197631	-14.434283
2213.831239	-14.468299
2215.467261	-14.507313
2217.105703	-14.549415
2218.746570	-14.594928
2220.389867	-14.645905
2222.035601	-14.701058
2223.683776	-14.756910
2225.334398	-14.814062
2226.987472	-14.875254
2228.643004	-14.938362
2230.300999	-14.999736
2231.961463	-15.060425
2233.624402	-15.121666
2235.289820	-15.181097
2236.957723	-15.237206
2238.628118	-15.291011
2240.301009	-15.342319
2241.976402	-15.388917
2243.654303	-15.431238
2245.334717	-15.473259
2247.017650	-15.515703
2248.703108	-15.555544
2250.391096	-15.593278
2252.081620	-15.632957
2253.774686	-15.674945
2255.470300	-15.716430
2257.168467	-15.758049
2258.869193	-15.802499
2260.572484	-15.849886
2262.278345	-15.899041
2263.986783	-15.949485
2265.697804	-16.001042
2267.411412	-16.054142
2269.127615	-16.108757
2270.846417	-16.164964
2272.567826	-16.223729
2274.291846	-16.284492
2276.018484	-16.346335
2277.747745	-16.410449
2279.479637	-16.477389
2281.214164	-16.545424
2282.951333	-16.615654
2284.691149	-16.689508
2286.433619	-16.764971
2288.178750	-16.839791
2289.926546	-16.914902
2291.677014	-16.992867
2293.430161	-17.073170
2295.185992	-17.152260
2296.944513	-17.230530
2298.705732	-17.309821
2300.469653	-17.387845
2302.236283	-17.462606
2304.005629	-17.535656
2305.777696	-17.607862
2307.552492	-17.677123
2309.330022	-17.743097
2311.110292	-17.807767
2312.893310	-17.871293
2314.679080	-17.933199
2316.467611	-17.995893
2318.258907	-18.060074
2320.052976	-18.122650
2321.849824	-18.185597
2323.649457	-18.253095
2325.451883	-18.322616
2327.257106	-18.392283
2329.065135	-18.465646
2330.875975	-18.543057
2332.689633	-18.620854
2334.506116	-18.700722
2336.325430	-18.785784
2338.147581	-18.872304
2339.972578	-18.960019
2341.800425	-19.051794
2343.631130	-19.146028
2345.464700	-19.241881
2347.301141	-19.339899
2349.140461	-19.440670
2350.982665	-19.541302
2352.827760	-19.642161
2354.675754	-19.745882
2356.526653	-19.850219
2358.380464	-19.952597
2360.237195	-20.056482
2362.096851	-20.160860
2363.959440	-20.262269
2365.824968	-20.363571
2367.693444	-20.464535
2369.564873	-20.561007
2371.439263	-20.653679
2373.316620	-20.745133
2375.196953	-20.833843
2377.080267	-20.917440
2378.966570	-20.999401
2380.855869	-21.082163
2382.748171	-21.161283
2384.643484	-21.242147
2386.541815	-21.325821
2388.443170	-21.409410
2390.347557	-21.496889
2392.254984	-21.587183
2394.165457	-21.678551
2396.078984	-21.775769
2397.995572	-21.880122
2399.915229	-21.988064
2401.837961	-22.099627
2403.763777	-22.217010
2405.692684	-22.337905
2407.624689	-22.461170
2409.559800	-22.587451
2411.498023	-22.713234
2413.439368	-22.838427
2415.383840	-22.967238
2417.331449	-23.096251
2419.282201	-23.226192
2421.236104	-23.359141
2423.193165	-23.489851
2425.153393	-23.623068
2427.116795	-23.757835
2429.083378	-23.891768
2431.053151	-24.026016
2433.026121	-24.153529
2435.002297	-24.276245
2436.981685	-24.394746
2438.964293	-24.503214
2440.950131	-24.602667
2442.939204	-24.698447
2444.931522	-24.786379
2446.927092	-24.869461
2448.925923	-24.961262
2450.928022	-25.045693
2452.933397	-25.132252
2454.942056	-25.235823
2456.954008	-25.321283
2458.969260	-25.431630
2460.987821	-25.556564
2463.009699	-25.649008
2465.034902	-25.782694
2467.063437	-25.924121
2469.095315	-26.031114
2471.130542	-26.198529
2473.169127	-26.345558
2475.211078	-26.463012
2477.256404	-26.665903
2479.305112	-26.792458
2481.357212	-26.945492
2483.412713	-27.148523
2485.471621	-27.260321
2487.533946	-27.450599
2489.599696	-27.644492
2491.668880	-27.747945
2493.741507	-27.993037
2495.817585	-28.103075
2497.897122	-28.288177
2499.980127	-28.493262
2502.066609	-28.576425
2504.156578	-28.787698
2506.250040	-28.888817
2508.347006	-29.011406
2510.447483	-29.147260
2512.551482	-29.186638
2514.659010	-29.332148
2516.770076	-29.363309
2518.884690	-29.455374
2521.002861	-29.540843
2523.124597	-29.590998
2525.249907	-29.713496
2527.378801	-29.787459
2529.511287	-29.926679
2531.647375	-30.014627
2533.787074	-30.152931
2535.930393	-30.325396
2538.077340	-30.444064
2540.227927	-30.609702
2542.382160	-30.763679
2544.540051	-30.948296
2546.701608	-31.125405
2548.866840	-31.282478
2551.035757	-31.480807
2553.208369	-31.673844
2555.384684	-31.883731
2557.564713	-32.098459
2559.748465	-32.305074
2561.935948	-32.549222
2564.127174	-32.777904
2566.322152	-32.973699
2568.520890	-33.231026
2570.723399	-33.485187
2572.929689	-33.673437
2575.139769	-33.873944
2577.353649	-34.065612
2579.571340	-34.230300
2581.792849	-34.352387
2584.018189	-34.435810
2586.247368	-34.520835
2588.480396	-34.558775
2590.717284	-34.590805
2592.958041	-34.598676
2595.202678	-34.662844
2597.451204	-34.776564
2599.703630	-34.800356
2601.959966	-34.882860
2604.220222	-35.003443
2606.484408	-35.124254
2608.752535	-35.226275
2611.024612	-35.323310
2613.300651	-35.489538
2615.580661	-35.641487
2617.864653	-35.724115
2620.152638	-35.922803
2622.444625	-36.122774
2624.740626	-36.300298
2627.040651	-36.530689
2629.344710	-36.739957
2631.652814	-36.998785
2633.964974	-37.321485
2636.281200	-37.546068
2638.601504	-37.901270
2640.925896	-38.291668
2643.254386	-38.547348
2645.586987	-38.977491
2647.923707	-39.362100
2650.264559	-39.648975
2652.609554	-40.089757
2654.958702	-40.239164
2657.312015	-40.456877
2659.669503	-40.682515
2662.031178	-40.640389
2664.397051	-40.758838
2666.767132	-40.770171
2669.141434	-40.714012
2671.519968	-40.878221
2673.902745	-40.805845
2676.289776	-40.764525
2678.681072	-41.009632
2681.076646	-40.918026
2683.476508	-40.885150
2685.880671	-41.051878
2688.289145	-40.937351
2690.701942	-40.973939
2693.119075	-41.088131
2695.540554	-41.024033
2697.966391	-41.172239
2700.396599	-41.297137
2702.831189	-41.333150
2705.270172	-41.533840
2707.713561	-41.658306
2710.161368	-41.856421
2712.613605	-42.156337
2715.070283	-42.310929
2717.531416	-42.753925
2719.997014	-43.342890
2722.467090	-43.541790
2724.941657	-44.227101
2727.420726	-44.787453
2729.904310	-45.185197
2732.392421	-45.981185
2734.885072	-46.297275
2737.382275	-46.803801
2739.884042	-47.199548
2742.390387	-47.369047
2744.901321	-47.638916
2747.416857	-47.968255
2749.937008	-47.913853
2752.461787	-48.455148
2754.991206	-48.512661
2757.525279	-48.574340
2760.064017	-48.996199
2762.607434	-48.612963
2765.155544	-48.561588
2767.708358	-48.781087
2770.265890	-48.220129
2772.828153	-48.269751
2775.395160	-48.077384
2777.966924	-47.943904
2780.543459	-47.620454
2783.124778	-47.475710
2785.710894	-47.476836
2788.301821	-47.165732
2790.897572	-47.108977
2793.498160	-47.340075
2796.103599	-47.240525
2798.713903	-47.516273
2801.329085	-47.901647
2803.949159	-48.044032
2806.574139	-48.701041
2809.204038	-49.189604
2811.838871	-49.555635
2814.478650	-50.310498
2817.123391	-50.631592
2819.773107	-51.039392
2822.427812	-51.527425
2825.087521	-51.835031
2827.752247	-52.137785
2830.422005	-52.532693
2833.096808	-53.078199
2835.776672	-53.845948
2838.461611	-54.606599
2841.151638	-55.331877
2843.846769	-55.964788
2846.547019	-57.093101
2849.252401	-57.709239
2851.962930	-57.888411
2854.678621	-59.660487
2857.399489	-59.348696
2860.125549	-59.571086
2862.856815	-59.197392
2865.593302	-57.611627
2868.335026	-57.582788
2871.082002	-55.962821
2873.834244	-55.657854
2876.591767	-54.865787
2879.354588	-54.474908
2882.122721	-54.713778
2884.896181	-54.306349
2887.674984	-54.417091
2890.459146	-54.953641
2893.248681	-54.903380
2896.043606	-55.673666
2898.843937	-55.942546
2901.649687	-55.947647
2904.460875	-56.877881
2907.277515	-56.212650
2910.099623	-56.622980
2912.927215	-56.339122
2915.760308	-56.636343
2918.598916	-56.776005
2921.443057	-57.134131
2924.292747	-57.365472
2927.148002	-57.343505
2930.008837	-58.170398
2932.875270	-57.694644
2935.747318	-58.767501
2938.624995	-59.028581
2941.508320	-59.484297
2944.397308	-62.146227
2947.291977	-61.999258
2950.192343	-65.079913
2953.098423	-67.679917
2956.010234	-69.738381
2958.927792	-75.095135
2961.851116	-72.026772
2964.780221	-71.099912
2967.715126	-66.698266
2970.655847	-67.440940
2973.602402	-63.838080
2976.554808	-65.331739
2979.513083	-63.543536
2982.477243	-64.325379
2985.447308	-65.239699
2988.423293	-63.965858
2991.405218	-67.724769
2994.393099	-64.972269
2997.386955	-66.273097
