# 2022-03-22_10.36.21
# shape = sech2
# FWHM_ps = 0.11
# carrier_nm = 1542
# frep_MHz = 12126
# pow_mW = 8000
# GDD = 0.0
# propa_len = 0.12555555555555556
# untap_len = 0.01
# taper_len = 0.06555555555555556
# waist_len = 0.02
# uptap_len = 0.02
# untap_scale = 1.0
# waist_scale = 0.3052631578947369
# workingDir = NL_20110305_12 (Spirou)
# axis = slow
# window_ps = 10.0
# steps = 200
# points = 21700
# 
# wavelength [nm]	 power spectral density [dB]
600.043425	-97.902483
600.163550	-97.936457
600.283723	-98.037666
600.403943	-98.211561
600.524212	-98.465455
600.644529	-98.806767
600.764895	-99.243042
600.885308	-99.782335
601.005770	-100.433644
601.126280	-101.207630
601.246839	-102.117738
601.367446	-103.181573
601.488101	-104.422903
601.608804	-105.873754
601.729557	-107.574541
601.850357	-109.562368
601.971206	-111.807401
602.092104	-113.963330
602.213050	-114.956359
602.334045	-114.011261
602.455089	-112.112129
602.576181	-110.220425
602.697322	-108.603271
602.818511	-107.269984
602.939749	-106.179658
603.061036	-105.290988
603.182372	-104.570734
603.303757	-103.993343
603.425191	-103.539070
603.546673	-103.192601
603.668204	-102.941803
603.789785	-102.776922
603.911414	-102.690039
604.033092	-102.674939
604.154820	-102.726824
604.276596	-102.842249
604.398422	-103.019166
604.520297	-103.256743
604.642220	-103.555507
604.764193	-103.917153
604.886216	-104.344254
605.008287	-104.840017
605.130408	-105.407650
605.252578	-106.049711
605.374798	-106.766823
605.497066	-107.556181
605.619385	-108.409504
605.741752	-109.310300
605.864169	-110.230272
605.986636	-111.126786
606.109152	-111.944087
606.231718	-112.621125
606.354333	-113.107364
606.476998	-113.379971
606.599712	-113.450454
606.722476	-113.355443
606.845290	-113.140552
606.968154	-112.848302
607.091067	-112.514122
607.214030	-112.166844
607.337043	-111.830222
607.460106	-111.524203
607.583219	-111.266329
607.706381	-111.071923
607.829594	-110.955143
607.952856	-110.929632
608.076169	-111.009234
608.199531	-111.210069
608.322944	-111.552218
608.446407	-112.062879
608.569920	-112.780512
608.693483	-113.762346
608.817096	-115.098598
608.940759	-116.944981
609.064473	-119.600635
609.188237	-123.715392
609.312051	-129.735395
609.435916	-126.614759
609.559831	-120.946150
609.683796	-117.294841
609.807812	-114.752484
609.931878	-112.877325
610.055995	-111.458135
610.180162	-110.381345
610.304380	-109.580205
610.428648	-109.012841
610.552967	-108.652191
610.677337	-108.480646
610.801757	-108.486763
610.926228	-108.662359
611.050750	-109.000061
611.175323	-109.488351
611.299946	-110.102137
611.424620	-110.785721
611.549345	-111.426181
611.674121	-111.835275
611.798948	-111.800553
611.923826	-111.230860
612.048755	-110.240130
612.173734	-109.040791
612.298765	-107.806923
612.423847	-106.636807
612.548980	-105.574267
612.674165	-104.633755
612.799400	-103.816147
612.924687	-103.116631
613.050025	-102.528394
613.175414	-102.044110
613.300854	-101.656714
613.426346	-101.359603
613.551889	-101.146756
613.677484	-101.012478
613.803130	-100.951370
613.928827	-100.958372
614.054576	-101.028472
614.180377	-101.156520
614.306229	-101.336712
614.432132	-101.562065
614.558087	-101.823514
614.684094	-102.108746
614.810153	-102.401090
614.936263	-102.678512
615.062425	-102.913683
615.188639	-103.076005
615.314904	-103.136567
615.441222	-103.075004
615.567591	-102.885987
615.694012	-102.580955
615.820486	-102.184544
615.947011	-101.727436
616.073588	-101.239414
616.200217	-100.745210
616.326898	-100.262777
616.453632	-99.803737
616.580417	-99.374781
616.707255	-98.979048
616.834144	-98.617434
616.961086	-98.289669
617.088081	-97.995398
617.215127	-97.734652
617.342226	-97.508214
617.469378	-97.317616
617.596581	-97.164849
617.723837	-97.051994
617.851146	-96.980588
617.978507	-96.951141
618.105920	-96.962289
618.233386	-97.010331
618.360905	-97.088842
618.488476	-97.188616
618.616100	-97.298176
618.743777	-97.404738
618.871506	-97.495835
618.999288	-97.561417
619.127123	-97.595815
619.255011	-97.598918
619.382951	-97.575795
619.510945	-97.535127
619.638991	-97.486981
619.767090	-97.440485
619.895243	-97.402090
620.023448	-97.374622
620.151706	-97.357205
620.280017	-97.345979
620.408382	-97.335394
620.536799	-97.319788
620.665270	-97.295424
620.793794	-97.261812
620.922371	-97.222440
621.051002	-97.184422
621.179686	-97.157290
621.308423	-97.151443
621.437213	-97.176432
621.566057	-97.239602
621.694954	-97.345104
621.823905	-97.493199
621.952909	-97.680054
622.081967	-97.897782
622.211079	-98.135100
622.340244	-98.378749
622.469462	-98.615774
622.598735	-98.836211
622.728061	-99.035644
622.857441	-99.216878
622.986874	-99.390016
623.116361	-99.570739
623.245903	-99.777877
623.375498	-100.030995
623.505147	-100.348757
623.634850	-100.748327
623.764606	-101.245432
623.894417	-101.855184
624.024282	-102.593145
624.154201	-103.477513
624.284174	-104.531868
624.414202	-105.789835
624.544283	-107.302299
624.674419	-109.149663
624.804609	-111.458741
624.934853	-114.397099
625.065151	-117.812916
625.195504	-119.131074
625.325911	-116.330851
625.456373	-113.055341
625.586889	-110.443396
625.717460	-108.394792
625.848085	-106.753663
625.978764	-105.414736
626.109498	-104.310402
626.240287	-103.395841
626.371131	-102.639799
626.502029	-102.019369
626.632982	-101.516736
626.763989	-101.117141
626.895052	-100.807742
627.026169	-100.576851
627.157341	-100.413511
627.288568	-100.307212
627.419850	-100.247887
627.551187	-100.225902
627.682579	-100.232400
627.814026	-100.259675
627.945528	-100.301555
628.077085	-100.353635
628.208697	-100.413223
628.340364	-100.479842
628.472087	-100.554731
628.603865	-100.640429
628.735698	-100.740650
628.867586	-100.859933
628.999530	-101.002838
629.131529	-101.173558
629.263584	-101.375155
629.395694	-101.608869
629.527859	-101.873662
629.660080	-102.165206
629.792357	-102.475074
629.924689	-102.789822
630.057077	-103.090745
630.189520	-103.354786
630.322019	-103.557911
630.454574	-103.680092
630.587184	-103.711557
630.719851	-103.656608
630.852573	-103.533281
630.985351	-103.369191
631.118185	-103.195501
631.251075	-103.042102
631.384021	-102.934888
631.517023	-102.895183
631.650081	-102.940331
631.783195	-103.084990
631.916365	-103.342365
632.049592	-103.725707
632.182874	-104.249080
632.316213	-104.928375
632.449608	-105.780975
632.583059	-106.823312
632.716567	-108.059841
632.850131	-109.448829
632.983751	-110.816584
633.117428	-111.733605
633.251161	-111.666114
633.384951	-110.611071
633.518797	-109.104068
633.652700	-107.581932
633.786660	-106.225559
633.920676	-105.082401
634.054749	-104.153744
634.188879	-103.428822
634.323065	-102.896606
634.457308	-102.548636
634.591608	-102.378309
634.725965	-102.378984
634.860379	-102.539527
634.994850	-102.836291
635.129377	-103.218803
635.263962	-103.589559
635.398604	-103.791789
635.533303	-103.647108
635.668058	-103.063251
635.802872	-102.110846
635.937742	-100.961743
636.072669	-99.776110
636.207654	-98.655256
636.342696	-97.649765
636.477796	-96.779851
636.612953	-96.050293
636.748167	-95.458537
636.883439	-94.998711
637.018768	-94.663677
637.154155	-94.445504
637.289599	-94.335533
637.425101	-94.324203
637.560660	-94.400608
637.696277	-94.552120
637.831952	-94.763990
637.967685	-95.019204
638.103475	-95.298767
638.239324	-95.582812
638.375230	-95.852331
638.511194	-96.091418
638.647215	-96.288687
638.783295	-96.437662
638.919433	-96.535478
639.055629	-96.580094
639.191883	-96.567391
639.328195	-96.489429
639.464565	-96.334213
639.600994	-96.088252
639.737481	-95.741307
639.874025	-95.291466
640.010629	-94.748051
640.147290	-94.130652
640.284010	-93.465118
640.420789	-92.778728
640.557625	-92.096214
640.694521	-91.437874
640.831474	-90.819093
640.968487	-90.250617
641.105558	-89.739456
641.242687	-89.289629
641.379876	-88.902935
641.517123	-88.579456
641.654429	-88.317951
641.791793	-88.116079
641.929216	-87.970475
642.066699	-87.876852
642.204240	-87.830074
642.341840	-87.824179
642.479499	-87.852385
642.617217	-87.907277
642.754994	-87.980963
642.892830	-88.065447
643.030726	-88.153115
643.168680	-88.237274
643.306694	-88.312762
643.444767	-88.376533
643.582899	-88.427904
643.721091	-88.468563
643.859342	-88.502287
643.997652	-88.534561
644.136022	-88.571935
644.274451	-88.621380
644.412940	-88.689471
644.551488	-88.781904
644.690096	-88.903089
644.828763	-89.055656
644.967490	-89.240012
645.106277	-89.453874
645.245124	-89.691704
645.384030	-89.944245
645.522997	-90.198200
645.662023	-90.436296
645.801109	-90.638351
645.940255	-90.783438
646.079460	-90.853041
646.218726	-90.834658
646.358052	-90.724537
646.497438	-90.528402
646.636884	-90.259823
646.776391	-89.936897
646.915957	-89.578830
647.055584	-89.203360
647.195271	-88.825452
647.335019	-88.456782
647.474826	-88.106022
647.614695	-87.779271
647.754623	-87.480629
647.894612	-87.212724
648.034662	-86.977120
648.174772	-86.774649
648.314943	-86.605719
648.455174	-86.470420
648.595466	-86.368533
648.735819	-86.299493
648.876233	-86.262227
649.016707	-86.254852
649.157242	-86.274254
649.297838	-86.315534
649.438495	-86.371451
649.579213	-86.432077
649.719992	-86.484502
649.860832	-86.513407
650.001733	-86.502504
650.142695	-86.436781
650.283718	-86.305347
650.424803	-86.103978
650.565949	-85.836178
650.707156	-85.512554
650.848424	-85.148508
650.989754	-84.761386
651.131145	-84.368190
651.272597	-83.983905
651.414111	-83.620833
651.555687	-83.288577
651.697324	-82.994315
651.839022	-82.743286
651.980782	-82.539206
652.122604	-82.384665
652.264488	-82.281374
652.406433	-82.230382
652.548441	-82.232101
652.690510	-82.286280
652.832640	-82.392035
652.974833	-82.547672
653.117088	-82.750542
653.259405	-82.996792
653.401784	-83.281084
653.544224	-83.596259
653.686727	-83.932996
653.829293	-84.279613
653.971920	-84.622205
654.114609	-84.945094
654.257361	-85.231951
654.400175	-85.467675
654.543052	-85.640617
654.685991	-85.744786
654.828992	-85.781170
654.972056	-85.757532
655.115183	-85.687099
655.258372	-85.586301
655.401623	-85.472560
655.544937	-85.362729
655.688314	-85.272138
655.831754	-85.214428
655.975256	-85.201849
656.118822	-85.245693
656.262450	-85.356834
656.406141	-85.546337
656.549894	-85.826167
656.693711	-86.209959
656.837591	-86.713866
656.981534	-87.357373
657.125540	-88.164037
657.269610	-89.161064
657.413742	-90.374405
657.557938	-91.807947
657.702196	-93.371723
657.846519	-94.699666
657.990904	-95.041392
658.135353	-94.013665
658.279866	-92.227691
658.424441	-90.351437
658.569081	-88.649318
658.713784	-87.172703
658.858550	-85.908323
659.003381	-84.829932
659.148274	-83.912525
659.293232	-83.135367
659.438253	-82.481925
659.583339	-81.939060
659.728488	-81.496215
659.873701	-81.144832
660.018978	-80.877719
660.164318	-80.688612
660.309723	-80.571791
660.455192	-80.521709
660.600725	-80.532661
660.746323	-80.598336
660.891984	-80.711305
661.037710	-80.862393
661.183500	-81.039995
661.329354	-81.229543
661.475272	-81.413334
661.621255	-81.571046
661.767303	-81.681343
661.913415	-81.724763
662.059591	-81.687347
662.205833	-81.563746
662.352138	-81.358489
662.498509	-81.084549
662.644944	-80.760101
662.791443	-80.404816
662.938008	-80.036825
663.084638	-79.671231
663.231332	-79.319639
663.378091	-78.990422
663.524915	-78.689362
663.671804	-78.420241
663.818759	-78.185428
663.965778	-77.986258
664.112863	-77.823335
664.260012	-77.696613
664.407227	-77.605443
664.554507	-77.548465
664.701853	-77.523533
664.849264	-77.527577
664.996740	-77.556511
665.144282	-77.605206
665.291889	-77.667474
665.439561	-77.736076
665.587300	-77.802934
665.735103	-77.859381
665.882973	-77.896595
666.030908	-77.906313
666.178909	-77.881704
666.326976	-77.818256
666.475109	-77.714475
666.623307	-77.572257
666.771571	-77.396736
666.919902	-77.195726
667.068298	-76.978755
667.216761	-76.755977
667.365289	-76.537277
667.513884	-76.331611
667.662545	-76.146636
667.811272	-75.988556
667.960065	-75.862123
668.108925	-75.770782
668.257851	-75.716831
668.406843	-75.701504
668.555902	-75.725003
668.705027	-75.786452
668.854219	-75.883682
669.003478	-76.012809
669.152803	-76.167811
669.302195	-76.340036
669.451653	-76.517737
669.601179	-76.686029
669.750771	-76.827516
669.900430	-76.923855
670.050156	-76.958292
670.199949	-76.918829
670.349808	-76.800921
670.499735	-76.608532
670.649729	-76.353176
670.799790	-76.051279
670.949918	-75.721159
671.100114	-75.380491
671.250377	-75.044753
671.400707	-74.726601
671.551104	-74.435897
671.701569	-74.180012
671.852101	-73.964261
672.002700	-73.792346
672.153368	-73.666661
672.304102	-73.588522
672.454905	-73.558295
672.605775	-73.575518
672.756713	-73.638886
672.907718	-73.746173
673.058791	-73.894000
673.209933	-74.077618
673.361142	-74.290598
673.512419	-74.524454
673.663764	-74.768377
673.815177	-75.009112
673.966658	-75.231299
674.118207	-75.418529
674.269825	-75.555222
674.421510	-75.629126
674.573264	-75.633801
674.725086	-75.570109
674.876977	-75.446153
675.028936	-75.275581
675.180963	-75.075050
675.333059	-74.861761
675.485224	-74.651593
675.637457	-74.458103
675.789758	-74.292205
675.942129	-74.162323
676.094568	-74.074685
676.247075	-74.033709
676.399652	-74.042310
676.552298	-74.101972
676.705012	-74.212729
676.857795	-74.372923
677.010648	-74.578760
677.163569	-74.823652
677.316560	-75.097408
677.469619	-75.385290
677.622748	-75.667262
677.775946	-75.918171
677.929214	-76.109540
678.082551	-76.213633
678.235957	-76.209435
678.389432	-76.088487
678.542977	-75.857657
678.696592	-75.537174
678.850276	-75.155102
679.004030	-74.741148
679.157853	-74.322124
679.311746	-73.919854
679.465709	-73.550848
679.619742	-73.226965
679.773844	-72.956401
679.928017	-72.744693
680.082259	-72.595506
680.236571	-72.511275
680.390954	-72.493646
680.545406	-72.543722
680.699929	-72.662196
680.854522	-72.849301
681.009185	-73.104545
681.163918	-73.426115
681.318722	-73.810020
681.473596	-74.248678
681.628540	-74.728909
681.783555	-75.229561
681.938641	-75.719278
682.093797	-76.156078
682.249023	-76.491289
682.404321	-76.679897
682.559689	-76.695270
682.715128	-76.539934
682.870637	-76.244478
683.026218	-75.855519
683.181869	-75.421392
683.337591	-74.983013
683.493385	-74.571001
683.649249	-74.206620
683.805185	-73.904066
683.961191	-73.672698
684.117269	-73.518838
684.273418	-73.447019
684.429639	-73.460697
684.585930	-73.562767
684.742294	-73.755782
684.898728	-74.041945
685.055234	-74.422823
685.211812	-74.898474
685.368461	-75.465774
685.525182	-76.115181
685.681975	-76.825042
685.838839	-77.552661
685.995775	-78.224125
686.152783	-78.732227
686.309863	-78.961166
686.467014	-78.843398
686.624238	-78.405234
686.781534	-77.748521
686.938902	-76.990943
687.096342	-76.224138
687.253854	-75.505221
687.411438	-74.864900
687.569095	-74.317600
687.726824	-73.868800
687.884626	-73.519616
688.042499	-73.269336
688.200446	-73.116700
688.358465	-73.060475
688.516556	-73.099624
688.674720	-73.233006
688.832957	-73.458633
688.991266	-73.772329
689.149649	-74.165425
689.308104	-74.621137
689.466632	-75.109342
689.625233	-75.580682
689.783906	-75.963857
689.942653	-76.174236
690.101473	-76.140490
690.260367	-75.838982
690.419333	-75.306984
690.578372	-74.620954
690.737485	-73.861844
690.896672	-73.093586
691.055931	-72.358640
691.215264	-71.682081
691.374671	-71.077412
691.534151	-70.551277
691.693704	-70.106566
691.853332	-69.744242
692.013033	-69.464459
692.172807	-69.267224
692.332656	-69.152754
692.492578	-69.121708
692.652575	-69.175365
692.812645	-69.315696
692.972789	-69.545399
693.133007	-69.867832
693.293300	-70.286782
693.453666	-70.805872
693.614107	-71.427298
693.774622	-72.149336
693.935211	-72.961269
694.095875	-73.834047
694.256613	-74.705225
694.417426	-75.462737
694.578313	-75.949703
694.739274	-76.025543
694.900311	-75.663286
695.061421	-74.972114
695.222607	-74.113440
695.383868	-73.218442
695.545203	-72.366409
695.706613	-71.597156
695.868098	-70.927604
696.029658	-70.363095
696.191293	-69.903741
696.353003	-69.547601
696.514789	-69.292174
696.676649	-69.135103
696.838585	-69.074473
697.000596	-69.108870
697.162682	-69.237270
697.324844	-69.458772
697.487081	-69.771987
697.649394	-70.173930
697.811782	-70.658045
697.974246	-71.210647
698.136786	-71.805442
698.299401	-72.396251
698.462092	-72.910899
698.624859	-73.255355
698.787702	-73.340015
698.950621	-73.123369
699.113616	-72.637786
699.276686	-71.969238
699.439833	-71.213314
699.603056	-70.445609
699.766355	-69.715176
699.929731	-69.049916
700.093183	-68.464064
700.256711	-67.964037
700.420315	-67.552240
700.583996	-67.229308
700.747754	-66.995355
700.911588	-66.850688
701.075499	-66.796245
701.239486	-66.833813
701.403550	-66.966233
701.567691	-67.197642
701.731909	-67.533797
701.896203	-67.982564
702.060575	-68.554601
702.225024	-69.264390
702.389549	-70.131682
702.554152	-71.183555
702.718832	-72.456801
702.883589	-73.999161
703.048424	-75.861540
703.213335	-78.043030
703.378324	-80.243304
703.543391	-81.333041
703.708535	-80.314238
703.873757	-78.250252
704.039056	-76.236217
704.204433	-74.552842
704.369887	-73.198509
704.535420	-72.123949
704.701030	-71.283697
704.866718	-70.643294
705.032484	-70.178115
705.198328	-69.871356
705.364250	-69.712387
705.530250	-69.695724
705.696328	-69.820586
705.862485	-70.090859
706.028720	-70.515522
706.195033	-71.109618
706.361424	-71.895903
706.527894	-72.907645
706.694442	-74.192539
706.861069	-75.816283
707.027775	-77.852994
707.194559	-80.287118
707.361422	-82.501270
707.528363	-82.612265
707.695384	-80.458930
707.862483	-77.959586
708.029661	-75.836986
708.196918	-74.128544
708.364254	-72.760750
708.531670	-71.665651
708.699164	-70.793418
708.866738	-70.109065
709.034391	-69.588213
709.202123	-69.214081
709.369935	-68.975493
709.537826	-68.865632
709.705796	-68.881364
709.873847	-69.023018
710.041976	-69.294490
710.210186	-69.703780
710.378475	-70.264099
710.546844	-70.995821
710.715292	-71.929972
710.883821	-73.114573
711.052429	-74.627322
711.221118	-76.603412
711.389887	-79.306029
711.558735	-83.343365
711.727664	-90.312782
711.896673	-90.955776
712.065763	-83.762871
712.234932	-79.630901
712.404183	-76.901014
712.573513	-74.923332
712.742924	-73.420603
712.912416	-72.251812
713.081988	-71.336572
713.251641	-70.625579
713.421375	-70.087313
713.591190	-69.701403
713.761085	-69.455079
713.931061	-69.341197
714.101119	-69.357213
714.271257	-69.504815
714.441476	-69.790128
714.611777	-70.224523
714.782159	-70.826198
714.952622	-71.623243
715.123166	-72.659342
715.293792	-74.004857
715.464499	-75.781409
715.635288	-78.224548
715.806158	-81.889433
715.977110	-88.747049
716.148143	-100.563628
716.319259	-85.318904
716.490456	-80.079188
716.661735	-76.907112
716.833096	-74.682320
717.004538	-73.018834
717.176063	-71.737731
717.347670	-70.741990
717.519359	-69.973777
717.691130	-69.396718
717.862984	-68.987589
718.034920	-68.732031
718.206938	-68.622298
718.379039	-68.656137
718.551222	-68.836420
718.723488	-69.171454
718.895836	-69.675855
719.068267	-70.372652
719.240781	-71.297324
719.413377	-72.505664
719.586057	-74.090366
719.758819	-76.219971
719.931664	-79.249021
720.104593	-84.142193
720.277604	-95.015821
720.450699	-88.270523
720.623876	-81.393297
720.797137	-77.650824
720.970482	-75.153119
721.143910	-73.339267
721.317421	-71.970766
721.491016	-70.925515
721.664694	-70.133968
721.838456	-69.554049
722.012302	-69.159639
722.186231	-68.934958
722.360244	-68.871643
722.534342	-68.967332
722.708523	-69.225275
722.882788	-69.654901
723.057137	-70.273227
723.231570	-71.107544
723.406088	-72.199784
723.580689	-73.612944
723.755375	-75.436442
723.930146	-77.761217
724.105000	-80.425672
724.279940	-81.902231
724.454963	-80.220389
724.630072	-77.333552
724.805265	-74.782348
724.980543	-72.731747
725.155905	-71.089602
725.331353	-69.763839
725.506885	-68.687848
725.682503	-67.815200
725.858205	-67.113335
726.033993	-66.559170
726.209865	-66.136368
726.385823	-65.833642
726.561866	-65.643668
726.737995	-65.562435
726.914209	-65.588809
727.090508	-65.724210
727.266893	-65.972292
727.443364	-66.338660
727.619920	-66.830305
727.796562	-67.454457
727.973290	-68.215914
728.150103	-69.110535
728.327003	-70.110862
728.503988	-71.137245
728.681060	-72.016665
728.858218	-72.481236
729.035461	-72.313917
729.212791	-71.558986
729.390208	-70.473794
729.567710	-69.305283
729.745299	-68.195392
729.922975	-67.205002
730.100737	-66.353384
730.278586	-65.642159
730.456521	-65.066620
730.634543	-64.620661
730.812652	-64.298794
730.990848	-64.096892
731.169130	-64.012519
731.347500	-64.045126
731.525957	-64.196169
731.704500	-64.469265
731.883131	-64.870364
732.061850	-65.407733
732.240655	-66.091510
732.419548	-66.931892
732.598528	-67.933615
732.777596	-69.081197
732.956751	-70.303074
733.135994	-71.404052
733.315325	-72.023115
733.494744	-71.829181
733.674250	-70.891201
733.853844	-69.590011
734.033526	-68.243095
734.213296	-67.001203
734.393154	-65.913472
734.573101	-64.986272
734.753135	-64.211382
734.933258	-63.577115
735.113469	-63.072327
735.293769	-62.687786
735.474157	-62.416522
735.654633	-62.253829
735.835198	-62.197251
736.015852	-62.246588
736.196594	-62.404004
736.377426	-62.674171
736.558346	-63.064588
736.739355	-63.586032
736.920453	-64.253057
737.101640	-65.084407
737.282916	-66.102306
737.464282	-67.327872
737.645736	-68.763363
737.827280	-70.334110
738.008914	-71.742622
738.190637	-72.345964
738.372449	-71.679300
738.554351	-70.162233
738.736342	-68.453235
738.918424	-66.871641
739.100595	-65.501802
739.282855	-64.344971
739.465206	-63.381488
739.647647	-62.590007
739.830178	-61.952514
740.012799	-61.455076
740.195510	-61.087532
740.378311	-60.843000
740.561203	-60.717500
740.744185	-60.709744
740.927258	-60.821153
741.110421	-61.056109
741.293674	-61.422506
741.477018	-61.932780
741.660453	-62.605554
741.843979	-63.468535
742.027596	-64.563554
742.211303	-65.955870
742.395102	-67.752655
742.578991	-70.141493
742.762972	-73.461107
742.947044	-78.009064
743.131207	-79.588440
743.315461	-75.058735
743.499807	-71.213692
743.684244	-68.474083
743.868773	-66.434588
744.053394	-64.857800
744.238106	-63.610873
744.422910	-62.614607
744.607805	-61.818864
744.792793	-61.190460
744.977872	-60.706816
745.163044	-60.352402
745.348307	-60.116720
745.533663	-59.993082
745.719111	-59.977976
745.904651	-60.070766
746.090283	-60.273698
746.276008	-60.592206
746.461826	-61.035507
746.647735	-61.617748
746.833738	-62.359928
747.019833	-63.293192
747.206021	-64.464688
747.392302	-65.948634
747.578676	-67.868700
747.765143	-70.445007
747.951703	-74.068398
748.138356	-78.710247
748.325102	-78.180631
748.511941	-73.447573
748.698874	-69.879299
748.885900	-67.307483
749.073019	-65.363082
749.260232	-63.841369
749.447539	-62.626850
749.634939	-61.649921
749.822433	-60.866244
750.010021	-60.246416
750.197703	-59.770400
750.385479	-59.424406
750.573348	-59.199020
750.761312	-59.088047
750.949370	-59.087865
751.137523	-59.197020
751.325769	-59.416024
751.514110	-59.747287
751.702545	-60.195029
751.891075	-60.765216
752.079700	-61.465126
752.268419	-62.301988
752.457233	-63.279250
752.646142	-64.387171
752.835145	-65.581088
753.024244	-66.739062
753.213437	-67.614714
753.402726	-67.891949
753.592110	-67.440427
753.781589	-66.463479
753.971163	-65.275371
754.160833	-64.087841
754.350598	-62.996836
754.540459	-62.033730
754.730415	-61.202149
754.920467	-60.495764
755.110615	-59.905746
755.300858	-59.423635
755.491198	-59.042325
755.681633	-58.756263
755.872164	-58.561433
756.062792	-58.455209
756.253515	-58.436138
756.444335	-58.503764
756.635252	-58.658428
756.826264	-58.901012
757.017373	-59.232537
757.208579	-59.653469
757.399881	-60.162513
757.591280	-60.754415
757.782776	-61.416109
757.974368	-62.120468
758.166058	-62.817712
758.357844	-63.428008
758.549728	-63.846330
758.741708	-63.974450
758.933786	-63.772937
759.125961	-63.287307
759.318233	-62.618008
759.510603	-61.868617
759.703071	-61.116145
759.895635	-60.407685
760.088298	-59.768195
760.281058	-59.208985
760.473916	-58.733732
760.666872	-58.342136
760.859926	-58.032044
761.053078	-57.800588
761.246328	-57.644743
761.439676	-57.561627
761.633122	-57.548602
761.826667	-57.603301
762.020310	-57.723499
762.214052	-57.906913
762.407892	-58.150897
762.601831	-58.451920
762.795868	-58.804855
762.990004	-59.201867
763.184239	-59.630902
763.378573	-60.073849
763.573006	-60.504794
763.767538	-60.889371
763.962169	-61.187009
764.156900	-61.357789
764.351729	-61.373353
764.546658	-61.227057
764.741687	-60.936836
764.936815	-60.538649
765.132042	-60.075175
765.327370	-59.586167
765.522797	-59.103543
765.718324	-58.650541
765.913950	-58.242940
766.109677	-57.890873
766.305504	-57.600419
766.501431	-57.374870
766.697458	-57.215567
766.893586	-57.122440
767.089814	-57.094267
767.286142	-57.128769
767.482571	-57.222514
767.679100	-57.370757
767.875730	-57.567129
768.072461	-57.803266
768.269293	-58.068450
768.466225	-58.349363
768.663259	-58.630119
768.860393	-58.892831
769.057629	-59.118940
769.254966	-59.291387
769.452404	-59.397173
769.649944	-59.429553
769.847585	-59.389060
770.045328	-59.282925
770.243172	-59.123089
770.441118	-58.923675
770.639166	-58.698793
770.837315	-58.461092
771.035567	-58.221107
771.233920	-57.987201
771.432376	-57.765924
771.630934	-57.562429
771.829594	-57.380888
772.028356	-57.224768
772.227220	-57.097055
772.426188	-57.000442
772.625257	-56.937296
772.824430	-56.909581
773.023705	-56.918794
773.223083	-56.965811
773.422563	-57.050733
773.622147	-57.172690
773.821834	-57.329623
774.021624	-57.518053
774.221517	-57.732809
774.421513	-57.966796
774.621613	-58.210900
774.821816	-58.454040
775.022122	-58.683717
775.222532	-58.886966
775.423046	-59.051819
775.623664	-59.169014
775.824385	-59.233529
776.025211	-59.245384
776.226140	-59.209403
776.427173	-59.134103
776.628311	-59.030021
776.829553	-58.908034
777.030899	-58.778184
777.232350	-58.648912
777.433905	-58.526790
777.635564	-58.416627
777.837328	-58.321676
778.039197	-58.244010
778.241171	-58.184875
778.443250	-58.144973
778.645433	-58.124697
778.847722	-58.124244
779.050116	-58.143733
779.252615	-58.183274
779.455219	-58.242970
779.657929	-58.322830
779.860744	-58.422612
780.063665	-58.541732
780.266691	-58.679056
780.469823	-58.832743
780.673061	-59.000108
780.876405	-59.177494
781.079855	-59.360215
781.283410	-59.542624
781.487072	-59.718394
781.690840	-59.881005
781.894715	-60.024394
782.098695	-60.143784
782.302783	-60.236348
782.506976	-60.301783
782.711277	-60.342323
782.915684	-60.362396
783.120198	-60.368001
783.324818	-60.365895
783.529546	-60.362839
783.734381	-60.364994
783.939322	-60.377547
784.144372	-60.404532
784.349528	-60.448840
784.554792	-60.512438
784.760163	-60.596462
784.965642	-60.701474
785.171228	-60.827636
785.376922	-60.974998
785.582724	-61.143617
785.788634	-61.333529
785.994651	-61.544755
786.200777	-61.777176
786.407011	-62.030259
786.613353	-62.302693
786.819804	-62.591828
787.026363	-62.893326
787.233030	-63.200779
787.439806	-63.505740
787.646691	-63.798133
787.853684	-64.067402
788.060786	-64.304388
788.267997	-64.503477
788.475317	-64.664374
788.682746	-64.792728
788.890285	-64.899408
789.097932	-64.998505
789.305689	-65.105028
789.513555	-65.232667
789.721531	-65.392107
789.929617	-65.589808
790.137812	-65.827234
790.346117	-66.100107
790.554531	-66.397858
790.763056	-66.703492
790.971691	-66.994383
791.180436	-67.244994
791.389291	-67.431918
791.598256	-67.540337
791.807332	-67.569228
792.016518	-67.532425
792.225815	-67.454690
792.435222	-67.365236
792.644740	-67.291490
792.854369	-67.254922
793.064109	-67.269322
793.273960	-67.340209
793.483922	-67.464635
793.693995	-67.631558
793.904180	-67.822358
794.114475	-68.012375
794.324882	-68.173817
794.535401	-68.280853
794.746031	-68.315615
794.956774	-68.272703
795.167627	-68.159658
795.378593	-67.993350
795.589671	-67.793991
795.800861	-67.579502
796.012162	-67.361917
796.223577	-67.145925
796.435103	-66.929478
796.646742	-66.705392
796.858493	-66.464177
797.070357	-66.197181
797.282334	-65.899636
797.494423	-65.572769
797.706626	-65.224175
797.918941	-64.866310
798.131369	-64.514055
798.343911	-64.182023
798.556566	-63.882313
798.769334	-63.623103
798.982215	-63.407892
799.195210	-63.235066
799.408319	-63.098020
799.621541	-62.985578
799.834877	-62.882861
800.048327	-62.773184
800.261890	-62.640336
800.475568	-62.471500
800.689360	-62.260010
800.903266	-62.006697
801.117287	-61.719567
801.331422	-61.411901
801.545671	-61.099517
801.760036	-60.798312
801.974514	-60.522344
802.189108	-60.282779
802.403816	-60.087586
802.618640	-59.941484
802.833578	-59.845898
803.048632	-59.799069
803.263800	-59.796188
803.479085	-59.829372
803.694484	-59.887843
803.909999	-59.958460
804.125630	-60.026554
804.341376	-60.077159
804.557239	-60.096687
804.773217	-60.074526
804.989311	-60.004145
805.205521	-59.883291
805.421847	-59.713366
805.638290	-59.498268
805.854849	-59.243154
806.071524	-58.953524
806.288316	-58.634978
806.505225	-58.293289
806.722250	-57.934865
806.939393	-57.566977
807.156652	-57.197899
807.374028	-56.836786
807.591521	-56.493278
807.809132	-56.176941
808.026859	-55.896799
808.244705	-55.660809
808.462667	-55.475505
808.680748	-55.345627
808.898946	-55.273871
809.117261	-55.260588
809.335695	-55.303335
809.554246	-55.396399
809.772916	-55.530142
809.991704	-55.690482
810.210610	-55.858724
810.429634	-56.012366
810.648777	-56.127205
810.868039	-56.180938
811.087419	-56.157836
811.306918	-56.052468
811.526535	-55.870786
811.746272	-55.627976
811.966127	-55.344222
812.186102	-55.040368
812.406196	-54.734720
812.626409	-54.441526
812.846742	-54.170703
813.067194	-53.928370
813.287766	-53.717613
813.508457	-53.539335
813.729269	-53.393079
813.950200	-53.277575
814.171251	-53.191234
814.392422	-53.132469
814.613714	-53.099830
814.835126	-53.091926
815.056658	-53.107087
815.278311	-53.142870
815.500084	-53.195429
815.721978	-53.258886
815.943993	-53.324815
816.166128	-53.382022
816.388385	-53.417042
816.610762	-53.415423
816.833261	-53.363896
817.055881	-53.253086
817.278623	-53.079959
817.501486	-52.848933
817.724471	-52.571266
817.947577	-52.262910
818.170805	-51.941693
818.394155	-51.624805
818.617627	-51.327053
818.841221	-51.059953
819.064937	-50.831415
819.288775	-50.645811
819.512736	-50.504193
819.736819	-50.404561
819.961025	-50.342093
820.185354	-50.309491
820.409805	-50.297452
820.634379	-50.295339
820.859076	-50.292213
821.083897	-50.278113
821.308840	-50.245281
821.533907	-50.189067
821.759097	-50.108331
821.984411	-50.005077
822.209848	-49.883493
822.435409	-49.748696
822.661093	-49.605564
822.886902	-49.457846
823.112834	-49.307751
823.338891	-49.155928
823.565072	-49.001791
823.791377	-48.844095
824.017807	-48.681623
824.244361	-48.513833
824.471039	-48.341309
824.697843	-48.165964
824.924771	-47.990921
825.151824	-47.820120
825.379002	-47.657746
825.606306	-47.507601
825.833734	-47.372469
826.061288	-47.253593
826.288967	-47.150360
826.516772	-47.060131
826.744703	-46.978374
826.972759	-46.899087
827.200941	-46.815539
827.429249	-46.721275
827.657683	-46.611186
827.886243	-46.482479
828.114930	-46.335287
828.343743	-46.172708
828.572682	-46.000237
828.801748	-45.824897
829.030941	-45.654149
829.260260	-45.494918
829.489706	-45.352834
829.719280	-45.231758
829.948980	-45.133507
830.178808	-45.057773
830.408763	-45.002220
830.638845	-44.962727
830.869055	-44.933793
831.099393	-44.909117
831.329858	-44.882331
831.560451	-44.847806
831.791173	-44.801417
832.022022	-44.741132
832.252999	-44.667189
832.484105	-44.581908
832.715339	-44.489106
832.946702	-44.393310
833.178193	-44.298956
833.409813	-44.209686
833.641561	-44.127850
833.873439	-44.054292
834.105445	-43.988371
834.337581	-43.928279
834.569846	-43.871501
834.802241	-43.815383
835.034764	-43.757729
835.267418	-43.697350
835.500201	-43.634408
835.733114	-43.570474
835.966157	-43.508348
836.199329	-43.451630
836.432632	-43.404187
836.666065	-43.369602
836.899629	-43.350649
837.133323	-43.348859
837.367147	-43.364240
837.601102	-43.395100
837.835188	-43.438083
838.069405	-43.488411
838.303752	-43.540321
838.538231	-43.587694
838.772841	-43.624858
839.007582	-43.647373
839.242455	-43.652693
839.477459	-43.640547
839.712595	-43.612865
839.947863	-43.573322
840.183263	-43.526637
840.418794	-43.477762
840.654458	-43.431130
840.890254	-43.390103
841.126182	-43.356678
841.362242	-43.331384
841.598435	-43.313413
841.834761	-43.300952
842.071220	-43.291624
842.307811	-43.283001
842.544536	-43.273077
842.781393	-43.260655
843.018384	-43.245558
843.255508	-43.228661
843.492765	-43.211693
843.730156	-43.196921
843.967681	-43.186803
844.205339	-43.183540
844.443132	-43.188755
844.681058	-43.203275
844.919118	-43.227034
845.157313	-43.259127
845.395642	-43.297963
845.634105	-43.341547
845.872703	-43.387833
846.111436	-43.435038
846.350303	-43.481975
846.589306	-43.528272
846.828443	-43.574416
847.067716	-43.621713
847.307124	-43.672114
847.546667	-43.727844
847.786345	-43.791068
848.026160	-43.863555
848.266110	-43.946339
848.506195	-44.039513
848.746417	-44.142062
848.986775	-44.251866
849.227269	-44.365752
849.467899	-44.479720
849.708666	-44.589260
849.949569	-44.689776
850.190609	-44.777059
850.431785	-44.847777
850.673099	-44.899802
850.914549	-44.932507
851.156137	-44.946747
851.397861	-44.944684
851.639723	-44.929454
851.881723	-44.904735
852.123860	-44.874347
852.366135	-44.841866
852.608547	-44.810345
852.851098	-44.782215
853.093786	-44.759167
853.336613	-44.742239
853.579578	-44.731891
853.822681	-44.728098
854.065923	-44.730578
854.309304	-44.738942
854.552823	-44.752843
854.796481	-44.772125
855.040278	-44.796890
855.284215	-44.827596
855.528290	-44.865025
855.772505	-44.910183
856.016859	-44.964164
856.261353	-45.027976
856.505987	-45.102380
856.750760	-45.187714
856.995673	-45.283719
857.240727	-45.389451
857.485920	-45.503254
857.731254	-45.622838
857.976729	-45.745444
858.222343	-45.868060
858.468099	-45.987769
858.713995	-46.102083
858.960032	-46.209263
859.206211	-46.308537
859.452530	-46.400210
859.698991	-46.485528
859.945593	-46.566447
860.192336	-46.645250
860.439222	-46.724141
860.686248	-46.804798
860.933417	-46.887988
861.180728	-46.973331
861.428181	-47.059231
861.675776	-47.142919
861.923514	-47.220733
862.171394	-47.288602
862.419417	-47.342591
862.667582	-47.379577
862.915890	-47.397799
863.164342	-47.397237
863.412936	-47.379729
863.661674	-47.348802
863.910555	-47.309262
864.159579	-47.266534
864.408747	-47.226154
864.658059	-47.193226
864.907515	-47.172015
865.157114	-47.165673
865.406858	-47.176171
865.656746	-47.204196
865.906778	-47.249258
866.156955	-47.309846
866.407277	-47.383583
866.657743	-47.467485
866.908354	-47.558197
867.159110	-47.652339
867.410011	-47.746745
867.661057	-47.838746
867.912249	-47.926491
868.163586	-48.009014
868.415069	-48.086330
868.666697	-48.159354
868.918472	-48.229654
869.170392	-48.299257
869.422458	-48.370284
869.674671	-48.444658
869.927030	-48.523817
870.179536	-48.608555
870.432188	-48.698862
870.684987	-48.793890
870.937933	-48.891990
871.191026	-48.990905
871.444266	-49.088028
871.697653	-49.180664
871.951188	-49.266479
872.204870	-49.343744
872.458700	-49.411652
872.712677	-49.470388
872.966803	-49.521135
873.221076	-49.565901
873.475498	-49.607157
873.730068	-49.647479
873.984787	-49.689165
874.239654	-49.733913
874.494669	-49.782573
874.749834	-49.835070
875.005147	-49.890381
875.260610	-49.946726
875.516222	-50.001942
875.771983	-50.053944
876.027894	-50.101206
876.283954	-50.143259
876.540164	-50.180945
876.796524	-50.216483
877.053033	-50.253340
877.309693	-50.295867
877.566503	-50.348890
877.823464	-50.417162
878.080575	-50.504770
878.337837	-50.614627
878.595249	-50.748083
878.852813	-50.904426
879.110528	-51.080524
879.368393	-51.270638
879.626410	-51.466367
879.884579	-51.656975
880.142899	-51.830271
880.401371	-51.974103
880.659994	-52.078277
880.918770	-52.136618
881.177698	-52.148658
881.436778	-52.120093
881.696010	-52.061976
881.955395	-51.988847
882.214933	-51.916505
882.474623	-51.859997
882.734467	-51.832066
882.994463	-51.842334
883.254613	-51.896637
883.514916	-51.996874
883.775372	-52.140866
884.035982	-52.322335
884.296746	-52.530991
884.557664	-52.753020
884.818735	-52.972161
885.079961	-53.171781
885.341341	-53.337586
885.602876	-53.460767
885.864565	-53.540335
886.126409	-53.583768
886.388407	-53.605539
886.650561	-53.624387
886.912870	-53.660048
887.175334	-53.730414
887.437953	-53.849903
887.700728	-54.028489
887.963658	-54.271236
888.226745	-54.578195
888.489987	-54.944636
888.753385	-55.360707
889.016940	-55.812198
889.280651	-56.281220
889.544518	-56.748017
889.808543	-57.194480
890.072723	-57.607585
890.337061	-57.982904
890.601556	-58.325962
890.866208	-58.650898
891.131017	-58.976906
891.395984	-59.323211
891.661109	-59.704287
891.926391	-60.125231
892.191831	-60.577007
892.457429	-61.032212
892.723186	-61.443973
892.989100	-61.751747
893.255173	-61.899996
893.521405	-61.863221
893.787796	-61.660750
894.054345	-61.348529
894.321053	-60.994302
894.587921	-60.657197
894.854948	-60.378819
895.122134	-60.183224
895.389480	-60.079505
895.656986	-60.063612
895.924651	-60.118795
896.192477	-60.214851
896.460463	-60.308846
896.728609	-60.350202
896.996915	-60.292725
897.265382	-60.111800
897.534010	-59.816393
897.802799	-59.446444
898.071749	-59.057272
898.340860	-58.703803
898.610132	-58.431389
898.879566	-58.273311
899.149162	-58.252641
899.418919	-58.384949
899.688838	-58.681188
899.958919	-59.149468
900.229162	-59.796249
900.499568	-60.627296
900.770136	-61.648475
901.040867	-62.865817
901.311761	-64.285983
901.582817	-65.916583
901.854037	-67.769446
902.125420	-69.869082
902.396966	-72.279174
902.668676	-75.178613
902.940550	-79.111008
903.212587	-86.283260
903.484788	-94.489500
903.757153	-80.677470
904.029683	-75.025117
904.302377	-71.254054
904.575236	-68.382109
904.848259	-66.070625
905.121447	-64.161041
905.394800	-62.564168
905.668319	-61.222218
905.942002	-60.093931
906.215852	-59.147271
906.489866	-58.354970
906.764047	-57.692300
907.038393	-57.135617
907.312906	-56.661886
907.587584	-56.248735
907.862429	-55.874986
908.137441	-55.521603
908.412619	-55.173213
908.687964	-54.818995
908.963476	-54.453323
909.239155	-54.075526
909.515002	-53.689048
909.791015	-53.300190
910.067197	-52.917133
910.343546	-52.548847
910.620063	-52.204057
910.896748	-51.890498
911.173601	-51.614364
911.450623	-51.379906
911.727813	-51.188963
912.005171	-51.041032
912.282699	-50.933169
912.560395	-50.860043
912.838261	-50.814508
913.116296	-50.788429
913.394500	-50.773557
913.672874	-50.762536
913.951418	-50.749730
914.230131	-50.731781
914.509015	-50.707709
914.788068	-50.678700
915.067292	-50.647771
915.346687	-50.619122
915.626252	-50.597665
915.905988	-50.588643
916.185895	-50.597264
916.465973	-50.628096
916.746223	-50.684786
917.026644	-50.769692
917.307236	-50.883680
917.588000	-51.025914
917.868937	-51.193933
918.150045	-51.383692
918.431325	-51.589873
918.712778	-51.806481
918.994404	-52.027305
919.276202	-52.246156
919.558173	-52.456947
919.840317	-52.653299
920.122634	-52.828196
920.405125	-52.973438
920.687789	-53.079700
920.970627	-53.137060
921.253639	-53.136107
921.536824	-53.069483
921.820184	-52.933712
922.103718	-52.729931
922.387427	-52.463733
922.671310	-52.143912
922.955368	-51.780995
923.239601	-51.385695
923.524009	-50.967739
923.808592	-50.535280
924.093351	-50.094883
924.378285	-49.651605
924.663396	-49.209366
924.948682	-48.771191
925.234144	-48.339559
925.519782	-47.916645
925.805597	-47.504532
926.091589	-47.105418
926.377757	-46.721600
926.664102	-46.355531
926.950624	-46.009549
927.237323	-45.685804
927.524200	-45.386116
927.811255	-45.111700
928.098487	-44.863123
928.385897	-44.640180
928.673485	-44.441883
928.961251	-44.266588
929.249196	-44.112095
929.537319	-43.975831
929.825621	-43.854989
930.114102	-43.746764
930.402762	-43.648609
930.691601	-43.558330
930.980620	-43.474250
931.269818	-43.395362
931.559196	-43.321296
931.848753	-43.252295
932.138491	-43.189215
932.428409	-43.133358
932.718508	-43.086277
933.008787	-43.049723
933.299246	-43.025457
933.589887	-43.015157
933.880709	-43.020243
934.171712	-43.041761
934.462896	-43.080220
934.754262	-43.135566
935.045810	-43.207173
935.337539	-43.293742
935.629451	-43.393442
935.921545	-43.503919
936.213822	-43.622393
936.506281	-43.745893
936.798922	-43.871264
937.091747	-43.995396
937.384755	-44.115360
937.677946	-44.228595
937.971321	-44.332941
938.264879	-44.426654
938.558621	-44.508429
938.852547	-44.577247
939.146657	-44.632397
939.440952	-44.673400
939.735431	-44.699937
940.030095	-44.711918
940.324943	-44.709456
940.619977	-44.692902
940.915196	-44.662785
941.210600	-44.619818
941.506189	-44.564817
941.801965	-44.498600
942.097926	-44.421833
942.394074	-44.334911
942.690407	-44.237870
942.986927	-44.130360
943.283634	-44.011681
943.580527	-43.880939
943.877608	-43.737163
944.174875	-43.579513
944.472330	-43.407460
944.769972	-43.220752
945.067802	-43.019452
945.365820	-42.803878
945.664026	-42.574553
945.962420	-42.332159
946.261002	-42.077573
946.559773	-41.811801
946.858733	-41.536001
947.157881	-41.251525
947.457219	-40.959871
947.756746	-40.662818
948.056462	-40.362352
948.356368	-40.060603
948.656464	-39.759764
948.956749	-39.462045
949.257225	-39.169630
949.557891	-38.884585
949.858748	-38.608844
950.159796	-38.344108
950.461034	-38.091862
950.762463	-37.853351
951.064084	-37.629557
951.365896	-37.421231
951.667900	-37.228870
951.970095	-37.052725
952.272483	-36.892761
952.575063	-36.748701
952.877835	-36.620012
953.180799	-36.505945
953.483956	-36.405527
953.787307	-36.317602
954.090850	-36.240882
954.394586	-36.173996
954.698516	-36.115565
955.002640	-36.064163
955.306957	-36.018414
955.611469	-35.977027
955.916174	-35.938900
956.221074	-35.903085
956.526169	-35.868871
956.831458	-35.835760
957.136942	-35.803484
957.442622	-35.771997
957.748496	-35.741455
958.054567	-35.712230
958.360833	-35.684828
958.667294	-35.659854
958.973952	-35.637968
959.280806	-35.619880
959.587857	-35.606314
959.895104	-35.597966
960.202548	-35.595479
960.510189	-35.599419
960.818027	-35.610230
961.126062	-35.628239
961.434295	-35.653604
961.742726	-35.686325
962.051355	-35.726180
962.360182	-35.772725
962.669207	-35.825302
962.978431	-35.883039
963.287854	-35.944814
963.597475	-36.009295
963.907296	-36.074926
964.217315	-36.140004
964.527535	-36.202648
964.837954	-36.260893
965.148573	-36.312743
965.459392	-36.356199
965.770411	-36.389296
966.081630	-36.410233
966.393051	-36.417457
966.704672	-36.409738
967.016494	-36.386146
967.328517	-36.346096
967.640742	-36.289345
967.953169	-36.216005
968.265797	-36.126520
968.578627	-36.021589
968.891660	-35.902112
969.204895	-35.769109
969.518332	-35.623679
969.831972	-35.466963
970.145816	-35.300126
970.459862	-35.124330
970.774112	-34.940710
971.088565	-34.750340
971.403223	-34.554230
971.718084	-34.353316
972.033149	-34.148445
972.348419	-33.940425
972.663893	-33.730050
972.979572	-33.518052
973.295456	-33.305092
973.611546	-33.091795
973.927840	-32.878748
974.244340	-32.666539
974.561046	-32.455736
974.877958	-32.246873
975.195076	-32.040408
975.512401	-31.836699
975.829932	-31.636012
976.147670	-31.438552
976.465615	-31.244527
976.783767	-31.054136
977.102126	-30.867550
977.420693	-30.684879
977.739468	-30.506165
978.058451	-30.331437
978.377642	-30.160735
978.697041	-29.994113
979.016649	-29.831623
979.336466	-29.673312
979.656492	-29.519198
979.976727	-29.369290
980.297171	-29.223618
980.617825	-29.082224
980.938689	-28.945135
981.259763	-28.812323
981.581048	-28.683729
981.902542	-28.559261
982.224248	-28.438831
982.546164	-28.322361
982.868291	-28.209768
983.190630	-28.100943
983.513180	-27.995750
983.835942	-27.894036
984.158916	-27.795649
984.482101	-27.700478
984.805500	-27.608433
985.129110	-27.519441
985.452934	-27.433449
985.776970	-27.350449
986.101220	-27.270487
986.425683	-27.193652
986.750359	-27.120037
987.075250	-27.049724
987.400354	-26.982763
987.725673	-26.919203
988.051206	-26.859097
988.376954	-26.802486
988.702916	-26.749373
989.029094	-26.699709
989.355487	-26.653401
989.682095	-26.610317
990.008919	-26.570321
990.335959	-26.533259
990.663216	-26.498939
990.990688	-26.467145
991.318377	-26.437676
991.646283	-26.410356
991.974406	-26.385020
992.302746	-26.361490
992.631304	-26.339581
992.960079	-26.319124
993.289072	-26.299983
993.618283	-26.282034
993.947713	-26.265166
994.277361	-26.249293
994.607227	-26.234325
994.937313	-26.220160
995.267618	-26.206718
995.598142	-26.193936
995.928886	-26.181769
996.259849	-26.170166
996.591033	-26.159101
996.922437	-26.148577
997.254061	-26.138618
997.585906	-26.129258
997.917972	-26.120529
998.250260	-26.112484
998.582768	-26.105195
998.915498	-26.098766
999.248450	-26.093335
999.581624	-26.089034
999.915020	-26.085959
1000.248639	-26.084177
1000.582480	-26.083751
1000.916545	-26.084708
1001.250832	-26.087047
1001.585343	-26.090710
1001.920077	-26.095573
1002.255035	-26.101444
1002.590218	-26.108089
1002.925624	-26.115238
1003.261255	-26.122587
1003.597111	-26.129786
1003.933192	-26.136440
1004.269497	-26.142144
1004.606029	-26.146512
1004.942785	-26.149183
1005.279768	-26.149831
1005.616977	-26.148142
1005.954412	-26.143780
1006.292074	-26.136400
1006.629962	-26.125681
1006.968077	-26.111356
1007.306420	-26.093201
1007.644990	-26.071006
1007.983787	-26.044585
1008.322813	-26.013774
1008.662067	-25.978433
1009.001549	-25.938434
1009.341259	-25.893673
1009.681199	-25.844077
1010.021367	-25.789651
1010.361765	-25.730474
1010.702392	-25.666694
1011.043250	-25.598509
1011.384337	-25.526137
1011.725654	-25.449810
1012.067202	-25.369796
1012.408980	-25.286399
1012.750989	-25.199925
1013.093230	-25.110677
1013.435702	-25.018965
1013.778405	-24.925078
1014.121341	-24.829255
1014.464508	-24.731670
1014.807908	-24.632455
1015.151540	-24.531720
1015.495405	-24.429561
1015.839503	-24.326029
1016.183835	-24.221156
1016.528400	-24.114987
1016.873198	-24.007598
1017.218231	-23.899114
1017.563498	-23.789682
1017.908999	-23.679459
1018.254735	-23.568627
1018.600707	-23.457413
1018.946913	-23.346052
1019.293354	-23.234765
1019.640032	-23.123742
1019.986945	-23.013163
1020.334094	-22.903222
1020.681480	-22.794100
1021.029102	-22.685942
1021.376961	-22.578861
1021.725058	-22.472937
1022.073391	-22.368221
1022.421962	-22.264717
1022.770772	-22.162388
1023.119819	-22.061199
1023.469104	-21.961159
1023.818628	-21.862288
1024.168391	-21.764567
1024.518393	-21.667929
1024.868634	-21.572315
1025.219115	-21.477681
1025.569836	-21.383972
1025.920796	-21.291120
1026.271997	-21.199056
1026.623438	-21.107715
1026.975121	-21.017031
1027.327044	-20.926922
1027.679208	-20.837293
1028.031614	-20.748083
1028.384262	-20.659264
1028.737152	-20.570783
1029.090284	-20.482542
1029.443659	-20.394446
1029.797276	-20.306440
1030.151137	-20.218506
1030.505240	-20.130638
1030.859587	-20.042842
1031.214178	-19.955162
1031.569013	-19.867663
1031.924093	-19.780408
1032.279417	-19.693464
1032.634985	-19.606933
1032.990799	-19.520937
1033.346858	-19.435595
1033.703162	-19.350987
1034.059712	-19.267164
1034.416509	-19.184186
1034.773551	-19.102113
1035.130841	-19.020957
1035.488377	-18.940708
1035.846160	-18.861348
1036.204190	-18.782864
1036.562468	-18.705235
1036.920994	-18.628442
1037.279768	-18.552486
1037.638790	-18.477378
1037.998061	-18.403119
1038.357581	-18.329698
1038.717350	-18.257106
1039.077368	-18.185365
1039.437636	-18.114511
1039.798154	-18.044588
1040.158922	-17.975661
1040.519940	-17.907833
1040.881209	-17.841217
1041.242729	-17.775915
1041.604501	-17.712033
1041.966524	-17.649695
1042.328798	-17.589006
1042.691325	-17.530015
1043.054103	-17.472726
1043.417135	-17.417108
1043.780419	-17.363102
1044.143956	-17.310600
1044.507746	-17.259431
1044.871791	-17.209409
1045.236088	-17.160347
1045.600641	-17.112037
1045.965447	-17.064283
1046.330508	-17.016939
1046.695824	-16.969908
1047.061395	-16.923131
1047.427222	-16.876582
1047.793304	-16.830267
1048.159642	-16.784227
1048.526237	-16.738499
1048.893088	-16.693095
1049.260196	-16.648035
1049.627561	-16.603356
1049.995183	-16.559080
1050.363063	-16.515217
1050.731201	-16.471782
1051.099597	-16.428799
1051.468251	-16.386302
1051.837164	-16.344298
1052.206336	-16.302787
1052.575767	-16.261770
1052.945458	-16.221221
1053.315409	-16.181098
1053.685619	-16.141354
1054.056090	-16.101919
1054.426821	-16.062699
1054.797814	-16.023608
1055.169067	-15.984601
1055.540582	-15.945687
1055.912359	-15.906913
1056.284398	-15.868370
1056.656698	-15.830213
1057.029262	-15.792622
1057.402088	-15.755787
1057.775177	-15.719898
1058.148530	-15.685112
1058.522146	-15.651532
1058.896027	-15.619205
1059.270171	-15.588121
1059.644580	-15.558232
1060.019254	-15.529458
1060.394193	-15.501713
1060.769397	-15.474932
1061.144867	-15.449074
1061.520602	-15.424107
1061.896604	-15.400019
1062.272872	-15.376805
1062.649407	-15.354441
1063.026210	-15.332881
1063.403279	-15.312075
1063.780616	-15.291973
1064.158221	-15.272515
1064.536094	-15.253660
1064.914235	-15.235410
1065.292645	-15.217800
1065.671325	-15.200863
1066.050273	-15.184650
1066.429491	-15.169231
1066.808979	-15.154640
1067.188738	-15.140845
1067.568766	-15.127768
1067.949066	-15.115301
1068.329636	-15.103294
1068.710478	-15.091575
1069.091592	-15.080003
1069.472977	-15.068481
1069.854635	-15.056919
1070.236565	-15.045247
1070.618768	-15.033427
1071.001243	-15.021435
1071.383993	-15.009242
1071.767016	-14.996815
1072.150313	-14.984144
1072.533884	-14.971256
1072.917730	-14.958206
1073.301850	-14.945092
1073.686246	-14.932053
1074.070917	-14.919267
1074.455864	-14.906939
1074.841087	-14.895259
1075.226586	-14.884375
1075.612362	-14.874375
1075.998415	-14.865321
1076.384745	-14.857255
1076.771353	-14.850165
1077.158238	-14.844016
1077.545401	-14.838752
1077.932843	-14.834303
1078.320564	-14.830612
1078.708564	-14.827611
1079.096842	-14.825212
1079.485401	-14.823320
1079.874240	-14.821891
1080.263358	-14.820967
1080.652757	-14.820677
1081.042438	-14.821241
1081.432399	-14.822940
1081.822641	-14.826103
1082.213166	-14.831049
1082.603972	-14.838009
1082.995061	-14.847046
1083.386433	-14.858030
1083.778087	-14.870685
1084.170025	-14.884634
1084.562246	-14.899436
1084.954751	-14.914679
1085.347541	-14.930073
1085.740615	-14.945485
1086.133973	-14.960927
1086.527617	-14.976513
1086.921546	-14.992346
1087.315761	-15.008424
1087.710262	-15.024625
1088.105050	-15.040669
1088.500124	-15.056135
1088.895485	-15.070561
1089.291134	-15.083595
1089.687070	-15.095089
1090.083294	-15.105159
1090.479806	-15.114217
1090.876607	-15.122897
1091.273696	-15.131890
1091.671075	-15.141828
1092.068744	-15.153120
1092.466702	-15.165804
1092.864950	-15.179507
1093.263489	-15.193539
1093.662319	-15.207032
1094.061440	-15.219189
1094.460852	-15.229502
1094.860555	-15.237852
1095.260551	-15.244560
1095.660840	-15.250357
1096.061421	-15.256174
1096.462295	-15.262866
1096.863462	-15.270991
1097.264923	-15.280683
1097.666678	-15.291636
1098.068727	-15.303202
1098.471071	-15.314619
1098.873710	-15.325321
1099.276644	-15.335212
1099.679874	-15.344823
1100.083400	-15.355241
1100.487222	-15.367917
1100.891340	-15.384376
1101.295756	-15.405866
1101.700468	-15.433072
1102.105478	-15.465933
1102.510787	-15.503658
1102.916393	-15.544903
1103.322298	-15.588083
1103.728502	-15.631645
1104.135005	-15.674340
1104.541807	-15.715427
1104.948909	-15.754670
1105.356312	-15.792215
1105.764015	-15.828360
1106.172019	-15.863374
1106.580324	-15.897372
1106.988931	-15.930256
1107.397840	-15.961692
1107.807051	-15.991161
1108.216564	-16.018153
1108.626380	-16.042273
1109.036500	-16.063331
1109.446923	-16.081398
1109.857649	-16.096865
1110.268680	-16.110438
1110.680016	-16.123124
1111.091657	-16.136155
1111.503602	-16.150874
1111.915854	-16.168635
1112.328411	-16.190565
1112.741275	-16.217339
1113.154445	-16.249055
1113.567922	-16.285212
1113.981706	-16.324766
1114.395798	-16.366362
1114.810198	-16.408603
1115.224906	-16.450360
1115.639923	-16.491038
1116.055249	-16.530605
1116.470884	-16.569461
1116.886829	-16.608189
1117.303084	-16.647206
1117.719650	-16.686510
1118.136526	-16.725575
1118.553713	-16.763374
1118.971212	-16.798634
1119.389022	-16.830266
1119.807145	-16.857708
1120.225580	-16.881118
1120.644328	-16.901413
1121.063389	-16.920104
1121.482763	-16.938957
1121.902452	-16.959572
1122.322454	-16.983072
1122.742771	-17.010060
1123.163404	-17.040606
1123.584351	-17.074389
1124.005614	-17.110967
1124.427193	-17.150080
1124.849089	-17.191770
1125.271301	-17.236333
1125.693830	-17.284166
1126.116677	-17.335656
1126.539842	-17.390912
1126.963324	-17.449529
1127.387126	-17.510629
1127.811246	-17.572931
1128.235685	-17.634926
1128.660444	-17.695134
1129.085522	-17.752298
1129.510922	-17.805550
1129.936641	-17.854453
1130.362682	-17.898819
1130.789044	-17.938571
1131.215728	-17.973636
1131.642734	-18.003857
1132.070063	-18.029006
1132.497714	-18.048900
1132.925689	-18.063655
1133.353987	-18.073844
1133.782610	-18.080440
1134.211556	-18.084782
1134.640827	-18.088447
1135.070424	-18.092971
1135.500345	-18.099647
1135.930593	-18.109395
1136.361166	-18.122857
1136.792067	-18.140521
1137.223294	-18.162805
1137.654848	-18.190245
1138.086730	-18.223513
1138.518940	-18.263227
1138.951479	-18.309836
1139.384346	-18.363452
1139.817543	-18.423787
1140.251069	-18.490173
1140.684925	-18.561620
1141.119111	-18.637065
1141.553628	-18.715611
1141.988475	-18.796527
1142.423655	-18.879183
1142.859166	-18.962996
1143.295009	-19.047283
1143.731185	-19.131072
1144.167694	-19.212951
1144.604536	-19.291349
1145.041711	-19.364735
1145.479221	-19.431783
1145.917065	-19.491644
1146.355245	-19.544094
1146.793759	-19.589335
1147.232609	-19.627773
1147.671795	-19.659817
1148.111317	-19.685779
1148.551177	-19.705713
1148.991373	-19.719598
1149.431907	-19.727610
1149.872779	-19.730291
1150.313989	-19.728628
1150.755538	-19.723962
1151.197426	-19.717875
1151.639653	-19.711970
1152.082220	-19.707598
1152.525128	-19.705776
1152.968376	-19.707183
1153.411966	-19.712174
1153.855897	-19.720965
1154.300169	-19.733739
1154.744784	-19.750914
1155.189742	-19.773007
1155.635042	-19.800570
1156.080687	-19.834162
1156.526674	-19.874090
1156.973007	-19.920280
1157.419683	-19.972370
1157.866705	-20.029820
1158.314072	-20.091923
1158.761786	-20.157904
1159.209845	-20.227166
1159.658251	-20.299217
1160.107004	-20.373594
1160.556104	-20.449889
1161.005553	-20.527545
1161.455349	-20.605841
1161.905494	-20.683894
1162.355989	-20.760826
1162.806832	-20.835785
1163.258026	-20.908006
1163.709570	-20.976948
1164.161464	-21.042176
1164.613710	-21.103358
1165.066307	-21.160118
1165.519256	-21.212133
1165.972558	-21.259221
1166.426212	-21.301075
1166.880219	-21.337530
1167.334580	-21.368554
1167.789295	-21.394199
1168.244364	-21.414577
1168.699788	-21.429872
1169.155567	-21.440381
1169.611702	-21.446262
1170.068193	-21.447916
1170.525041	-21.445842
1170.982245	-21.440483
1171.439807	-21.432340
1171.897726	-21.421917
1172.356004	-21.409650
1172.814640	-21.395814
1173.273635	-21.380785
1173.732989	-21.364967
1174.192703	-21.348809
1174.652778	-21.332816
1175.113213	-21.317555
1175.574009	-21.303592
1176.035167	-21.291283
1176.496687	-21.280900
1176.958569	-21.272508
1177.420814	-21.266102
1177.883422	-21.261770
1178.346394	-21.259808
1178.809730	-21.260625
1179.273430	-21.264671
1179.737496	-21.272422
1180.201927	-21.283983
1180.666723	-21.299251
1181.131886	-21.317906
1181.597416	-21.339543
1182.063312	-21.363947
1182.529576	-21.391180
1182.996209	-21.421558
1183.463209	-21.455469
1183.930579	-21.493184
1184.398317	-21.534519
1184.866426	-21.578936
1185.334904	-21.625634
1185.803754	-21.673727
1186.272974	-21.722671
1186.742566	-21.772309
1187.212529	-21.822932
1187.682865	-21.874799
1188.153574	-21.927980
1188.624656	-21.982063
1189.096112	-22.036022
1189.567942	-22.088608
1190.040147	-22.138648
1190.512726	-22.185526
1190.985681	-22.229320
1191.459012	-22.270617
1191.932720	-22.309884
1192.406804	-22.347187
1192.881265	-22.381913
1193.356104	-22.412880
1193.831322	-22.438749
1194.306918	-22.458657
1194.782893	-22.472539
1195.259248	-22.481142
1195.735982	-22.485636
1196.213097	-22.486769
1196.690593	-22.484611
1197.168471	-22.478313
1197.646730	-22.466677
1198.125371	-22.448682
1198.604395	-22.424219
1199.083803	-22.394165
1199.563594	-22.360061
1200.043769	-22.323275
1200.524329	-22.284399
1201.005273	-22.242903
1201.486604	-22.197650
1201.968320	-22.147616
1202.450422	-22.092382
1202.932912	-22.032835
1203.415789	-21.970645
1203.899054	-21.907455
1204.382707	-21.844247
1204.866748	-21.780776
1205.351179	-21.715822
1205.836000	-21.648321
1206.321211	-21.577884
1206.806812	-21.505302
1207.292805	-21.432299
1207.779189	-21.360651
1208.265965	-21.291288
1208.753134	-21.224034
1209.240696	-21.157642
1209.728651	-21.090924
1210.217000	-21.023570
1210.705744	-20.956382
1211.194883	-20.891095
1211.684417	-20.829379
1212.174347	-20.771887
1212.664673	-20.718095
1213.155396	-20.666631
1213.646516	-20.616178
1214.138034	-20.566437
1214.629951	-20.518278
1215.122266	-20.473317
1215.614980	-20.432926
1216.108095	-20.397310
1216.601609	-20.365325
1217.095524	-20.335320
1217.589841	-20.305904
1218.084559	-20.276927
1218.579679	-20.249444
1219.075202	-20.224968
1219.571128	-20.204429
1220.067458	-20.187365
1220.564191	-20.172086
1221.061330	-20.156692
1221.558874	-20.139980
1222.056823	-20.122223
1222.555178	-20.104807
1223.053940	-20.089152
1223.553109	-20.075613
1224.052686	-20.063056
1224.552671	-20.049341
1225.053065	-20.032681
1225.553867	-20.012506
1226.055079	-19.989748
1226.556702	-19.966086
1227.058735	-19.942641
1227.561179	-19.918984
1228.064035	-19.893330
1228.567303	-19.863506
1229.070983	-19.828386
1229.575077	-19.788472
1230.079585	-19.745391
1230.584506	-19.700748
1231.089842	-19.654871
1231.595594	-19.606508
1232.101761	-19.553553
1232.608345	-19.494516
1233.115345	-19.429494
1233.622762	-19.360078
1234.130597	-19.288178
1234.638851	-19.214615
1235.147523	-19.138567
1235.656615	-19.058261
1236.166126	-18.972171
1236.676058	-18.880275
1237.186411	-18.783986
1237.697185	-18.685306
1238.208381	-18.585412
1238.719999	-18.483796
1239.232040	-18.378967
1239.744505	-18.269554
1240.257394	-18.155589
1240.770708	-18.038471
1241.284446	-17.920128
1241.798610	-17.801734
1242.313201	-17.682935
1242.828218	-17.562314
1243.343662	-17.438787
1243.859534	-17.312440
1244.375834	-17.184790
1244.892563	-17.057618
1245.409721	-16.931826
1245.927309	-16.806940
1246.445327	-16.681596
1246.963777	-16.554852
1247.482657	-16.427053
1248.001970	-16.299675
1248.521716	-16.174300
1249.041894	-16.051437
1249.562506	-15.930286
1250.083553	-15.809529
1250.605034	-15.688412
1251.126950	-15.567546
1251.649302	-15.448406
1252.172091	-15.332225
1252.695316	-15.219075
1253.218979	-15.107867
1253.743079	-14.997345
1254.267619	-14.887105
1254.792597	-14.778075
1255.318015	-14.671599
1255.843874	-14.568513
1256.370173	-14.468409
1256.896913	-14.370036
1257.424095	-14.272387
1257.951720	-14.175542
1258.479787	-14.080645
1259.008298	-13.988841
1259.537254	-13.900396
1260.066654	-13.814452
1260.596499	-13.729789
1261.126790	-13.645898
1261.657527	-13.563407
1262.188711	-13.483464
1262.720342	-13.406744
1263.252422	-13.332857
1263.784950	-13.260674
1264.317928	-13.189341
1264.851355	-13.118965
1265.385232	-13.050510
1265.919560	-12.984818
1266.454340	-12.921886
1266.989572	-12.860778
1267.525256	-12.800452
1268.061394	-12.740679
1268.597985	-12.682148
1269.135031	-12.625793
1269.672531	-12.571827
1270.210487	-12.519524
1270.748899	-12.467837
1271.287768	-12.416301
1271.827094	-12.365405
1272.366877	-12.316079
1272.907119	-12.268729
1273.447820	-12.222803
1273.988981	-12.177306
1274.530601	-12.131659
1275.072683	-12.086233
1275.615226	-12.041929
1276.158230	-11.999282
1276.701697	-11.957927
1277.245627	-11.916898
1277.790021	-11.875598
1278.334879	-11.834347
1278.880202	-11.794039
1279.425991	-11.755260
1279.972245	-11.717722
1280.518966	-11.680563
1281.066155	-11.643158
1281.613811	-11.605800
1282.161936	-11.569350
1282.710529	-11.534434
1283.259593	-11.500797
1283.809126	-11.467576
1284.359131	-11.434205
1284.909607	-11.400951
1285.460555	-11.368699
1286.011976	-11.338013
1286.563870	-11.308632
1287.116237	-11.279720
1287.669080	-11.250789
1288.222397	-11.222184
1288.776191	-11.194744
1289.330460	-11.168979
1289.885207	-11.144578
1290.440431	-11.120740
1290.996133	-11.097077
1291.552314	-11.074065
1292.108975	-11.052497
1292.666115	-11.032768
1293.223737	-11.014464
1293.781839	-10.996845
1294.340424	-10.979667
1294.899491	-10.963475
1295.459041	-10.949052
1296.019075	-10.936615
1296.579593	-10.925630
1297.140597	-10.915378
1297.702086	-10.905809
1298.264061	-10.897539
1298.826524	-10.891240
1299.389474	-10.886904
1299.952912	-10.883894
1300.516839	-10.881588
1301.081255	-10.880092
1301.646162	-10.880077
1302.211559	-10.882036
1302.777448	-10.885738
1303.343829	-10.890450
1303.910702	-10.895734
1304.478069	-10.901880
1305.045930	-10.909573
1305.614285	-10.919036
1306.183136	-10.929798
1306.752483	-10.941164
1307.322326	-10.952952
1307.892666	-10.965629
1308.463504	-10.979764
1309.034841	-10.995285
1309.606677	-11.011519
1310.179012	-11.027929
1310.751849	-11.044637
1311.325186	-11.062195
1311.899025	-11.080898
1312.473366	-11.100365
1313.048211	-11.119872
1313.623559	-11.139118
1314.199412	-11.158534
1314.775770	-11.178611
1315.352634	-11.199280
1315.930004	-11.219905
1316.507881	-11.239883
1317.086266	-11.259299
1317.665159	-11.278705
1318.244562	-11.298353
1318.824474	-11.317825
1319.404897	-11.336413
1319.985831	-11.353852
1320.567276	-11.370563
1321.149234	-11.387015
1321.731706	-11.403096
1322.314691	-11.418143
1322.898190	-11.431706
1323.482205	-11.443999
1324.066736	-11.455568
1324.651783	-11.466595
1325.237347	-11.476611
1325.823430	-11.485045
1326.410031	-11.491937
1326.997151	-11.497827
1327.584791	-11.503090
1328.172952	-11.507477
1328.761634	-11.510428
1329.350839	-11.511806
1329.940566	-11.512074
1330.530817	-11.511735
1331.121592	-11.510766
1331.712891	-11.508649
1332.304716	-11.505133
1332.897068	-11.500621
1333.489946	-11.495653
1334.083352	-11.490389
1334.677287	-11.484407
1335.271750	-11.477405
1335.866744	-11.469683
1336.462268	-11.461844
1337.058323	-11.454141
1337.654910	-11.446270
1338.252029	-11.437841
1338.849682	-11.429105
1339.447869	-11.420644
1340.046591	-11.412793
1340.645848	-11.405292
1341.245641	-11.397771
1341.845972	-11.390348
1342.446840	-11.383588
1343.048246	-11.377850
1343.650191	-11.372924
1344.252677	-11.368383
1344.855702	-11.364286
1345.459269	-11.361164
1346.063379	-11.359348
1346.668030	-11.358612
1347.273226	-11.358509
1347.878965	-11.359037
1348.485250	-11.360637
1349.092080	-11.363630
1349.699456	-11.367721
1350.307380	-11.372409
1350.915851	-11.377608
1351.524871	-11.383760
1352.134441	-11.391080
1352.744560	-11.399229
1353.355231	-11.407642
1353.966453	-11.416211
1354.578227	-11.425310
1355.190555	-11.435121
1355.803436	-11.445207
1356.416872	-11.454935
1357.030863	-11.464253
1357.645411	-11.473525
1358.260515	-11.482844
1358.876177	-11.491708
1359.492397	-11.499494
1360.109176	-11.506208
1360.726516	-11.512278
1361.344416	-11.517742
1361.962877	-11.522010
1362.581901	-11.524567
1363.201487	-11.525582
1363.821637	-11.525540
1364.442352	-11.524427
1365.063632	-11.521671
1365.685478	-11.516937
1366.307891	-11.510582
1366.930871	-11.503168
1367.554420	-11.494623
1368.178538	-11.484413
1368.803226	-11.472491
1369.428485	-11.459453
1370.054315	-11.445826
1370.680717	-11.431411
1371.307693	-11.415808
1371.935242	-11.399235
1372.563366	-11.382470
1373.192065	-11.365876
1373.821341	-11.349146
1374.451193	-11.332060
1375.081623	-11.315152
1375.712632	-11.299169
1376.344221	-11.284206
1376.976389	-11.269840
1377.609139	-11.256078
1378.242470	-11.243608
1378.876384	-11.232903
1379.510881	-11.223643
1380.145963	-11.215341
1380.781629	-11.208238
1381.417881	-11.202927
1382.054720	-11.199373
1382.692147	-11.196908
1383.330161	-11.195202
1383.968765	-11.194701
1384.607959	-11.195750
1385.247743	-11.197767
1385.888119	-11.200018
1386.529087	-11.202542
1387.170648	-11.205859
1387.812804	-11.209776
1388.455554	-11.213363
1389.098899	-11.216193
1389.742842	-11.218677
1390.387381	-11.221069
1391.032519	-11.222684
1391.678256	-11.222709
1392.324592	-11.221267
1392.971529	-11.218930
1393.619068	-11.215477
1394.267208	-11.210037
1394.915952	-11.202397
1395.565300	-11.193238
1396.215253	-11.182922
1396.865812	-11.170893
1397.516977	-11.156756
1398.168749	-11.141177
1398.821130	-11.125020
1399.474120	-11.108206
1400.127719	-11.090304
1400.781930	-11.071754
1401.436752	-11.053648
1402.092186	-11.036346
1402.748234	-11.019452
1403.404897	-11.003109
1404.062174	-10.988297
1404.720067	-10.975679
1405.378577	-10.964855
1406.037705	-10.955506
1406.697451	-10.948226
1407.357817	-10.943611
1408.018803	-10.941192
1408.680410	-10.940160
1409.342639	-10.940571
1410.005492	-10.942911
1410.668968	-10.946758
1411.333068	-10.951099
1411.997795	-10.955676
1412.663147	-10.960891
1413.329127	-10.966519
1413.995736	-10.971530
1414.662973	-10.975331
1415.330840	-10.978233
1415.999339	-10.980156
1416.668469	-10.980123
1417.338232	-10.977451
1418.008628	-10.972483
1418.679659	-10.965607
1419.351325	-10.956343
1420.023628	-10.944342
1420.696568	-10.930340
1421.370145	-10.915307
1422.044362	-10.899348
1422.719219	-10.882357
1423.394717	-10.865127
1424.070856	-10.848734
1424.747638	-10.833353
1425.425064	-10.818706
1426.103134	-10.805247
1426.781850	-10.793846
1427.461212	-10.784561
1428.141221	-10.776956
1428.821878	-10.771278
1429.503185	-10.768239
1430.185141	-10.767889
1430.867749	-10.769665
1431.551008	-10.773579
1432.234920	-10.780091
1432.919486	-10.788977
1433.604707	-10.799364
1434.290583	-10.810867
1434.977116	-10.823520
1435.664307	-10.836831
1436.352156	-10.849725
1437.040664	-10.861681
1437.729833	-10.872734
1438.419663	-10.882500
1439.110156	-10.890229
1439.801312	-10.895797
1440.493132	-10.899729
1441.185617	-10.902176
1441.878768	-10.903017
1442.572586	-10.902850
1443.267072	-10.902807
1443.962228	-10.903612
1444.658053	-10.905667
1445.354549	-10.910003
1446.051717	-10.917939
1446.749558	-10.930148
1447.448073	-10.946779
1448.147263	-10.968396
1448.847128	-10.995505
1449.547671	-11.027675
1450.248891	-11.063938
1450.950789	-11.103657
1451.653368	-11.146074
1452.356627	-11.189601
1453.060568	-11.232527
1453.765192	-11.273845
1454.470500	-11.312722
1455.176492	-11.348021
1455.883170	-11.379046
1456.590534	-11.406195
1457.298586	-11.430148
1458.007327	-11.451363
1458.716758	-11.470803
1459.426880	-11.490179
1460.137693	-11.510826
1460.849199	-11.533380
1461.561398	-11.558498
1462.274293	-11.586803
1462.987883	-11.617868
1463.702170	-11.650348
1464.417155	-11.682912
1465.132838	-11.714152
1465.849222	-11.741948
1466.566306	-11.764123
1467.284093	-11.779449
1468.002582	-11.787321
1468.721775	-11.787242
1469.441674	-11.779572
1470.162278	-11.765869
1470.883590	-11.748054
1471.605609	-11.727960
1472.328338	-11.707858
1473.051777	-11.690333
1473.775928	-11.677282
1474.500790	-11.669867
1475.226367	-11.669021
1475.952657	-11.675117
1476.679663	-11.687179
1477.407386	-11.703331
1478.135826	-11.721463
1478.864985	-11.738955
1479.594863	-11.752559
1480.325463	-11.759492
1481.056784	-11.758114
1481.788828	-11.747577
1482.521597	-11.728002
1483.255090	-11.701184
1483.989309	-11.670339
1484.724256	-11.639173
1485.459931	-11.611915
1486.196336	-11.593583
1486.933471	-11.589300
1487.671337	-11.603744
1488.409937	-11.641607
1489.149270	-11.707741
1489.889337	-11.806352
1490.630141	-11.940739
1491.371682	-12.113628
1492.113961	-12.326785
1492.856979	-12.579850
1493.600738	-12.870227
1494.345238	-13.193275
1495.090481	-13.541403
1495.836467	-13.903320
1496.583198	-14.265205
1497.330675	-14.611775
1498.078899	-14.926666
1498.827872	-15.194679
1499.577593	-15.405580
1500.328065	-15.555219
1501.079289	-15.645549
1501.831265	-15.685631
1502.583995	-15.690569
1503.337480	-15.677780
1504.091721	-15.665436
1504.846719	-15.672468
1505.602475	-15.716411
1506.358991	-15.811949
1507.116268	-15.972145
1507.874306	-16.208886
1508.633108	-16.531297
1509.392673	-16.946341
1510.153004	-17.460623
1510.914101	-18.079532
1511.675965	-18.805937
1512.438599	-19.641482
1513.202002	-20.585030
1513.966176	-21.624097
1514.731122	-22.721577
1515.496842	-23.792014
1516.263336	-24.664123
1517.030607	-25.089646
1517.798654	-24.893035
1518.567479	-24.139351
1519.337083	-23.069278
1520.107468	-21.912086
1520.878634	-20.801639
1521.650584	-19.792595
1522.423317	-18.897941
1523.196836	-18.109861
1523.971141	-17.407411
1524.746233	-16.763350
1525.522115	-16.149836
1526.298786	-15.540760
1527.076249	-14.914970
1527.854504	-14.260854
1528.633553	-13.576980
1529.413397	-12.868566
1530.194037	-12.144419
1530.975474	-11.414701
1531.757709	-10.688054
1532.540745	-9.970258
1533.324581	-9.265814
1534.109220	-8.579480
1534.894662	-7.916380
1535.680909	-7.282599
1536.467961	-6.685982
1537.255821	-6.135160
1538.044489	-5.638153
1538.833967	-5.202207
1539.624256	-4.833401
1540.415357	-4.535661
1541.207271	-4.310834
1542.000000	-4.159490
1542.793545	-4.080905
1543.587907	-4.073304
1544.383087	-4.135115
1545.179088	-4.265602
1545.975909	-4.464792
1546.773552	-4.734203
1547.572019	-5.077323
1548.371311	-5.498815
1549.171428	-6.004134
1549.972373	-6.599814
1550.774147	-7.292588
1551.576751	-8.088603
1552.380185	-8.994289
1553.184453	-10.016443
1553.989554	-11.161491
1554.795490	-12.436315
1555.602263	-13.847049
1556.409873	-15.390358
1557.218322	-17.033621
1558.027612	-18.668083
1558.837743	-20.029798
1559.648717	-20.720741
1560.460536	-20.538996
1561.273200	-19.732718
1562.086710	-18.703010
1562.901069	-17.700514
1563.716278	-16.819998
1564.532337	-16.080068
1565.349249	-15.469109
1566.167014	-14.964552
1566.985634	-14.544968
1567.805111	-14.194517
1568.625444	-13.902682
1569.446637	-13.665667
1570.268690	-13.484895
1571.091605	-13.362143
1571.915382	-13.297755
1572.740024	-13.289252
1573.565532	-13.328662
1574.391907	-13.403537
1575.219150	-13.500260
1576.047262	-13.605862
1576.876246	-13.711652
1577.706103	-13.816966
1578.536833	-13.927816
1579.368439	-14.053912
1580.200922	-14.206166
1581.034282	-14.391647
1581.868522	-14.610198
1582.703643	-14.855262
1583.539646	-15.114550
1584.376532	-15.372728
1585.214304	-15.618036
1586.052962	-15.846126
1586.892508	-16.060803
1587.732943	-16.273879
1588.574269	-16.500144
1589.416487	-16.750684
1590.259599	-17.030142
1591.103605	-17.334303
1591.948508	-17.648938
1592.794309	-17.954295
1593.641009	-18.230127
1594.488609	-18.460404
1595.337112	-18.639694
1596.186518	-18.773763
1597.036829	-18.874906
1597.888047	-18.957949
1598.740172	-19.034410
1599.593207	-19.107456
1600.447153	-19.172295
1601.302010	-19.216600
1602.157782	-19.223121
1603.014469	-19.177459
1603.872072	-19.073711
1604.730593	-18.917838
1605.590034	-18.728453
1606.450397	-18.530284
1607.311681	-18.345929
1608.173890	-18.190669
1609.037024	-18.067496
1609.901085	-17.966407
1610.766075	-17.869105
1611.631995	-17.754831
1612.498846	-17.609316
1613.366630	-17.432552
1614.235349	-17.238071
1615.105004	-17.046887
1615.975596	-16.878979
1616.847128	-16.744023
1617.719600	-16.637943
1618.593014	-16.544840
1619.467372	-16.442243
1620.342675	-16.311566
1621.218924	-16.147592
1622.096122	-15.960350
1622.974270	-15.770412
1623.853369	-15.599105
1624.733420	-15.458168
1625.614427	-15.345770
1626.496389	-15.247676
1627.379308	-15.143041
1628.263187	-15.015347
1629.148026	-14.860844
1630.033828	-14.689944
1630.920593	-14.522368
1631.808324	-14.376455
1632.697022	-14.260204
1633.586688	-14.168641
1634.477324	-14.085549
1635.368932	-13.991669
1636.261514	-13.875425
1637.155070	-13.738687
1638.049602	-13.596277
1638.945113	-13.468184
1639.841603	-13.368526
1640.739075	-13.299722
1641.637529	-13.251523
1642.536968	-13.205846
1643.437393	-13.147467
1644.338806	-13.072127
1645.241209	-12.988971
1646.144602	-12.915897
1647.048988	-12.868289
1647.954368	-12.850735
1648.860744	-12.854420
1649.768118	-12.860044
1650.676491	-12.848732
1651.585865	-12.812463
1652.496241	-12.757848
1653.407621	-12.702366
1654.320008	-12.662280
1655.233401	-12.642409
1656.147804	-12.633879
1657.063218	-12.618000
1657.979645	-12.578408
1658.897085	-12.512267
1659.815542	-12.431680
1660.735016	-12.357312
1661.655509	-12.305365
1662.577023	-12.278013
1663.499560	-12.263919
1664.423121	-12.244699
1665.347709	-12.207702
1666.273324	-12.155259
1667.199969	-12.102155
1668.127645	-12.066546
1669.056353	-12.057425
1669.986097	-12.068142
1670.916877	-12.081240
1671.848695	-12.078548
1672.781553	-12.054035
1673.715452	-12.018194
1674.650395	-11.989227
1675.586383	-11.981059
1676.523418	-11.992970
1677.461501	-12.009946
1678.400635	-12.013913
1679.340821	-11.996076
1680.282061	-11.964535
1681.224357	-11.938205
1682.167710	-11.932283
1683.112122	-11.948181
1684.057595	-11.971577
1685.004132	-11.983045
1685.951732	-11.973006
1686.900400	-11.948490
1687.850135	-11.928181
1688.800940	-11.927048
1689.752818	-11.944702
1690.705768	-11.965921
1691.659795	-11.971617
1692.614898	-11.954957
1693.571081	-11.927222
1694.528345	-11.908703
1695.486691	-11.913164
1696.446122	-11.936750
1697.406640	-11.961587
1698.368245	-11.970518
1699.330941	-11.961493
1700.294729	-11.950000
1701.259611	-11.955348
1702.225588	-11.984187
1703.192664	-12.024385
1704.160838	-12.053773
1705.130114	-12.058946
1706.100493	-12.046610
1707.071977	-12.037311
1708.044568	-12.047286
1709.018268	-12.073923
1709.993079	-12.098474
1710.969003	-12.102933
1711.946041	-12.087335
1712.924196	-12.070974
1713.903469	-12.075014
1714.883862	-12.104144
1715.865378	-12.142219
1716.848017	-12.166477
1717.831783	-12.168685
1718.816677	-12.162343
1719.802701	-12.169270
1720.789857	-12.197868
1721.778147	-12.234305
1722.767573	-12.254999
1723.758136	-12.249188
1724.749840	-12.230406
1725.742685	-12.223479
1726.736673	-12.241048
1727.731808	-12.272478
1728.728090	-12.294996
1729.725521	-12.297478
1730.724105	-12.292226
1731.723842	-12.302247
1732.724735	-12.337314
1733.726785	-12.383095
1734.729995	-12.414754
1735.734366	-12.421791
1736.739902	-12.418467
1737.746603	-12.427657
1738.754472	-12.456109
1739.763510	-12.487870
1740.773721	-12.502235
1741.785105	-12.497603
1742.797665	-12.494138
1743.811403	-12.511546
1744.826321	-12.547735
1745.842422	-12.581116
1746.859706	-12.594711
1747.878177	-12.595197
1748.897835	-12.603817
1749.918685	-12.630711
1750.940726	-12.662367
1751.963963	-12.677719
1752.988395	-12.674241
1754.014027	-12.671992
1755.040860	-12.690352
1756.068895	-12.724940
1757.098135	-12.753677
1758.128583	-12.764152
1759.160240	-12.769640
1760.193109	-12.791948
1761.227191	-12.832365
1762.262488	-12.868377
1763.299004	-12.880564
1764.336740	-12.878417
1765.375697	-12.888481
1766.415880	-12.920572
1767.457288	-12.955125
1768.499926	-12.968595
1769.543794	-12.966177
1770.588895	-12.975510
1771.635231	-13.010048
1772.682805	-13.049209
1773.731619	-13.064339
1774.781674	-13.057319
1775.832973	-13.058532
1776.885519	-13.085840
1777.939312	-13.120097
1778.994357	-13.132370
1780.050654	-13.125629
1781.108207	-13.132408
1782.167017	-13.168850
1783.227087	-13.211007
1784.288418	-13.227191
1785.351013	-13.222830
1786.414875	-13.232156
1787.480006	-13.267059
1788.546407	-13.299452
1789.614082	-13.302846
1790.683032	-13.294050
1791.753259	-13.309230
1792.824767	-13.349937
1793.897557	-13.380279
1794.971632	-13.380851
1796.046994	-13.378828
1797.123645	-13.404622
1798.201588	-13.443752
1799.280824	-13.458667
1800.361357	-13.449476
1801.443188	-13.455681
1802.526320	-13.493985
1803.610756	-13.531660
1804.696497	-13.538548
1805.783546	-13.536355
1806.871906	-13.561549
1807.961578	-13.603462
1809.052565	-13.620114
1810.144870	-13.609035
1811.238494	-13.613079
1812.333441	-13.648882
1813.429713	-13.679230
1814.527311	-13.677209
1815.626239	-13.674111
1816.726499	-13.704279
1817.828094	-13.743170
1818.931025	-13.748003
1820.035295	-13.734582
1821.140906	-13.750943
1822.247862	-13.792302
1823.356165	-13.808756
1824.465816	-13.795977
1825.576819	-13.804692
1826.689175	-13.847342
1827.802888	-13.872270
1828.917960	-13.856814
1830.034394	-13.851251
1831.152191	-13.886728
1832.271354	-13.917837
1833.391887	-13.907621
1834.513790	-13.899256
1835.637068	-13.933962
1836.761722	-13.970887
1837.887755	-13.962893
1839.015169	-13.948034
1840.143968	-13.975955
1841.274153	-14.011752
1842.405727	-14.004608
1843.538693	-13.989751
1844.673053	-14.018323
1845.808810	-14.054129
1846.945966	-14.044327
1848.084525	-14.026625
1849.224488	-14.053116
1850.365858	-14.085074
1851.508638	-14.072909
1852.652831	-14.059789
1853.798438	-14.091408
1854.945463	-14.119744
1856.093909	-14.102294
1857.243777	-14.091957
1858.395071	-14.124645
1859.547794	-14.144031
1860.701947	-14.123285
1861.857533	-14.123704
1863.014556	-14.160647
1864.173018	-14.168932
1865.332922	-14.144840
1866.494270	-14.154549
1867.657065	-14.188447
1868.821309	-14.183617
1869.987006	-14.164899
1871.154158	-14.188094
1872.322768	-14.213250
1873.492839	-14.194510
1874.664373	-14.184067
1875.837373	-14.212257
1877.011841	-14.219938
1878.187782	-14.196788
1879.365197	-14.203904
1880.544089	-14.229091
1881.724460	-14.215714
1882.906315	-14.196997
1884.089655	-14.216697
1885.274483	-14.226083
1886.460803	-14.202005
1887.648616	-14.201710
1888.837927	-14.222649
1890.028736	-14.208760
1891.221049	-14.187627
1892.414866	-14.202912
1893.610192	-14.209006
1894.807028	-14.185061
1896.005379	-14.184911
1897.205246	-14.201232
1898.406633	-14.184807
1899.609542	-14.168311
1900.813977	-14.183388
1902.019940	-14.182832
1903.227434	-14.161437
1904.436462	-14.166199
1905.647028	-14.174973
1906.859133	-14.155588
1908.072781	-14.148573
1909.287976	-14.161524
1910.504719	-14.151948
1911.723013	-14.137414
1912.942863	-14.145127
1914.164270	-14.140908
1915.387238	-14.122669
1916.611770	-14.125518
1917.837868	-14.127866
1919.065536	-14.109686
1920.294777	-14.104578
1921.525594	-14.108662
1922.757989	-14.092429
1923.991967	-14.080346
1925.227529	-14.084563
1926.464679	-14.073414
1927.703420	-14.056139
1928.943755	-14.055363
1930.185688	-14.047095
1931.429221	-14.028742
1932.674356	-14.025184
1933.921099	-14.018973
1935.169451	-13.998478
1936.419415	-13.989905
1937.670996	-13.984638
1938.924195	-13.965076
1940.179017	-13.954834
1941.435463	-13.950061
1942.693538	-13.929335
1943.953245	-13.916600
1945.214586	-13.912851
1946.477566	-13.893097
1947.742186	-13.880440
1949.008451	-13.877440
1950.276363	-13.856936
1951.545926	-13.844399
1952.817143	-13.842600
1954.090017	-13.822802
1955.364551	-13.812392
1956.640749	-13.809753
1957.918615	-13.788356
1959.198150	-13.781299
1960.479359	-13.778117
1961.762244	-13.755822
1963.046810	-13.752355
1964.333059	-13.745334
1965.620995	-13.722103
1966.910621	-13.723561
1968.201940	-13.712231
1969.494956	-13.689929
1970.789672	-13.693642
1972.086091	-13.675607
1973.384217	-13.658310
1974.684053	-13.662456
1975.985602	-13.637659
1977.288869	-13.627161
1978.593855	-13.625881
1979.900566	-13.597784
1981.209003	-13.596200
1982.519171	-13.584895
1983.831073	-13.558507
1985.144712	-13.561121
1986.460093	-13.538863
1987.777217	-13.522754
1989.096089	-13.521980
1990.416713	-13.492925
1991.739092	-13.489078
1993.063228	-13.477567
1994.389127	-13.454357
1995.716791	-13.456884
1997.046223	-13.432519
1998.377428	-13.424383
1999.710409	-13.421459
2001.045169	-13.395889
2002.381713	-13.401122
2003.720043	-13.383531
2005.060163	-13.371590
2006.402077	-13.376251
2007.745788	-13.351766
2009.091301	-13.356242
2010.438618	-13.345972
2011.787743	-13.333096
2013.138680	-13.339674
2014.491433	-13.319229
2015.846005	-13.322883
2017.202399	-13.314751
2018.560621	-13.304358
2019.920673	-13.308528
2021.282558	-13.290677
2022.646281	-13.294090
2024.011846	-13.283476
2025.379256	-13.276749
2026.748515	-13.275323
2028.119626	-13.259195
2029.492594	-13.262338
2030.867422	-13.247643
2032.244114	-13.243729
2033.622673	-13.237498
2035.003104	-13.225795
2036.385411	-13.225376
2037.769597	-13.211017
2039.155665	-13.209603
2040.543621	-13.200255
2041.933467	-13.195138
2043.325208	-13.189258
2044.718847	-13.180862
2046.114389	-13.180092
2047.511837	-13.170337
2048.911195	-13.169391
2050.312467	-13.162376
2051.715657	-13.159676
2053.120769	-13.158216
2054.527807	-13.153459
2055.936775	-13.154479
2057.347677	-13.149810
2058.760516	-13.150149
2060.175297	-13.154569
2061.592025	-13.152805
2063.010701	-13.153803
2064.431332	-13.156006
2065.853921	-13.161345
2067.278472	-13.160477
2068.704988	-13.166470
2070.133475	-13.167172
2071.563936	-13.169412
2072.996375	-13.174562
2074.430796	-13.171280
2075.867204	-13.179591
2077.305603	-13.173348
2078.745996	-13.182898
2080.188389	-13.175525
2081.632784	-13.182707
2083.079187	-13.177609
2084.527601	-13.184060
2085.978030	-13.180539
2087.430480	-13.184876
2088.884954	-13.183953
2090.341455	-13.188341
2091.799990	-13.190166
2093.260561	-13.193509
2094.723173	-13.199308
2096.187831	-13.201788
2097.654538	-13.211077
2099.123300	-13.213185
2100.594119	-13.225849
2102.067001	-13.227592
2103.541950	-13.242889
2105.018971	-13.244549
2106.498067	-13.262225
2107.979243	-13.262690
2109.462503	-13.284501
2110.947853	-13.285564
2112.435295	-13.307472
2113.924836	-13.310332
2115.416478	-13.332731
2116.910227	-13.337458
2118.406087	-13.358452
2119.904063	-13.365202
2121.404158	-13.384437
2122.906378	-13.392048
2124.410727	-13.409200
2125.917210	-13.417936
2127.425831	-13.431444
2128.936594	-13.442123
2130.449505	-13.451913
2131.964567	-13.463420
2133.481786	-13.470131
2135.001166	-13.484446
2136.522711	-13.487935
2138.046427	-13.503055
2139.572317	-13.506277
2141.100388	-13.522572
2142.630642	-13.527382
2144.163085	-13.545329
2145.697722	-13.552779
2147.234558	-13.571573
2148.773596	-13.583446
2150.314842	-13.602166
2151.858301	-13.618827
2153.403977	-13.639349
2154.951875	-13.659683
2156.502000	-13.680683
2158.054357	-13.705022
2159.608950	-13.729007
2161.165785	-13.754802
2162.724866	-13.781583
2164.286198	-13.808440
2165.849786	-13.837793
2167.415635	-13.867408
2168.983749	-13.894545
2170.554134	-13.926618
2172.126795	-13.952401
2173.701737	-13.984633
2175.278964	-14.011521
2176.858481	-14.042898
2178.440294	-14.071118
2180.024408	-14.093915
2181.610827	-14.124804
2183.199557	-14.146151
2184.790602	-14.178832
2186.383968	-14.197051
2187.979660	-14.219259
2189.577683	-14.247794
2191.178041	-14.264000
2192.780741	-14.297794
2194.385787	-14.314067
2195.993185	-14.343025
2197.602939	-14.371800
2199.215054	-14.391351
2200.829537	-14.429527
2202.446392	-14.452616
2204.065624	-14.486099
2205.687239	-14.522368
2207.311242	-14.545473
2208.937638	-14.591420
2210.566433	-14.621027
2212.197631	-14.659983
2213.831239	-14.703914
2215.467261	-14.734311
2217.105703	-14.782586
2218.746570	-14.825284
2220.389867	-14.863707
2222.035601	-14.918003
2223.683776	-14.956913
2225.334398	-15.004855
2226.987472	-15.056070
2228.643004	-15.096966
2230.300999	-15.149567
2231.961463	-15.197836
2233.624402	-15.239716
2235.289820	-15.291796
2236.957723	-15.336025
2238.628118	-15.380302
2240.301009	-15.427701
2241.976402	-15.471060
2243.654303	-15.512085
2245.334717	-15.558113
2247.017650	-15.602330
2248.703108	-15.644393
2250.391096	-15.690675
2252.081620	-15.736262
2253.774686	-15.780055
2255.470300	-15.825915
2257.168467	-15.876219
2258.869193	-15.924768
2260.572484	-15.970443
2262.278345	-16.028408
2263.986783	-16.076930
2265.697804	-16.125964
2267.411412	-16.187126
2269.127615	-16.242901
2270.846417	-16.293330
2272.567826	-16.359164
2274.291846	-16.427117
2276.018484	-16.480697
2277.747745	-16.552210
2279.479637	-16.625623
2281.214164	-16.686940
2282.951333	-16.752787
2284.691149	-16.836574
2286.433619	-16.905857
2288.178750	-16.967263
2289.926546	-17.048179
2291.677014	-17.120617
2293.430161	-17.180914
2295.185992	-17.245553
2296.944513	-17.330313
2298.705732	-17.386637
2300.469653	-17.453565
2302.236283	-17.511824
2304.005629	-17.596734
2305.777696	-17.646594
2307.552492	-17.705442
2309.330022	-17.780833
2311.110292	-17.854252
2312.893310	-17.909380
2314.679080	-17.974415
2316.467611	-18.052795
2318.258907	-18.129277
2320.052976	-18.191248
2321.849824	-18.258439
2323.649457	-18.341614
2325.451883	-18.427272
2327.257106	-18.499650
2329.065135	-18.575231
2330.875975	-18.669141
2332.689633	-18.768071
2334.506116	-18.858562
2336.325430	-18.943004
2338.147581	-19.038491
2339.972578	-19.146452
2341.800425	-19.250317
2343.631130	-19.337196
2345.464700	-19.422742
2347.301141	-19.523219
2349.140461	-19.633096
2350.982665	-19.731356
2352.827760	-19.807007
2354.675754	-19.888184
2356.526653	-19.987256
2358.380464	-20.091143
2360.237195	-20.182943
2362.096851	-20.255969
2363.959440	-20.329465
2365.824968	-20.423220
2367.693444	-20.527706
2369.564873	-20.627285
2371.439263	-20.701770
2373.316620	-20.766197
2375.196953	-20.853886
2377.080267	-20.958494
2378.966570	-21.071807
2380.855869	-21.162014
2382.748171	-21.239054
2384.643484	-21.315458
2386.541815	-21.420943
2388.443170	-21.552698
2390.347557	-21.697881
2392.254984	-21.817736
2394.165457	-21.922891
2396.078984	-22.026817
2397.995572	-22.145110
2399.915229	-22.303378
2401.837961	-22.441070
2403.763777	-22.611448
2405.692684	-22.703234
2407.624689	-22.824208
2409.559800	-22.908577
2411.498023	-23.011771
2413.439368	-23.115339
2415.383840	-23.268322
2417.331449	-23.389648
2419.282201	-23.520535
2421.236104	-23.614984
2423.193165	-23.695769
2425.153393	-23.769335
2427.116795	-23.841276
2429.083378	-23.941425
2431.053151	-24.062742
2433.026121	-24.218987
2435.002297	-24.365339
2436.981685	-24.498154
2438.964293	-24.609597
2440.950131	-24.701055
2442.939204	-24.795747
2444.931522	-24.887491
2446.927092	-24.981088
2448.925923	-25.084339
2450.928022	-25.215751
2452.933397	-25.379605
2454.942056	-25.575192
2456.954008	-25.789097
2458.969260	-25.999078
2460.987821	-26.193129
2463.009699	-26.370843
2465.034902	-26.535327
2467.063437	-26.687089
2469.095315	-26.826105
2471.130542	-26.934606
2473.169127	-27.010013
2475.211078	-27.077296
2477.256404	-27.127403
2479.305112	-27.200600
2481.357212	-27.286148
2483.412713	-27.374940
2485.471621	-27.477535
2487.533946	-27.581566
2489.599696	-27.688101
2491.668880	-27.805838
2493.741507	-27.916770
2495.817585	-28.047827
2497.897122	-28.197065
2499.980127	-28.349345
2502.066609	-28.549536
2504.156578	-28.730357
2506.250040	-28.954822
2508.347006	-29.163784
2510.447483	-29.409074
2512.551482	-29.658667
2514.659010	-29.878991
2516.770076	-30.137554
2518.884690	-30.369873
2521.002861	-30.623970
2523.124597	-30.845807
2525.249907	-31.066225
2527.378801	-31.275847
2529.511287	-31.463317
2531.647375	-31.608945
2533.787074	-31.728029
2535.930393	-31.820554
2538.077340	-31.878332
2540.227927	-31.905771
2542.382160	-31.908539
2544.540051	-31.934841
2546.701608	-31.953010
2548.866840	-31.991159
2551.035757	-32.049240
2553.208369	-32.145255
2555.384684	-32.296153
2557.564713	-32.457834
2559.748465	-32.660587
2561.935948	-32.876072
2564.127174	-33.116441
2566.322152	-33.352218
2568.520890	-33.533979
2570.723399	-33.695174
2572.929689	-33.828755
2575.139769	-33.938496
2577.353649	-34.031051
2579.571340	-34.140271
2581.792849	-34.340943
2584.018189	-34.613754
2586.247368	-34.933717
2588.480396	-35.300390
2590.717284	-35.639464
2592.958041	-35.966633
2595.202678	-36.137510
2597.451204	-36.224473
2599.703630	-36.360869
2601.959966	-36.484760
2604.220222	-36.698322
2606.484408	-36.955382
2608.752535	-37.203081
2611.024612	-37.402405
2613.300651	-37.426452
2615.580661	-37.422881
2617.864653	-37.462240
2620.152638	-37.614002
2622.444625	-37.835876
2624.740626	-37.975474
2627.040651	-38.062567
2629.344710	-38.050560
2631.652814	-37.979091
2633.964974	-38.057105
2636.281200	-38.267605
2638.601504	-38.531026
2640.925896	-38.691592
2643.254386	-38.750212
2645.586987	-38.821905
2647.923707	-39.005274
2650.264559	-39.374849
2652.609554	-39.798500
2654.958702	-40.096515
2657.312015	-40.286754
2659.669503	-40.644173
2662.031178	-41.238591
2664.397051	-41.720107
2666.767132	-42.010050
2669.141434	-42.223438
2671.519968	-42.543811
2673.902745	-42.989840
2676.289776	-43.281636
2678.681072	-43.342668
2681.076646	-43.404667
2683.476508	-43.604978
2685.880671	-43.767585
2688.289145	-43.603732
2690.701942	-43.475023
2693.119075	-43.787675
2695.540554	-44.026968
2697.966391	-43.871546
2700.396599	-43.707959
2702.831189	-43.692653
2705.270172	-43.673834
2707.713561	-43.655606
2710.161368	-43.714371
2712.613605	-43.775247
2715.070283	-43.763675
2717.531416	-43.852448
2719.997014	-44.069397
2722.467090	-44.509210
2724.941657	-44.779963
2727.420726	-44.906384
2729.904310	-45.516292
2732.392421	-46.090461
2734.885072	-46.433138
2737.382275	-47.089487
2739.884042	-47.740846
2742.390387	-48.030015
2744.901321	-48.510005
2747.416857	-49.516198
2749.937008	-49.730683
2752.461787	-49.814014
2754.991206	-50.761855
2757.525279	-50.875924
2760.064017	-50.981387
2762.607434	-51.467044
2765.155544	-51.488752
2767.708358	-51.662248
2770.265890	-51.688056
2772.828153	-51.238070
2775.395160	-51.029117
2777.966924	-50.952937
2780.543459	-49.978575
2783.124778	-49.948141
2785.710894	-49.856282
2788.301821	-49.242788
2790.897572	-49.649210
2793.498160	-49.450784
2796.103599	-49.578729
2798.713903	-49.945172
2801.329085	-49.722104
2803.949159	-50.336068
2806.574139	-50.562470
2809.204038	-50.832642
2811.838871	-51.609310
2814.478650	-51.898390
2817.123391	-52.462660
2819.773107	-52.858363
2822.427812	-53.446461
2825.087521	-54.110933
2827.752247	-54.305704
2830.422005	-55.067740
2833.096808	-55.877396
2835.776672	-57.140211
2838.461611	-58.044188
2841.151638	-59.286439
2843.846769	-60.881549
2846.547019	-62.964733
2849.252401	-63.216511
2851.962930	-61.715770
2854.678621	-60.780851
2857.399489	-59.749039
2860.125549	-59.259609
2862.856815	-57.945213
2865.593302	-57.658598
2868.335026	-57.246627
2871.082002	-56.669742
2873.834244	-56.856837
2876.591767	-57.105946
2879.354588	-57.042820
2882.122721	-56.343086
2884.896181	-56.104225
2887.674984	-57.564446
2890.459146	-57.341582
2893.248681	-57.740243
2896.043606	-56.843231
2898.843937	-58.381334
2901.649687	-57.566880
2904.460875	-57.011910
2907.277515	-57.102282
2910.099623	-58.025997
2912.927215	-58.570577
2915.760308	-58.560322
2918.598916	-60.335846
2921.443057	-62.379641
2924.292747	-63.680786
2927.148002	-63.064470
2930.008837	-66.497682
2932.875270	-71.622981
2935.747318	-72.523826
2938.624995	-72.598751
2941.508320	-73.263152
2944.397308	-72.424796
2947.291977	-68.694443
2950.192343	-69.440278
2953.098423	-69.427012
2956.010234	-65.925118
2958.927792	-66.378451
2961.851116	-67.704840
2964.780221	-67.205464
2967.715126	-68.716095
2970.655847	-67.697023
2973.602402	-67.098062
2976.554808	-65.433435
2979.513083	-65.478570
2982.477243	-63.914975
2985.447308	-63.095668
2988.423293	-62.950102
2991.405218	-63.437991
2994.393099	-61.911541
2997.386955	-63.068282
