# 2022-03-21_14.38.51
# shape = sech2
# FWHM_ps = 0.1
# carrier_nm = 1542
# frep_MHz = 12126
# pow_mW = 8000
# GDD = 0.0
# propa_len = 0.14444444444444446
# untap_len = 0.01
# taper_len = 0.08444444444444445
# waist_len = 0.02
# uptap_len = 0.02
# untap_scale = 1.0
# waist_scale = 0.2
# workingDir = NL_20110305_12 (Spirou)
# axis = slow
# window_ps = 10.0
# steps = 200
# points = 13000
# 
# wavelength [nm]	 power spectral density [dB]
1000.248639	-23.397647
1000.582480	-23.291045
1000.916545	-23.325861
1001.250832	-23.299370
1001.585343	-23.157644
1001.920077	-23.190726
1002.255035	-23.267096
1002.590218	-23.170197
1002.925624	-23.088172
1003.261255	-23.070570
1003.597111	-23.019055
1003.933192	-23.035180
1004.269497	-23.058289
1004.606029	-22.961590
1004.942785	-22.947334
1005.279768	-22.978556
1005.616977	-22.861481
1005.954412	-22.809895
1006.292074	-22.908396
1006.629962	-22.894195
1006.968077	-22.813811
1007.306420	-22.808849
1007.644990	-22.746191
1007.983787	-22.708025
1008.322813	-22.753206
1008.662067	-22.707002
1009.001549	-22.672400
1009.341259	-22.728761
1009.681199	-22.661582
1010.021367	-22.550009
1010.361765	-22.596785
1010.702392	-22.616296
1011.043250	-22.568487
1011.384337	-22.594484
1011.725654	-22.544318
1012.067202	-22.457331
1012.408980	-22.482627
1012.750989	-22.462934
1013.093230	-22.412929
1013.435702	-22.465194
1013.778405	-22.430568
1014.121341	-22.307554
1014.464508	-22.320984
1014.807908	-22.326373
1015.151540	-22.264854
1015.495405	-22.294923
1015.839503	-22.263820
1016.183835	-22.158538
1016.528400	-22.159165
1016.873198	-22.135515
1017.218231	-22.058248
1017.563498	-22.086575
1017.908999	-22.078890
1018.254735	-21.977223
1018.600707	-21.960371
1018.946913	-21.931986
1019.293354	-21.870589
1019.640032	-21.910651
1019.986945	-21.890362
1020.334094	-21.800594
1020.681480	-21.798206
1021.029102	-21.754553
1021.376961	-21.689306
1021.725058	-21.734851
1022.073391	-21.721886
1022.421962	-21.641884
1022.770772	-21.642049
1023.119819	-21.599945
1023.469104	-21.550624
1023.818628	-21.606529
1024.168391	-21.578781
1024.518393	-21.508634
1024.868634	-21.529696
1025.219115	-21.477600
1025.569836	-21.425916
1025.920796	-21.477373
1026.271997	-21.445171
1026.623438	-21.399059
1026.975121	-21.418454
1027.327044	-21.354299
1027.679208	-21.325667
1028.031614	-21.382570
1028.384262	-21.344349
1028.737152	-21.317994
1029.090284	-21.336765
1029.443659	-21.259328
1029.797276	-21.246342
1030.151137	-21.301701
1030.505240	-21.255237
1030.859587	-21.250571
1031.214178	-21.255216
1031.569013	-21.173148
1031.924093	-21.204999
1032.279417	-21.247569
1032.634985	-21.182882
1032.990799	-21.204995
1033.346858	-21.198038
1033.703162	-21.113471
1034.059712	-21.154927
1034.416509	-21.171091
1034.773551	-21.109038
1035.130841	-21.128862
1035.488377	-21.094005
1035.846160	-21.036805
1036.204190	-21.084341
1036.562468	-21.060871
1036.920994	-21.020552
1037.279768	-21.044780
1037.638790	-20.970940
1037.998061	-20.929578
1038.357581	-20.971325
1038.717350	-20.928532
1039.077368	-20.912472
1039.437636	-20.899932
1039.798154	-20.813800
1040.158922	-20.832432
1040.519940	-20.846761
1040.881209	-20.781490
1041.242729	-20.801684
1041.604501	-20.758779
1041.966524	-20.671316
1042.328798	-20.713488
1042.691325	-20.694713
1043.054103	-20.641239
1043.417135	-20.651967
1043.780419	-20.573668
1044.143956	-20.551587
1044.507746	-20.600343
1044.871791	-20.530021
1045.236088	-20.519385
1045.600641	-20.530175
1045.965447	-20.438724
1046.330508	-20.453575
1046.695824	-20.467089
1047.061395	-20.403299
1047.427222	-20.425526
1047.793304	-20.383618
1048.159642	-20.333854
1048.526237	-20.397138
1048.893088	-20.358165
1049.260196	-20.327141
1049.627561	-20.361398
1049.995183	-20.289092
1050.363063	-20.296387
1050.731201	-20.337068
1051.099597	-20.270728
1051.468251	-20.299198
1051.837164	-20.294375
1052.206336	-20.224018
1052.575767	-20.290958
1052.945458	-20.288800
1053.315409	-20.236579
1053.685619	-20.271762
1054.056090	-20.224446
1054.426821	-20.219043
1054.797814	-20.262007
1055.169067	-20.202153
1055.540582	-20.218842
1055.912359	-20.219699
1056.284398	-20.151788
1056.656698	-20.203886
1057.029262	-20.200354
1057.402088	-20.153200
1057.775177	-20.167408
1058.148530	-20.101823
1058.522146	-20.110123
1058.896027	-20.145802
1059.270171	-20.059190
1059.644580	-20.067339
1060.019254	-20.057371
1060.394193	-19.993746
1060.769397	-20.042545
1061.144867	-19.999625
1061.520602	-19.946076
1061.896604	-19.965716
1062.272872	-19.888872
1062.649407	-19.896185
1063.026210	-19.906047
1063.403279	-19.804835
1063.780616	-19.818030
1064.158221	-19.792728
1064.536094	-19.741606
1064.914235	-19.780403
1065.292645	-19.699978
1065.671325	-19.662606
1066.050273	-19.681114
1066.429491	-19.602549
1066.808979	-19.623844
1067.188738	-19.605385
1067.568766	-19.525049
1067.949066	-19.558037
1068.329636	-19.512166
1068.710478	-19.496654
1069.091592	-19.523657
1069.472977	-19.422894
1069.854635	-19.430736
1070.236565	-19.443998
1070.618768	-19.382174
1071.001243	-19.411747
1071.383993	-19.356814
1071.767016	-19.331696
1072.150313	-19.379029
1072.533884	-19.316254
1072.917730	-19.332407
1073.301850	-19.323037
1073.686246	-19.256551
1074.070917	-19.311040
1074.455864	-19.280149
1074.841087	-19.258877
1075.226586	-19.281553
1075.612362	-19.210718
1075.998415	-19.251190
1076.384745	-19.252627
1076.771353	-19.188226
1077.158238	-19.216050
1077.545401	-19.152088
1077.932843	-19.154277
1078.320564	-19.186095
1078.708564	-19.093373
1079.096842	-19.114305
1079.485401	-19.097201
1079.874240	-19.053122
1080.263358	-19.090820
1080.652757	-19.014249
1081.042438	-18.999864
1081.432399	-18.996904
1081.822641	-18.934498
1082.213166	-18.972387
1082.603972	-18.905955
1082.995061	-18.858049
1083.386433	-18.881523
1083.778087	-18.808480
1084.170025	-18.815984
1084.562246	-18.764720
1084.954751	-18.688310
1085.347541	-18.721929
1085.740615	-18.655650
1086.133973	-18.635516
1086.527617	-18.617021
1086.921546	-18.545013
1087.315761	-18.578930
1087.710262	-18.524287
1088.105050	-18.488121
1088.500124	-18.494649
1088.895485	-18.420989
1089.291134	-18.447066
1089.687070	-18.420930
1090.083294	-18.373328
1090.479806	-18.381967
1090.876607	-18.322847
1091.273696	-18.345942
1091.671075	-18.306357
1092.068744	-18.238086
1092.466702	-18.273037
1092.864950	-18.212861
1093.263489	-18.212833
1093.662319	-18.204555
1094.061440	-18.139026
1094.460852	-18.175551
1094.860555	-18.134011
1095.260551	-18.128473
1095.660840	-18.129849
1096.061421	-18.070546
1096.462295	-18.126626
1096.863462	-18.101999
1097.264923	-18.081303
1097.666678	-18.101876
1098.068727	-18.058168
1098.471071	-18.093908
1098.873710	-18.052174
1099.276644	-18.021466
1099.679874	-18.039487
1100.083400	-17.981204
1100.487222	-17.999370
1100.891340	-17.949050
1101.295756	-17.900803
1101.700468	-17.910291
1102.105478	-17.840281
1102.510787	-17.832420
1102.916393	-17.779781
1103.322298	-17.739393
1103.728502	-17.750089
1104.135005	-17.690002
1104.541807	-17.687902
1104.948909	-17.644258
1105.356312	-17.622059
1105.764015	-17.631837
1106.172019	-17.567015
1106.580324	-17.576039
1106.988931	-17.548647
1107.397840	-17.534250
1107.807051	-17.531874
1108.216564	-17.465330
1108.626380	-17.474454
1109.036500	-17.426646
1109.446923	-17.394406
1109.857649	-17.375019
1110.268680	-17.302427
1110.680016	-17.306344
1111.091657	-17.249545
1111.503602	-17.209743
1111.915854	-17.179495
1112.328411	-17.115952
1112.741275	-17.118338
1113.154445	-17.061373
1113.567922	-17.039518
1113.981706	-17.027164
1114.395798	-17.003014
1114.810198	-17.017852
1115.224906	-16.971472
1115.639923	-16.988393
1116.055249	-16.989240
1116.470884	-16.980370
1116.886829	-17.010464
1117.303084	-16.987773
1117.719650	-17.025139
1118.136526	-17.023712
1118.553713	-17.019111
1118.971212	-17.025876
1119.389022	-17.000674
1119.807145	-17.029551
1120.225580	-16.989883
1120.644328	-16.981369
1121.063389	-16.969817
1121.482763	-16.929454
1121.902452	-16.922571
1122.322454	-16.850277
1122.742771	-16.839162
1123.163404	-16.800980
1123.584351	-16.755401
1124.005614	-16.738659
1124.427193	-16.674840
1124.849089	-16.674177
1125.271301	-16.623103
1125.693830	-16.587422
1126.116677	-16.572579
1126.539842	-16.539173
1126.963324	-16.544676
1127.387126	-16.501754
1127.811246	-16.505444
1128.235685	-16.488209
1128.660444	-16.469916
1129.085522	-16.468044
1129.510922	-16.433152
1129.936641	-16.453616
1130.362682	-16.424342
1130.789044	-16.416201
1131.215728	-16.397977
1131.642734	-16.367456
1132.070063	-16.362334
1132.497714	-16.307381
1132.925689	-16.300084
1133.353987	-16.259942
1133.782610	-16.236032
1134.211556	-16.198924
1134.640827	-16.143656
1135.070424	-16.131983
1135.500345	-16.065839
1135.930593	-16.045850
1136.361166	-16.001284
1136.792067	-15.976174
1137.223294	-15.955405
1137.654848	-15.901314
1138.086730	-15.898243
1138.518940	-15.855350
1138.951479	-15.854357
1139.384346	-15.828652
1139.817543	-15.821930
1140.251069	-15.831289
1140.684925	-15.805233
1141.119111	-15.820639
1141.553628	-15.796038
1141.988475	-15.820539
1142.423655	-15.814224
1142.859166	-15.818012
1143.295009	-15.837091
1143.731185	-15.824754
1144.167694	-15.842859
1144.604536	-15.813531
1145.041711	-15.835146
1145.479221	-15.819180
1145.917065	-15.816016
1146.355245	-15.812432
1146.793759	-15.784758
1147.232609	-15.786459
1147.671795	-15.731970
1148.111317	-15.729193
1148.551177	-15.687688
1148.991373	-15.670126
1149.431907	-15.635260
1149.872779	-15.590464
1150.313989	-15.571935
1150.755538	-15.504358
1151.197426	-15.484988
1151.639653	-15.428492
1152.082220	-15.412335
1152.525128	-15.364268
1152.968376	-15.323229
1153.411966	-15.296664
1153.855897	-15.244666
1154.300169	-15.226210
1154.744784	-15.176802
1155.189742	-15.176752
1155.635042	-15.134900
1156.080687	-15.116661
1156.526674	-15.091192
1156.973007	-15.068055
1157.419683	-15.059121
1157.866705	-15.030819
1158.314072	-15.043111
1158.761786	-15.015172
1159.209845	-15.020354
1159.658251	-14.992558
1160.107004	-14.999204
1160.556104	-14.991354
1161.005553	-14.985002
1161.455349	-14.996589
1161.905494	-14.980943
1162.355989	-14.991685
1162.806832	-14.963214
1163.258026	-14.984295
1163.709570	-14.965535
1164.161464	-14.977688
1164.613710	-14.967109
1165.066307	-14.962594
1165.519256	-14.958325
1165.972558	-14.928526
1166.426212	-14.943193
1166.880219	-14.909301
1167.334580	-14.923957
1167.789295	-14.878534
1168.244364	-14.884000
1168.699788	-14.839537
1169.155567	-14.823301
1169.611702	-14.799780
1170.068193	-14.771336
1170.525041	-14.756779
1170.982245	-14.699196
1171.439807	-14.695251
1171.897726	-14.627428
1172.356004	-14.624368
1172.814640	-14.568474
1173.273635	-14.562197
1173.732989	-14.510046
1174.192703	-14.481055
1174.652778	-14.449914
1175.113213	-14.409438
1175.574009	-14.402005
1176.035167	-14.354683
1176.496687	-14.362399
1176.958569	-14.302349
1177.420814	-14.308703
1177.883422	-14.262961
1178.346394	-14.274049
1178.809730	-14.243555
1179.273430	-14.243997
1179.737496	-14.228982
1180.201927	-14.206849
1180.666723	-14.211706
1181.131886	-14.187067
1181.597416	-14.213260
1182.063312	-14.174745
1182.529576	-14.205118
1182.996209	-14.158727
1183.463209	-14.186845
1183.930579	-14.151077
1184.398317	-14.183183
1184.866426	-14.152258
1185.334904	-14.163658
1185.803754	-14.141946
1186.272974	-14.138277
1186.742566	-14.132919
1187.212529	-14.124730
1187.682865	-14.133358
1188.153574	-14.103463
1188.624656	-14.111666
1189.096112	-14.078381
1189.567942	-14.095741
1190.040147	-14.066336
1190.512726	-14.082512
1190.985681	-14.050229
1191.459012	-14.048900
1191.932720	-14.027088
1192.406804	-14.021934
1192.881265	-14.015929
1193.356104	-13.996254
1193.831322	-13.995579
1194.306918	-13.952474
1194.782893	-13.960897
1195.259248	-13.917484
1195.735982	-13.938005
1196.213097	-13.880490
1196.690593	-13.895122
1197.168471	-13.830258
1197.646730	-13.841624
1198.125371	-13.788236
1198.604395	-13.797236
1199.083803	-13.745022
1199.563594	-13.733743
1200.043769	-13.690827
1200.524329	-13.667861
1201.005273	-13.649268
1201.486604	-13.615398
1201.968320	-13.606635
1202.450422	-13.545993
1202.932912	-13.556172
1203.415789	-13.488292
1203.899054	-13.522925
1204.382707	-13.442163
1204.866748	-13.484759
1205.351179	-13.383879
1205.836000	-13.444585
1206.321211	-13.345624
1206.806812	-13.420397
1207.292805	-13.312692
1207.779189	-13.386852
1208.265965	-13.271663
1208.753134	-13.356000
1209.240696	-13.253376
1209.728651	-13.336985
1210.217000	-13.232745
1210.705744	-13.304798
1211.194883	-13.207654
1211.684417	-13.281134
1212.174347	-13.206674
1212.664673	-13.261331
1213.155396	-13.191795
1213.646516	-13.228799
1214.138034	-13.182153
1214.629951	-13.209668
1215.122266	-13.186893
1215.614980	-13.186196
1216.108095	-13.171423
1216.601609	-13.154878
1217.095524	-13.169412
1217.589841	-13.139885
1218.084559	-13.163753
1218.579679	-13.112353
1219.075202	-13.139846
1219.571128	-13.089690
1220.067458	-13.130207
1220.564191	-13.076136
1221.061330	-13.103603
1221.558874	-13.048463
1222.056823	-13.068370
1222.555178	-13.036112
1223.053940	-13.044766
1223.553109	-13.017600
1224.052686	-13.000211
1224.552671	-12.991526
1225.053065	-12.963857
1225.553867	-12.979411
1226.055079	-12.931727
1226.556702	-12.947260
1227.058735	-12.887215
1227.561179	-12.919419
1228.064035	-12.861184
1228.567303	-12.894264
1229.070983	-12.826444
1229.575077	-12.847855
1230.079585	-12.796117
1230.584506	-12.816341
1231.089842	-12.775541
1231.595594	-12.774820
1232.101761	-12.739433
1232.608345	-12.726997
1233.115345	-12.720437
1233.622762	-12.693921
1234.130597	-12.690545
1234.638851	-12.646759
1235.147523	-12.654963
1235.656615	-12.613455
1236.166126	-12.634859
1236.676058	-12.579177
1237.186411	-12.593864
1237.697185	-12.543918
1238.208381	-12.565727
1238.719999	-12.525889
1239.232040	-12.537510
1239.744505	-12.493710
1240.257394	-12.501441
1240.770708	-12.479795
1241.284446	-12.482735
1241.798610	-12.464977
1242.313201	-12.451782
1242.828218	-12.443466
1243.343662	-12.436626
1243.859534	-12.441375
1244.375834	-12.419257
1244.892563	-12.423907
1245.409721	-12.398742
1245.927309	-12.418757
1246.445327	-12.397363
1246.963777	-12.409000
1247.482657	-12.379323
1248.001970	-12.395118
1248.521716	-12.375812
1249.041894	-12.394844
1249.562506	-12.367619
1250.083553	-12.374115
1250.605034	-12.357924
1251.126950	-12.369962
1251.649302	-12.357319
1252.172091	-12.357078
1252.695316	-12.339406
1253.218979	-12.342999
1253.743079	-12.339099
1254.267619	-12.337389
1254.792597	-12.324413
1255.318015	-12.317298
1255.843874	-12.312979
1256.370173	-12.315673
1256.896913	-12.305658
1257.424095	-12.296173
1257.951720	-12.287002
1258.479787	-12.287054
1259.008298	-12.284551
1259.537254	-12.275616
1260.066654	-12.264602
1260.596499	-12.255923
1261.126790	-12.261513
1261.657527	-12.247728
1262.188711	-12.249563
1262.720342	-12.222143
1263.252422	-12.237249
1263.784950	-12.215346
1264.317928	-12.230737
1264.851355	-12.193181
1265.385232	-12.209791
1265.919560	-12.180997
1266.454340	-12.203623
1266.989572	-12.169441
1267.525256	-12.175333
1268.061394	-12.154159
1268.597985	-12.161569
1269.135031	-12.151673
1269.672531	-12.135519
1270.210487	-12.131785
1270.748899	-12.114346
1271.287768	-12.130458
1271.827094	-12.096399
1272.366877	-12.108751
1272.907119	-12.072190
1273.447820	-12.098772
1273.988981	-12.066498
1274.530601	-12.075320
1275.072683	-12.045440
1275.615226	-12.054408
1276.158230	-12.044978
1276.701697	-12.036284
1277.245627	-12.026459
1277.790021	-12.008949
1278.334879	-12.024453
1278.880202	-11.996948
1279.425991	-12.008562
1279.972245	-11.971763
1280.518966	-11.994437
1281.066155	-11.970961
1281.613811	-11.976843
1282.161936	-11.952870
1282.710529	-11.952827
1283.259593	-11.954014
1283.809126	-11.940487
1284.359131	-11.938228
1284.909607	-11.915418
1285.460555	-11.933128
1286.011976	-11.910219
1286.563870	-11.919398
1287.116237	-11.888320
1287.669080	-11.904874
1288.222397	-11.891036
1288.776191	-11.890843
1289.330460	-11.875781
1289.885207	-11.869555
1290.440431	-11.879115
1290.996133	-11.861160
1291.552314	-11.864976
1292.108975	-11.841537
1292.666115	-11.861225
1293.223737	-11.842968
1293.781839	-11.845415
1294.340424	-11.828366
1294.899491	-11.834614
1295.459041	-11.835339
1296.019075	-11.821774
1296.579593	-11.821397
1297.140597	-11.810464
1297.702086	-11.826137
1298.264061	-11.806454
1298.826524	-11.808648
1299.389474	-11.798678
1299.952912	-11.808789
1300.516839	-11.802165
1301.081255	-11.791440
1301.646162	-11.794739
1302.211559	-11.791584
1302.777448	-11.799720
1303.343829	-11.779957
1303.910702	-11.787886
1304.478069	-11.784646
1305.045930	-11.790948
1305.614285	-11.779818
1306.183136	-11.776720
1306.752483	-11.786557
1307.322326	-11.781362
1307.892666	-11.783523
1308.463504	-11.770849
1309.034841	-11.787111
1309.606677	-11.782604
1310.179012	-11.782406
1310.751849	-11.778282
1311.325186	-11.784109
1311.899025	-11.794518
1312.473366	-11.782636
1313.048211	-11.790793
1313.623559	-11.790005
1314.199412	-11.805312
1314.775770	-11.797179
1315.352634	-11.798894
1315.930004	-11.811730
1316.507881	-11.813761
1317.086266	-11.820957
1317.665159	-11.813020
1318.244562	-11.833826
1318.824474	-11.835579
1319.404897	-11.838528
1319.985831	-11.842263
1320.567276	-11.849643
1321.149234	-11.866742
1321.731706	-11.856233
1322.314691	-11.870128
1322.898190	-11.875365
1323.482205	-11.886979
1324.066736	-11.887342
1324.651783	-11.886589
1325.237347	-11.908537
1325.823430	-11.904587
1326.410031	-11.913691
1326.997151	-11.913300
1327.584791	-11.928451
1328.172952	-11.936822
1328.761634	-11.929196
1329.350839	-11.948065
1329.940566	-11.950581
1330.530817	-11.963643
1331.121592	-11.960936
1331.712891	-11.970939
1332.304716	-11.990385
1332.897068	-11.983960
1333.489946	-11.998820
1334.083352	-12.003310
1334.677287	-12.020547
1335.271750	-12.024184
1335.866744	-12.024633
1336.462268	-12.050010
1337.058323	-12.049496
1337.654910	-12.060797
1338.252029	-12.066797
1338.849682	-12.080337
1339.447869	-12.095859
1340.046591	-12.088298
1340.645848	-12.111100
1341.245641	-12.119000
1341.845972	-12.124352
1342.446840	-12.135206
1343.048246	-12.138687
1343.650191	-12.162606
1344.252677	-12.155388
1344.855702	-12.166466
1345.459269	-12.184721
1346.063379	-12.182043
1346.668030	-12.197192
1347.273226	-12.195170
1347.878965	-12.214496
1348.485250	-12.218952
1349.092080	-12.213061
1349.699456	-12.238181
1350.307380	-12.234253
1350.915851	-12.242148
1351.524871	-12.248508
1352.134441	-12.252161
1352.744560	-12.269312
1353.355231	-12.257048
1353.966453	-12.273792
1354.578227	-12.284772
1355.190555	-12.276084
1355.803436	-12.293857
1356.416872	-12.292652
1357.030863	-12.305472
1357.645411	-12.308313
1358.260515	-12.306333
1358.876177	-12.332719
1359.492397	-12.322485
1360.109176	-12.331681
1360.726516	-12.349165
1361.344416	-12.345038
1361.962877	-12.361814
1362.581901	-12.361023
1363.201487	-12.375938
1363.821637	-12.388584
1364.442352	-12.379751
1365.063632	-12.408058
1365.685478	-12.410717
1366.307891	-12.411216
1366.930871	-12.434728
1367.554420	-12.433763
1368.178538	-12.450820
1368.803226	-12.455752
1369.428485	-12.463531
1370.054315	-12.488128
1370.680717	-12.478819
1371.307693	-12.498759
1371.935242	-12.517533
1372.563366	-12.509967
1373.192065	-12.534008
1373.821341	-12.541121
1374.451193	-12.548754
1375.081623	-12.565385
1375.712632	-12.565102
1376.344221	-12.590174
1376.976389	-12.592861
1377.609139	-12.595521
1378.242470	-12.627016
1378.876384	-12.620645
1379.510881	-12.632220
1380.145963	-12.656641
1380.781629	-12.652628
1381.417881	-12.671995
1382.054720	-12.681592
1382.692147	-12.690452
1383.330161	-12.710145
1383.968765	-12.708025
1384.607959	-12.731785
1385.247743	-12.746060
1385.888119	-12.741390
1386.529087	-12.774777
1387.170648	-12.782341
1387.812804	-12.784345
1388.455554	-12.817846
1389.098899	-12.821654
1389.742842	-12.835016
1390.387381	-12.859295
1391.032519	-12.865771
1391.678256	-12.888850
1392.324592	-12.901060
1392.971529	-12.915676
1393.619068	-12.944033
1394.267208	-12.946521
1394.915952	-12.971446
1395.565300	-12.999543
1396.215253	-12.998402
1396.865812	-13.031668
1397.516977	-13.056389
1398.168749	-13.057962
1398.821130	-13.095493
1399.474120	-13.116112
1400.127719	-13.124974
1400.781930	-13.160911
1401.436752	-13.178294
1402.092186	-13.195087
1402.748234	-13.224634
1403.404897	-13.240763
1404.062174	-13.264981
1404.720067	-13.286229
1405.378577	-13.304301
1406.037705	-13.333850
1406.697451	-13.347393
1407.357817	-13.368774
1408.018803	-13.400642
1408.680410	-13.407224
1409.342639	-13.432536
1410.005492	-13.463633
1410.668968	-13.466520
1411.333068	-13.495367
1411.997795	-13.525010
1412.663147	-13.526601
1413.329127	-13.557965
1413.995736	-13.584018
1414.662973	-13.585193
1415.330840	-13.615794
1415.999339	-13.637139
1416.668469	-13.638103
1417.338232	-13.667321
1418.008628	-13.684893
1418.679659	-13.687917
1419.351325	-13.715702
1420.023628	-13.731094
1420.696568	-13.735945
1421.370145	-13.760704
1422.044362	-13.773143
1422.719219	-13.777773
1423.394717	-13.798543
1424.070856	-13.808553
1424.747638	-13.813848
1425.425064	-13.833253
1426.103134	-13.844001
1426.781850	-13.852311
1427.461212	-13.871919
1428.141221	-13.883861
1428.821878	-13.892588
1429.503185	-13.909974
1430.185141	-13.919377
1430.867749	-13.925333
1431.551008	-13.939582
1432.234920	-13.947032
1432.919486	-13.952856
1433.604707	-13.968799
1434.290583	-13.978683
1434.977116	-13.988248
1435.664307	-14.008027
1436.352156	-14.018919
1437.040664	-14.028508
1437.729833	-14.046533
1438.419663	-14.051107
1439.110156	-14.055396
1439.801312	-14.068468
1440.493132	-14.066377
1441.185617	-14.070389
1441.878768	-14.085429
1442.572586	-14.085514
1443.267072	-14.098810
1443.962228	-14.121609
1444.658053	-14.126281
1445.354549	-14.146722
1446.051717	-14.168810
1446.749558	-14.166854
1447.448073	-14.182269
1448.147263	-14.190955
1448.847128	-14.176013
1449.547671	-14.184922
1450.248891	-14.184580
1450.950789	-14.169815
1451.653368	-14.186957
1452.356627	-14.193486
1453.060568	-14.194775
1453.765192	-14.227541
1454.470500	-14.242323
1455.176492	-14.254825
1455.883170	-14.286610
1456.590534	-14.290934
1457.298586	-14.293804
1458.007327	-14.301181
1458.716758	-14.282093
1459.426880	-14.268449
1460.137693	-14.252758
1460.849199	-14.227086
1461.561398	-14.217992
1462.274293	-14.205997
1462.987883	-14.205399
1463.702170	-14.222497
1464.417155	-14.232256
1465.132838	-14.263516
1465.849222	-14.295367
1466.566306	-14.308274
1467.284093	-14.337218
1468.002582	-14.339703
1468.721775	-14.316898
1469.441674	-14.300730
1470.162278	-14.246535
1470.883590	-14.180827
1471.605609	-14.122442
1472.328338	-14.040948
1473.051777	-13.974271
1473.775928	-13.917981
1474.500790	-13.864286
1475.226367	-13.838041
1475.952657	-13.815268
1476.679663	-13.810803
1477.407386	-13.818801
1478.135826	-13.813569
1478.864985	-13.821903
1479.594863	-13.808892
1480.325463	-13.766992
1481.056784	-13.721562
1481.788828	-13.631352
1482.521597	-13.517511
1483.255090	-13.392843
1483.989309	-13.237806
1484.724256	-13.087290
1485.459931	-12.935360
1486.196336	-12.794251
1486.933471	-12.682245
1487.671337	-12.584388
1488.409937	-12.533301
1489.149270	-12.515300
1489.889337	-12.526076
1490.630141	-12.592273
1491.371682	-12.679581
1492.113961	-12.799719
1492.856979	-12.948902
1493.600738	-13.098607
1494.345238	-13.259010
1495.090481	-13.395672
1495.836467	-13.508515
1496.583198	-13.588340
1497.330675	-13.604878
1498.078899	-13.589515
1498.827872	-13.521428
1499.577593	-13.408781
1500.328065	-13.284372
1501.079289	-13.133644
1501.831265	-12.990508
1502.583995	-12.855057
1503.337480	-12.735774
1504.091721	-12.654205
1504.846719	-12.588852
1505.602475	-12.568289
1506.358991	-12.581050
1507.116268	-12.616284
1507.874306	-12.690165
1508.633108	-12.770707
1509.392673	-12.862599
1510.153004	-12.938611
1510.914101	-12.974459
1511.675965	-12.963962
1512.438599	-12.856940
1513.202002	-12.660023
1513.966176	-12.361336
1514.731122	-11.958509
1515.496842	-11.486521
1516.263336	-10.951653
1517.030607	-10.395625
1517.798654	-9.832115
1518.567479	-9.279284
1519.337083	-8.764051
1520.107468	-8.281178
1520.878634	-7.851557
1521.650584	-7.472693
1522.423317	-7.151675
1523.196836	-6.892098
1523.971141	-6.689271
1524.746233	-6.556237
1525.522115	-6.482372
1526.298786	-6.477868
1527.076249	-6.540461
1527.854504	-6.672962
1528.633553	-6.880029
1529.413397	-7.158022
1530.194037	-7.521170
1530.975474	-7.960772
1531.757709	-8.491113
1532.540745	-9.109929
1533.324581	-9.824517
1534.109220	-10.635640
1534.894662	-11.535516
1535.680909	-12.522695
1536.467961	-13.544935
1537.255821	-14.553964
1538.044489	-15.413785
1538.833967	-15.997165
1539.624256	-16.162608
1540.415357	-15.936096
1541.207271	-15.409195
1542.000000	-14.745221
1542.793545	-14.050830
1543.587907	-13.398621
1544.383087	-12.818750
1545.179088	-12.320741
1545.975909	-11.914826
1546.773552	-11.584341
1547.572019	-11.337259
1548.371311	-11.154811
1549.171428	-11.044023
1549.972373	-10.986036
1550.774147	-10.987409
1551.576751	-11.037054
1552.380185	-11.133423
1553.184453	-11.272392
1553.989554	-11.448085
1554.795490	-11.662909
1555.602263	-11.901376
1556.409873	-12.172441
1557.218322	-12.458784
1558.027612	-12.769024
1558.837743	-13.084786
1559.648717	-13.416685
1560.460536	-13.752700
1561.273200	-14.095921
1562.086710	-14.443792
1562.901069	-14.795618
1563.716278	-15.158135
1564.532337	-15.517230
1565.349249	-15.889161
1566.167014	-16.253345
1566.985634	-16.624802
1567.805111	-16.972826
1568.625444	-17.307745
1569.446637	-17.601571
1570.268690	-17.845927
1571.091605	-18.020453
1571.915382	-18.104986
1572.740024	-18.105356
1573.565532	-17.995801
1574.391907	-17.804940
1575.219150	-17.520703
1576.047262	-17.185081
1576.876246	-16.797026
1577.706103	-16.385903
1578.536833	-15.962691
1579.368439	-15.541058
1580.200922	-15.136264
1581.034282	-14.743991
1581.868522	-14.383471
1582.703643	-14.043934
1583.539646	-13.743160
1584.376532	-13.465402
1585.214304	-13.226322
1586.052962	-13.014023
1586.892508	-12.838254
1587.732943	-12.689012
1588.574269	-12.570759
1589.416487	-12.480439
1590.259599	-12.416316
1591.103605	-12.378157
1591.948508	-12.359153
1592.794309	-12.365048
1593.641009	-12.384847
1594.488609	-12.425208
1595.337112	-12.472101
1596.186518	-12.535905
1597.036829	-12.601977
1597.888047	-12.679426
1598.740172	-12.752781
1599.593207	-12.833103
1600.447153	-12.907212
1601.302010	-12.983468
1602.157782	-13.049825
1603.014469	-13.114837
1603.872072	-13.171700
1604.730593	-13.226190
1605.590034	-13.272879
1606.450397	-13.316442
1607.311681	-13.356681
1608.173890	-13.395355
1609.037024	-13.433507
1609.901085	-13.469899
1610.766075	-13.510492
1611.631995	-13.552233
1612.498846	-13.601368
1613.366630	-13.651747
1614.235349	-13.712716
1615.105004	-13.776928
1615.975596	-13.854255
1616.847128	-13.933652
1617.719600	-14.026505
1618.593014	-14.121643
1619.467372	-14.230281
1620.342675	-14.338271
1621.218924	-14.456723
1622.096122	-14.571223
1622.974270	-14.694049
1623.853369	-14.808896
1624.733420	-14.927231
1625.614427	-15.033790
1626.496389	-15.141504
1627.379308	-15.234888
1628.263187	-15.326232
1629.148026	-15.400492
1630.033828	-15.472066
1630.920593	-15.527208
1631.808324	-15.579815
1632.697022	-15.616427
1633.586688	-15.652755
1634.477324	-15.676941
1635.368932	-15.704214
1636.261514	-15.721213
1637.155070	-15.742676
1638.049602	-15.756147
1638.945113	-15.776153
1639.841603	-15.788499
1640.739075	-15.806207
1641.637529	-15.814980
1642.536968	-15.828723
1643.437393	-15.832611
1644.338806	-15.839057
1645.241209	-15.832432
1646.144602	-15.826028
1647.048988	-15.805969
1647.954368	-15.785930
1648.860744	-15.752090
1649.768118	-15.718215
1650.676491	-15.672858
1651.585865	-15.629645
1652.496241	-15.578231
1653.407621	-15.529554
1654.320008	-15.475271
1655.233401	-15.424672
1656.147804	-15.371926
1657.063218	-15.322466
1657.979645	-15.272626
1658.897085	-15.224231
1659.815542	-15.177256
1660.735016	-15.129025
1661.655509	-15.082519
1662.577023	-15.031177
1663.499560	-14.982335
1664.423121	-14.926912
1665.347709	-14.875345
1666.273324	-14.816255
1667.199969	-14.762424
1668.127645	-14.702659
1669.056353	-14.649706
1669.986097	-14.592553
1670.916877	-14.541110
1671.848695	-14.487232
1672.781553	-14.437556
1673.715452	-14.387767
1674.650395	-14.338913
1675.586383	-14.291015
1676.523418	-14.240873
1677.461501	-14.194012
1678.400635	-14.143648
1679.340821	-14.098171
1680.282061	-14.048286
1681.224357	-14.003664
1682.167710	-13.955520
1683.112122	-13.912392
1684.057595	-13.867466
1685.004132	-13.825752
1685.951732	-13.784577
1686.900400	-13.744259
1687.850135	-13.706482
1688.800940	-13.666742
1689.752818	-13.630902
1690.705768	-13.592032
1691.659795	-13.558194
1692.614898	-13.521634
1693.571081	-13.488922
1694.528345	-13.454596
1695.486691	-13.422226
1696.446122	-13.390982
1697.406640	-13.359681
1698.368245	-13.331684
1699.330941	-13.301678
1700.294729	-13.275969
1701.259611	-13.247749
1702.225588	-13.222960
1703.192664	-13.196393
1704.160838	-13.171338
1705.130114	-13.147092
1706.100493	-13.122664
1707.071977	-13.101317
1708.044568	-13.078010
1709.018268	-13.058132
1709.993079	-13.036105
1710.969003	-13.016651
1711.946041	-12.996553
1712.924196	-12.976827
1713.903469	-12.958557
1714.883862	-12.938963
1715.865378	-12.922414
1716.848017	-12.903805
1717.831783	-12.887647
1718.816677	-12.870207
1719.802701	-12.853684
1720.789857	-12.838354
1721.778147	-12.822298
1722.767573	-12.809157
1723.758136	-12.794313
1724.749840	-12.782424
1725.742685	-12.769935
1726.736673	-12.758901
1727.731808	-12.749233
1728.728090	-12.738655
1729.725521	-12.730939
1730.724105	-12.721703
1731.723842	-12.715138
1732.724735	-12.708172
1733.726785	-12.701660
1734.729995	-12.696942
1735.734366	-12.691089
1736.739902	-12.688422
1737.746603	-12.684757
1738.754472	-12.682747
1739.763510	-12.681240
1740.773721	-12.678824
1741.785105	-12.678721
1742.797665	-12.676816
1743.811403	-12.676903
1744.826321	-12.676446
1745.842422	-12.675767
1746.859706	-12.676783
1747.878177	-12.676219
1748.897835	-12.678102
1749.918685	-12.679443
1750.940726	-12.681644
1751.963963	-12.685579
1752.988395	-12.688426
1754.014027	-12.693600
1755.040860	-12.697572
1756.068895	-12.702266
1757.098135	-12.707950
1758.128583	-12.712854
1759.160240	-12.720143
1760.193109	-12.726723
1761.227191	-12.734410
1762.262488	-12.743094
1763.299004	-12.750945
1764.336740	-12.760795
1765.375697	-12.769695
1766.415880	-12.779476
1767.457288	-12.789956
1768.499926	-12.799627
1769.543794	-12.810958
1770.588895	-12.821308
1771.635231	-12.832075
1772.682805	-12.843249
1773.731619	-12.853380
1774.781674	-12.864992
1775.832973	-12.875799
1776.885519	-12.886946
1777.939312	-12.898783
1778.994357	-12.909708
1780.050654	-12.922342
1781.108207	-12.934865
1782.167017	-12.947952
1783.227087	-12.962375
1784.288418	-12.975924
1785.351013	-12.990894
1786.414875	-13.005906
1787.480006	-13.020987
1788.546407	-13.037851
1789.614082	-13.054220
1790.683032	-13.071991
1791.753259	-13.090443
1792.824767	-13.108180
1793.897557	-13.127363
1794.971632	-13.145876
1796.046994	-13.164802
1797.123645	-13.185126
1798.201588	-13.204663
1799.280824	-13.225617
1800.361357	-13.246825
1801.443188	-13.267614
1802.526320	-13.290115
1803.610756	-13.311862
1804.696497	-13.333769
1805.783546	-13.356506
1806.871906	-13.377788
1807.961578	-13.400171
1809.052565	-13.423002
1810.144870	-13.445177
1811.238494	-13.469044
1812.333441	-13.492127
1813.429713	-13.514706
1814.527311	-13.537903
1815.626239	-13.559166
1816.726499	-13.580594
1817.828094	-13.602509
1818.931025	-13.623071
1820.035295	-13.644794
1821.140906	-13.666148
1822.247862	-13.686464
1823.356165	-13.708315
1824.465816	-13.729596
1825.576819	-13.750885
1826.689175	-13.773722
1827.802888	-13.795179
1828.917960	-13.817036
1830.034394	-13.839618
1831.152191	-13.860634
1832.271354	-13.882564
1833.391887	-13.904553
1834.513790	-13.925150
1835.637068	-13.947093
1836.761722	-13.968863
1837.887755	-13.990190
1839.015169	-14.012944
1840.143968	-14.035388
1841.274153	-14.057265
1842.405727	-14.079992
1843.538693	-14.101812
1844.673053	-14.123622
1845.808810	-14.146402
1846.945966	-14.168049
1848.084525	-14.189349
1849.224488	-14.211382
1850.365858	-14.232499
1851.508638	-14.253930
1852.652831	-14.275638
1853.798438	-14.295678
1854.945463	-14.315316
1856.093909	-14.334929
1857.243777	-14.353722
1858.395071	-14.373244
1859.547794	-14.392974
1860.701947	-14.411667
1861.857533	-14.430093
1863.014556	-14.447877
1864.173018	-14.463984
1865.332922	-14.479987
1866.494270	-14.495824
1867.657065	-14.510042
1868.821309	-14.524210
1869.987006	-14.538078
1871.154158	-14.549590
1872.322768	-14.560521
1873.492839	-14.570952
1874.664373	-14.579289
1875.837373	-14.588769
1877.011841	-14.598633
1878.187782	-14.606110
1879.365197	-14.613787
1880.544089	-14.620855
1881.724460	-14.625107
1882.906315	-14.630170
1884.089655	-14.634646
1885.274483	-14.636768
1886.460803	-14.640026
1887.648616	-14.642700
1888.837927	-14.643201
1890.028736	-14.644410
1891.221049	-14.644474
1892.414866	-14.642328
1893.610192	-14.640892
1894.807028	-14.639157
1896.005379	-14.636571
1897.205246	-14.634600
1898.406633	-14.631806
1899.609542	-14.627948
1900.813977	-14.623813
1902.019940	-14.618926
1903.227434	-14.613938
1904.436462	-14.608857
1905.647028	-14.602872
1906.859133	-14.596532
1908.072781	-14.589166
1909.287976	-14.580558
1910.504719	-14.572144
1911.723013	-14.563524
1912.942863	-14.554152
1914.164270	-14.544878
1915.387238	-14.534659
1916.611770	-14.522707
1917.837868	-14.510179
1919.065536	-14.496708
1920.294777	-14.481556
1921.525594	-14.465918
1922.757989	-14.449888
1923.991967	-14.432586
1925.227529	-14.414218
1926.464679	-14.394356
1927.703420	-14.372574
1928.943755	-14.349950
1930.185688	-14.327257
1931.429221	-14.304007
1932.674356	-14.280395
1933.921099	-14.256474
1935.169451	-14.231627
1936.419415	-14.205783
1937.670996	-14.179576
1938.924195	-14.153240
1940.179017	-14.126852
1941.435463	-14.100435
1942.693538	-14.073654
1943.953245	-14.046260
1945.214586	-14.018825
1946.477566	-13.991752
1947.742186	-13.964487
1949.008451	-13.936777
1950.276363	-13.909423
1951.545926	-13.882670
1952.817143	-13.855950
1954.090017	-13.829323
1955.364551	-13.802919
1956.640749	-13.776515
1957.918615	-13.750193
1959.198150	-13.724418
1960.479359	-13.698877
1961.762244	-13.672795
1963.046810	-13.646119
1964.333059	-13.619182
1965.620995	-13.591877
1966.910621	-13.564301
1968.201940	-13.536605
1969.494956	-13.508550
1970.789672	-13.480029
1972.086091	-13.451515
1973.384217	-13.423048
1974.684053	-13.393887
1975.985602	-13.363756
1977.288869	-13.332803
1978.593855	-13.301138
1979.900566	-13.269249
1981.209003	-13.237901
1982.519171	-13.207071
1983.831073	-13.175967
1985.144712	-13.144652
1986.460093	-13.113434
1987.777217	-13.081963
1989.096089	-13.049866
1990.416713	-13.017845
1991.739092	-12.986616
1993.063228	-12.955908
1994.389127	-12.925784
1995.716791	-12.896905
1997.046223	-12.869546
1998.377428	-12.843151
1999.710409	-12.817642
2001.045169	-12.792864
2002.381713	-12.767986
2003.720043	-12.742556
2005.060163	-12.717420
2006.402077	-12.693392
2007.745788	-12.670683
2009.091301	-12.649271
2010.438618	-12.629218
2011.787743	-12.610660
2013.138680	-12.593403
2014.491433	-12.577162
2015.846005	-12.561343
2017.202399	-12.544896
2018.560621	-12.527251
2019.920673	-12.508654
2021.282558	-12.489599
2022.646281	-12.470302
2024.011846	-12.451121
2025.379256	-12.432568
2026.748515	-12.414569
2028.119626	-12.396993
2029.492594	-12.379723
2030.867422	-12.362298
2032.244114	-12.343907
2033.622673	-12.324066
2035.003104	-12.302521
2036.385411	-12.279311
2037.769597	-12.254609
2039.155665	-12.228630
2040.543621	-12.201781
2041.933467	-12.175020
2043.325208	-12.149759
2044.718847	-12.127207
2046.114389	-12.107787
2047.511837	-12.091326
2048.911195	-12.077734
2050.312467	-12.066840
2051.715657	-12.058496
2053.120769	-12.053008
2054.527807	-12.050028
2055.936775	-12.048179
2057.347677	-12.046753
2058.760516	-12.046081
2060.175297	-12.046416
2061.592025	-12.047422
2063.010701	-12.048143
2064.431332	-12.047215
2065.853921	-12.044178
2067.278472	-12.039895
2068.704988	-12.034779
2070.133475	-12.027579
2071.563936	-12.017541
2072.996375	-12.005661
2074.430796	-11.993216
2075.867204	-11.980664
2077.305603	-11.967884
2078.745996	-11.955109
2080.188389	-11.942857
2081.632784	-11.932282
2083.079187	-11.924467
2084.527601	-11.918985
2085.978030	-11.914971
2087.430480	-11.912241
2088.884954	-11.910868
2090.341455	-11.911242
2091.799990	-11.913397
2093.260561	-11.916760
2094.723173	-11.920511
2096.187831	-11.924577
2097.654538	-11.929603
2099.123300	-11.935701
2100.594119	-11.942341
2102.067001	-11.949052
2103.541950	-11.956019
2105.018971	-11.963599
2106.498067	-11.971386
2107.979243	-11.977600
2109.462503	-11.981172
2110.947853	-11.982560
2112.435295	-11.982647
2113.924836	-11.981664
2115.416478	-11.980168
2116.910227	-11.979369
2118.406087	-11.980257
2119.904063	-11.983265
2121.404158	-11.988728
2122.906378	-11.996912
2124.410727	-12.007641
2125.917210	-12.020603
2127.425831	-12.035563
2128.936594	-12.052136
2130.449505	-12.069489
2131.964567	-12.087488
2133.481786	-12.106354
2135.001166	-12.126019
2136.522711	-12.145944
2138.046427	-12.165773
2139.572317	-12.185238
2141.100388	-12.204434
2142.630642	-12.223721
2144.163085	-12.242446
2145.697722	-12.259631
2147.234558	-12.274778
2148.773596	-12.288247
2150.314842	-12.301441
2151.858301	-12.315311
2153.403977	-12.329633
2154.951875	-12.344554
2156.502000	-12.361147
2158.054357	-12.380617
2159.608950	-12.402704
2161.165785	-12.426312
2162.724866	-12.451593
2164.286198	-12.479154
2165.849786	-12.508575
2167.415635	-12.538319
2168.983749	-12.568086
2170.554134	-12.599055
2172.126795	-12.631562
2173.701737	-12.664817
2175.278964	-12.698573
2176.858481	-12.732840
2178.440294	-12.767793
2180.024408	-12.803486
2181.610827	-12.839755
2183.199557	-12.876170
2184.790602	-12.912541
2186.383968	-12.948840
2187.979660	-12.984885
2189.577683	-13.020270
2191.178041	-13.054975
2192.780741	-13.089531
2194.385787	-13.124075
2195.993185	-13.157892
2197.602939	-13.191285
2199.215054	-13.219030
