# 2022-03-21_14.07.25
# shape = sech2
# FWHM_ps = 0.1
# carrier_nm = 1542
# frep_MHz = 12126
# pow_mW = 8000
# GDD = 0.0
# propa_len = 0.11333333333333334
# untap_len = 0.01
# taper_len = 0.05333333333333333
# waist_len = 0.02
# uptap_len = 0.02
# untap_scale = 1.0
# waist_scale = 0.23333333333333336
# workingDir = NL_20110305_12 (Spirou)
# axis = slow
# window_ps = 10.0
# steps = 200
# points = 13000
# 
# wavelength [nm]	 power spectral density [dB]
1000.248639	-21.928186
1000.582480	-21.985424
1000.916545	-21.939434
1001.250832	-21.828402
1001.585343	-21.776871
1001.920077	-21.821879
1002.255035	-21.870430
1002.590218	-21.827266
1002.925624	-21.727318
1003.261255	-21.680604
1003.597111	-21.717738
1003.933192	-21.753578
1004.269497	-21.706480
1004.606029	-21.614258
1004.942785	-21.575433
1005.279768	-21.609320
1005.616977	-21.633046
1005.954412	-21.578772
1006.292074	-21.492296
1006.629962	-21.463485
1006.968077	-21.497414
1007.306420	-21.509669
1007.644990	-21.447447
1007.983787	-21.367277
1008.322813	-21.350600
1008.662067	-21.386633
1009.001549	-21.387933
1009.341259	-21.317544
1009.681199	-21.244382
1010.021367	-21.241103
1010.361765	-21.279294
1010.702392	-21.269402
1011.043250	-21.191711
1011.384337	-21.127032
1011.725654	-21.137289
1012.067202	-21.176150
1012.408980	-21.154772
1012.750989	-21.072811
1013.093230	-21.020216
1013.435702	-21.044205
1013.778405	-21.080735
1014.121341	-21.046304
1014.464508	-20.963396
1014.807908	-20.926725
1015.151540	-20.963392
1015.495405	-20.992618
1015.839503	-20.943442
1016.183835	-20.863070
1016.528400	-20.845039
1016.873198	-20.891619
1017.218231	-20.908805
1017.563498	-20.845370
1017.908999	-20.772764
1018.254735	-20.775309
1018.600707	-20.826714
1018.946913	-20.826782
1019.293354	-20.752185
1019.640032	-20.693403
1019.986945	-20.715918
1020.334094	-20.763742
1020.681480	-20.741644
1021.029102	-20.660647
1021.376961	-20.621435
1021.725058	-20.660021
1022.073391	-20.694668
1022.421962	-20.648598
1022.770772	-20.569500
1023.119819	-20.554109
1023.469104	-20.601233
1023.818628	-20.613665
1024.168391	-20.547204
1024.518393	-20.480185
1024.868634	-20.488702
1025.219115	-20.532421
1025.569836	-20.515512
1025.920796	-20.437253
1026.271997	-20.391754
1026.623438	-20.418962
1026.975121	-20.445446
1027.327044	-20.398251
1027.679208	-20.321588
1028.031614	-20.303825
1028.384262	-20.338842
1028.737152	-20.337129
1029.090284	-20.267458
1029.443659	-20.207295
1029.797276	-20.216128
1030.151137	-20.243099
1030.505240	-20.208057
1030.859587	-20.131051
1031.214178	-20.098555
1031.569013	-20.123806
1031.924093	-20.127126
1032.279417	-20.064325
1032.634985	-19.998921
1032.990799	-19.997271
1033.346858	-20.022296
1033.703162	-19.993981
1034.059712	-19.919795
1034.416509	-19.881712
1034.773551	-19.901861
1035.130841	-19.908220
1035.488377	-19.852163
1035.846160	-19.788376
1036.204190	-19.782669
1036.562468	-19.805717
1036.920994	-19.782221
1037.279768	-19.715605
1037.638790	-19.680651
1037.998061	-19.698543
1038.357581	-19.704102
1038.717350	-19.654496
1039.077368	-19.600627
1039.437636	-19.599333
1039.798154	-19.619927
1040.158922	-19.596482
1040.519940	-19.539207
1040.881209	-19.515305
1041.242729	-19.535138
1041.604501	-19.536583
1041.966524	-19.490575
1042.328798	-19.449940
1042.691325	-19.457157
1043.054103	-19.473814
1043.417135	-19.447272
1043.780419	-19.400901
1044.143956	-19.391391
1044.507746	-19.411326
1044.871791	-19.403596
1045.236088	-19.361180
1045.600641	-19.337563
1045.965447	-19.352358
1046.330508	-19.358130
1046.695824	-19.324477
1047.061395	-19.291273
1047.427222	-19.296449
1047.793304	-19.309790
1048.159642	-19.286722
1048.526237	-19.248010
1048.893088	-19.241606
1049.260196	-19.256997
1049.627561	-19.244338
1049.995183	-19.204022
1050.363063	-19.185659
1050.731201	-19.198495
1051.099597	-19.194788
1051.468251	-19.155918
1051.837164	-19.126464
1052.206336	-19.132969
1052.575767	-19.136136
1052.945458	-19.101618
1053.315409	-19.062951
1053.685619	-19.060254
1054.056090	-19.067350
1054.426821	-19.038951
1054.797814	-18.994078
1055.169067	-18.980725
1055.540582	-18.988134
1055.912359	-18.966109
1056.284398	-18.917870
1056.656698	-18.894641
1057.029262	-18.900608
1057.402088	-18.884657
1057.775177	-18.835214
1058.148530	-18.802865
1058.522146	-18.806598
1058.896027	-18.797434
1059.270171	-18.748410
1059.644580	-18.706684
1060.019254	-18.706495
1060.394193	-18.705146
1060.769397	-18.660638
1061.144867	-18.611246
1061.520602	-18.604811
1061.896604	-18.610242
1062.272872	-18.574027
1062.649407	-18.520562
1063.026210	-18.506081
1063.403279	-18.514445
1063.780616	-18.487186
1064.158221	-18.433532
1064.536094	-18.412566
1064.914235	-18.421609
1065.292645	-18.401770
1065.671325	-18.350357
1066.050273	-18.325658
1066.429491	-18.334910
1066.808979	-18.320301
1067.188738	-18.270425
1067.568766	-18.242983
1067.949066	-18.253098
1068.329636	-18.243532
1068.710478	-18.194970
1069.091592	-18.164897
1069.472977	-18.176492
1069.854635	-18.172906
1070.236565	-18.126177
1070.618768	-18.092908
1071.001243	-18.104664
1071.383993	-18.106443
1071.767016	-18.062389
1072.150313	-18.026258
1072.533884	-18.036864
1072.917730	-18.042617
1073.301850	-18.001599
1073.686246	-17.963856
1074.070917	-17.972344
1074.455864	-17.979539
1074.841087	-17.940575
1075.226586	-17.901829
1075.612362	-17.908124
1075.998415	-17.914660
1076.384745	-17.876113
1076.771353	-17.836835
1077.158238	-17.841509
1077.545401	-17.846458
1077.932843	-17.807370
1078.320564	-17.768015
1078.708564	-17.771562
1079.096842	-17.774376
1079.485401	-17.734205
1079.874240	-17.695315
1080.263358	-17.698301
1080.652757	-17.698632
1081.042438	-17.657308
1081.432399	-17.620021
1081.822641	-17.623699
1082.213166	-17.621943
1082.603972	-17.579696
1082.995061	-17.544687
1083.386433	-17.549258
1083.778087	-17.544855
1084.170025	-17.501616
1084.562246	-17.469284
1084.954751	-17.474559
1085.347541	-17.467443
1085.740615	-17.424224
1086.133973	-17.395372
1086.527617	-17.400742
1086.921546	-17.390126
1087.315761	-17.347300
1087.710262	-17.322234
1088.105050	-17.326678
1088.500124	-17.312241
1088.895485	-17.271625
1089.291134	-17.251631
1089.687070	-17.254879
1090.083294	-17.237238
1090.479806	-17.200620
1090.876607	-17.185887
1091.273696	-17.186759
1091.671075	-17.166324
1092.068744	-17.135359
1092.466702	-17.126249
1092.864950	-17.124585
1093.263489	-17.102991
1093.662319	-17.079248
1094.061440	-17.074853
1094.460852	-17.069462
1094.860555	-17.047466
1095.260551	-17.030839
1095.660840	-17.028725
1096.061421	-17.018750
1096.462295	-16.998114
1096.863462	-16.988378
1097.264923	-16.985492
1097.666678	-16.969871
1098.068727	-16.951478
1098.471071	-16.946224
1098.873710	-16.938490
1099.276644	-16.917009
1099.679874	-16.902047
1100.083400	-16.898752
1100.487222	-16.883383
1100.891340	-16.857601
1101.295756	-16.846866
1101.700468	-16.841920
1102.105478	-16.817264
1102.510787	-16.789858
1102.916393	-16.783259
1103.322298	-16.773472
1103.728502	-16.740816
1104.135005	-16.715702
1104.541807	-16.712090
1104.948909	-16.695206
1105.356312	-16.658337
1105.764015	-16.638549
1106.172019	-16.634506
1106.580324	-16.609919
1106.988931	-16.574286
1107.397840	-16.560431
1107.807051	-16.552057
1108.216564	-16.522622
1108.626380	-16.493147
1109.036500	-16.481745
1109.446923	-16.465928
1109.857649	-16.436650
1110.268680	-16.414008
1110.680016	-16.398816
1111.091657	-16.377158
1111.503602	-16.353832
1111.915854	-16.333634
1112.328411	-16.310225
1112.741275	-16.288784
1113.154445	-16.271814
1113.567922	-16.245527
1113.981706	-16.216041
1114.395798	-16.201784
1114.810198	-16.184861
1115.224906	-16.148103
1115.639923	-16.121656
1116.055249	-16.114632
1116.470884	-16.087528
1116.886829	-16.044835
1117.303084	-16.029752
1117.719650	-16.021764
1118.136526	-15.981636
1118.553713	-15.945713
1118.971212	-15.941843
1119.389022	-15.922915
1119.807145	-15.877466
1120.225580	-15.856805
1120.644328	-15.854540
1121.063389	-15.823295
1121.482763	-15.785315
1121.902452	-15.778135
1122.322454	-15.769014
1122.742771	-15.733013
1123.163404	-15.707805
1123.584351	-15.705580
1124.005614	-15.688740
1124.427193	-15.655696
1124.849089	-15.641671
1125.271301	-15.639998
1125.693830	-15.618351
1126.116677	-15.590323
1126.539842	-15.585064
1126.963324	-15.581283
1127.387126	-15.554049
1127.811246	-15.533799
1128.235685	-15.536902
1128.660444	-15.524144
1129.085522	-15.493204
1129.510922	-15.487068
1129.936641	-15.488599
1130.362682	-15.460087
1130.789044	-15.438513
1131.215728	-15.444204
1131.642734	-15.427522
1132.070063	-15.394617
1132.497714	-15.393309
1132.925689	-15.389418
1133.353987	-15.353801
1133.782610	-15.339503
1134.211556	-15.344089
1134.640827	-15.314370
1135.070424	-15.286207
1135.500345	-15.291873
1135.930593	-15.274071
1136.361166	-15.235867
1136.792067	-15.234422
1137.223294	-15.230689
1137.654848	-15.190796
1138.086730	-15.176346
1138.518940	-15.183159
1138.951479	-15.151208
1139.384346	-15.122654
1139.817543	-15.132145
1140.251069	-15.115310
1140.684925	-15.077400
1141.119111	-15.080953
1141.553628	-15.081476
1141.988475	-15.042807
1142.423655	-15.033542
1142.859166	-15.047655
1143.295009	-15.018309
1143.731185	-14.994040
1144.167694	-15.013126
1144.604536	-15.001318
1145.041711	-14.966087
1145.479221	-14.979021
1145.917065	-14.986823
1146.355245	-14.949762
1146.793759	-14.948004
1147.232609	-14.970473
1147.671795	-14.942412
1148.111317	-14.923347
1148.551177	-14.950028
1148.991373	-14.938237
1149.431907	-14.905704
1149.872779	-14.925362
1150.313989	-14.931663
1150.755538	-14.894040
1151.197426	-14.898052
1151.639653	-14.918078
1152.082220	-14.884841
1152.525128	-14.869621
1152.968376	-14.895105
1153.411966	-14.874283
1153.855897	-14.841546
1154.300169	-14.862450
1154.744784	-14.858135
1155.189742	-14.814218
1155.635042	-14.821638
1156.080687	-14.833043
1156.526674	-14.786957
1156.973007	-14.775562
1157.419683	-14.797251
1157.866705	-14.757909
1158.314072	-14.727450
1158.761786	-14.751383
1159.209845	-14.724715
1159.658251	-14.679576
1160.107004	-14.697818
1160.556104	-14.685504
1161.005553	-14.633198
1161.455349	-14.640421
1161.905494	-14.639673
1162.355989	-14.587951
1162.806832	-14.582510
1163.258026	-14.587803
1163.709570	-14.543167
1164.161464	-14.527137
1164.613710	-14.531507
1165.066307	-14.497254
1165.519256	-14.475732
1165.972558	-14.473056
1166.426212	-14.449233
1166.880219	-14.428905
1167.334580	-14.415024
1167.789295	-14.398289
1168.244364	-14.385560
1168.699788	-14.359528
1169.155567	-14.345055
1169.611702	-14.344622
1170.068193	-14.307991
1170.525041	-14.290510
1170.982245	-14.304375
1171.439807	-14.260572
1171.897726	-14.236247
1172.356004	-14.264035
1172.814640	-14.216974
1173.273635	-14.183554
1173.732989	-14.222520
1174.192703	-14.175696
1174.652778	-14.133500
1175.113213	-14.180067
1175.574009	-14.135736
1176.035167	-14.086533
1176.496687	-14.136583
1176.958569	-14.095767
1177.420814	-14.042915
1177.883422	-14.092933
1178.346394	-14.055336
1178.809730	-14.002337
1179.273430	-14.049364
1179.737496	-14.013876
1180.201927	-13.964258
1180.666723	-14.006362
1181.131886	-13.971577
1181.597416	-13.927869
1182.063312	-13.963679
1182.529576	-13.928497
1182.996209	-13.892441
1183.463209	-13.921274
1183.930579	-13.885283
1184.398317	-13.857519
1184.866426	-13.878916
1185.334904	-13.842310
1185.803754	-13.822756
1186.272974	-13.836507
1186.742566	-13.799976
1187.212529	-13.787894
1187.682865	-13.794009
1188.153574	-13.758607
1188.624656	-13.752777
1189.096112	-13.751437
1189.567942	-13.718209
1190.040147	-13.717295
1190.512726	-13.709170
1190.985681	-13.679169
1191.459012	-13.681564
1191.932720	-13.667604
1192.406804	-13.641641
1192.881265	-13.645843
1193.356104	-13.627057
1193.831322	-13.605477
1194.306918	-13.610036
1194.782893	-13.587649
1195.259248	-13.570595
1195.735982	-13.574280
1196.213097	-13.549364
1196.690593	-13.536521
1197.168471	-13.538431
1197.646730	-13.512256
1198.125371	-13.503187
1198.604395	-13.502649
1199.083803	-13.476168
1199.563594	-13.470193
1200.043769	-13.466785
1200.524329	-13.440878
1201.005273	-13.437160
1201.486604	-13.430513
1201.968320	-13.405697
1202.450422	-13.403424
1202.932912	-13.393718
1203.415789	-13.370490
1203.899054	-13.368754
1204.382707	-13.356060
1204.866748	-13.334827
1205.351179	-13.333037
1205.836000	-13.317880
1206.321211	-13.298825
1206.806812	-13.296057
1207.292805	-13.278977
1207.779189	-13.262119
1208.265965	-13.257852
1208.753134	-13.239677
1209.240696	-13.224700
1209.728651	-13.218556
1210.217000	-13.200244
1210.705744	-13.186814
1211.194883	-13.179001
1211.684417	-13.161302
1212.174347	-13.148814
1212.664673	-13.139820
1213.155396	-13.123212
1213.646516	-13.111043
1214.138034	-13.101652
1214.629951	-13.085967
1215.122266	-13.073731
1215.614980	-13.064864
1216.108095	-13.049696
1216.601609	-13.037688
1217.095524	-13.029909
1217.589841	-13.014482
1218.084559	-13.003541
1218.579679	-12.996949
1219.075202	-12.980554
1219.571128	-12.971787
1220.067458	-12.965355
1220.564191	-12.947914
1221.061330	-12.942341
1221.558874	-12.934472
1222.056823	-12.916863
1222.555178	-12.914846
1223.053940	-12.903899
1223.553109	-12.888173
1224.052686	-12.888817
1224.552671	-12.873804
1225.053065	-12.862240
1225.553867	-12.863198
1226.055079	-12.844628
1226.556702	-12.838963
1227.058735	-12.837084
1227.561179	-12.817277
1228.064035	-12.817695
1228.567303	-12.810311
1229.070983	-12.793123
1229.575077	-12.797590
1230.079585	-12.783850
1230.584506	-12.773106
1231.089842	-12.777608
1231.595594	-12.759264
1232.101761	-12.756978
1232.608345	-12.756839
1233.115345	-12.738258
1233.622762	-12.743334
1234.130597	-12.735684
1234.638851	-12.722291
1235.147523	-12.730465
1235.656615	-12.715771
1236.166126	-12.711593
1236.676058	-12.716924
1237.186411	-12.699394
1237.697185	-12.704590
1238.208381	-12.702085
1238.719999	-12.688046
1239.232040	-12.698401
1239.744505	-12.687068
1240.257394	-12.682012
1240.770708	-12.690513
1241.284446	-12.674442
1241.798610	-12.679634
1242.313201	-12.680014
1242.828218	-12.666309
1243.343662	-12.677459
1243.859534	-12.667864
1244.375834	-12.662741
1244.892563	-12.671838
1245.409721	-12.656347
1245.927309	-12.661460
1246.445327	-12.661557
1246.963777	-12.648148
1247.482657	-12.658640
1248.001970	-12.648104
1248.521716	-12.643589
1249.041894	-12.650718
1249.562506	-12.634674
1250.083553	-12.639713
1250.605034	-12.636463
1251.126950	-12.623699
1251.649302	-12.632062
1252.172091	-12.618491
1252.695316	-12.615269
1253.218979	-12.617804
1253.743079	-12.601056
1254.267619	-12.605981
1254.792597	-12.597201
1255.318015	-12.586311
1255.843874	-12.590870
1256.370173	-12.573734
1256.896913	-12.572474
1257.424095	-12.567944
1257.951720	-12.551720
1258.479787	-12.555130
1259.008298	-12.539752
1259.537254	-12.532131
1260.066654	-12.530183
1260.596499	-12.510894
1261.126790	-12.510782
1261.657527	-12.497477
1262.188711	-12.483966
1262.720342	-12.482458
1263.252422	-12.461702
1263.784950	-12.457106
1264.317928	-12.445619
1264.851355	-12.427499
1265.385232	-12.424825
1265.919560	-12.403608
1266.454340	-12.394122
1266.989572	-12.383315
1267.525256	-12.361643
1268.061394	-12.356609
1268.597985	-12.335311
1269.135031	-12.321640
1269.672531	-12.310934
1270.210487	-12.287129
1270.748899	-12.279521
1271.287768	-12.258327
1271.827094	-12.241402
1272.366877	-12.229981
1272.907119	-12.204916
1273.447820	-12.195008
1273.988981	-12.173998
1274.530601	-12.155217
1275.072683	-12.143205
1275.615226	-12.117929
1276.158230	-12.106519
1276.701697	-12.085648
1277.245627	-12.065992
1277.790021	-12.053288
1278.334879	-12.028218
1278.880202	-12.016075
1279.425991	-11.995432
1279.972245	-11.975969
1280.518966	-11.962963
1281.066155	-11.938608
1281.613811	-11.926277
1282.161936	-11.905725
1282.710529	-11.886875
1283.259593	-11.873533
1283.809126	-11.850054
1284.359131	-11.837980
1284.909607	-11.817718
1285.460555	-11.800143
1286.011976	-11.786551
1286.563870	-11.764305
1287.116237	-11.752614
1287.669080	-11.732574
1288.222397	-11.716486
1288.776191	-11.702606
1289.330460	-11.682049
1289.885207	-11.671047
1290.440431	-11.651608
1290.996133	-11.637557
1291.552314	-11.623469
1292.108975	-11.605007
1292.666115	-11.594594
1293.223737	-11.575986
1293.781839	-11.564167
1294.340424	-11.550062
1294.899491	-11.534293
1295.459041	-11.524647
1296.019075	-11.507524
1296.579593	-11.497968
1297.140597	-11.484000
1297.702086	-11.471195
1298.264061	-11.461840
1298.826524	-11.446796
1299.389474	-11.439262
1299.952912	-11.425867
1300.516839	-11.416345
1301.081255	-11.407124
1301.646162	-11.394739
1302.211559	-11.388456
1302.777448	-11.376014
1303.343829	-11.369304
1303.910702	-11.359986
1304.478069	-11.350837
1305.045930	-11.345158
1305.614285	-11.334577
1306.183136	-11.330061
1306.752483	-11.320890
1307.322326	-11.314887
1307.892666	-11.308995
1308.463504	-11.301070
1309.034841	-11.297764
1309.606677	-11.289706
1310.179012	-11.286547
1310.751849	-11.280569
1311.325186	-11.275768
1311.899025	-11.272613
1312.473366	-11.266553
1313.048211	-11.265107
1313.623559	-11.259712
1314.199412	-11.257948
1314.775770	-11.254779
1315.352634	-11.251605
1315.930004	-11.250747
1316.507881	-11.246772
1317.086266	-11.246974
1317.665159	-11.243930
1318.244562	-11.243685
1318.824474	-11.242773
1319.404897	-11.241350
1319.985831	-11.242299
1320.567276	-11.240310
1321.149234	-11.241960
1321.731706	-11.240827
1322.314691	-11.242047
1322.898190	-11.242716
1323.482205	-11.242980
1324.066736	-11.245291
1324.651783	-11.245052
1325.237347	-11.247946
1325.823430	-11.248329
1326.410031	-11.250835
1326.997151	-11.252724
1327.584791	-11.254502
1328.172952	-11.257844
1328.761634	-11.259116
1329.350839	-11.263095
1329.940566	-11.264664
1330.530817	-11.268467
1331.121592	-11.271176
1331.712891	-11.274322
1332.304716	-11.278413
1332.897068	-11.280958
1333.489946	-11.285885
1334.083352	-11.288374
1334.677287	-11.293320
1335.271750	-11.296495
1335.866744	-11.300977
1336.462268	-11.305329
1337.058323	-11.309192
1337.654910	-11.314512
1338.252029	-11.317921
1338.849682	-11.323679
1339.447869	-11.327197
1340.046591	-11.332863
1340.645848	-11.337137
1341.245641	-11.342342
1341.845972	-11.347607
1342.446840	-11.352185
1343.048246	-11.358185
1343.650191	-11.362323
1344.252677	-11.368750
1344.855702	-11.373092
1345.459269	-11.379507
1346.063379	-11.384480
1346.668030	-11.390443
1347.273226	-11.396157
1347.878965	-11.401448
1348.485250	-11.407940
1349.092080	-11.412891
1349.699456	-11.420007
1350.307380	-11.425022
1350.915851	-11.432244
1351.524871	-11.437511
1352.134441	-11.444349
1352.744560	-11.450263
1353.355231	-11.456724
1353.966453	-11.463541
1354.578227	-11.469614
1355.190555	-11.477065
1355.803436	-11.482753
1356.416872	-11.490541
1357.030863	-11.496234
1357.645411	-11.504218
1358.260515	-11.510418
1358.876177	-11.518336
1359.492397	-11.525105
1360.109176	-11.532628
1360.726516	-11.540043
1361.344416	-11.547303
1361.962877	-11.555580
1362.581901	-11.562835
1363.201487	-11.571798
1363.821637	-11.579092
1364.442352	-11.588410
1365.063632	-11.596006
1365.685478	-11.605625
1366.307891	-11.613910
1366.930871	-11.623770
1367.554420	-11.632785
1368.178538	-11.642570
1368.803226	-11.652341
1369.428485	-11.662115
1370.054315	-11.672778
1370.680717	-11.682725
1371.307693	-11.694181
1371.935242	-11.704264
1372.563366	-11.716250
1373.192065	-11.726578
1373.821341	-11.739018
1374.451193	-11.749881
1375.081623	-11.762769
1375.712632	-11.774243
1376.344221	-11.787284
1376.976389	-11.799407
1377.609139	-11.812676
1378.242470	-11.825631
1378.876384	-11.839170
1379.510881	-11.853005
1380.145963	-11.866763
1380.781629	-11.881345
1381.417881	-11.895279
1382.054720	-11.910665
1382.692147	-11.925040
1383.330161	-11.941243
1383.968765	-11.956118
1384.607959	-11.972997
1385.247743	-11.988432
1385.888119	-12.006011
1386.529087	-12.022249
1387.170648	-12.040608
1387.812804	-12.057763
1388.455554	-12.076774
1389.098899	-12.094705
1389.742842	-12.114259
1390.387381	-12.133153
1391.032519	-12.153404
1391.678256	-12.173327
1392.324592	-12.194171
1392.971529	-12.215039
1393.619068	-12.236478
1394.267208	-12.258438
1394.915952	-12.280731
1395.565300	-12.303928
1396.215253	-12.326991
1396.865812	-12.351140
1397.516977	-12.374897
1398.168749	-12.400114
1398.821130	-12.424671
1399.474120	-12.450903
1400.127719	-12.476117
1400.781930	-12.503176
1401.436752	-12.529010
1402.092186	-12.557025
1402.748234	-12.583783
1403.404897	-12.612872
1404.062174	-12.640447
1404.720067	-12.670439
1405.378577	-12.698845
1406.037705	-12.729881
1406.697451	-12.759211
1407.357817	-12.791131
1408.018803	-12.821123
1408.680410	-12.853613
1409.342639	-12.884144
1410.005492	-12.917301
1410.668968	-12.948544
1411.333068	-12.982336
1411.997795	-13.014191
1412.663147	-13.048578
1413.329127	-13.081283
1413.995736	-13.116532
1414.662973	-13.150224
1415.330840	-13.186336
1415.999339	-13.220751
1416.668469	-13.257365
1417.338232	-13.292429
1418.008628	-13.329512
1418.679659	-13.365004
1419.351325	-13.402160
1420.023628	-13.437724
1420.696568	-13.474846
1421.370145	-13.510694
1422.044362	-13.548107
1422.719219	-13.584519
1423.394717	-13.622315
1424.070856	-13.659489
1424.747638	-13.698083
1425.425064	-13.736380
1426.103134	-13.775900
1426.781850	-13.815130
1427.461212	-13.855133
1428.141221	-13.894784
1428.821878	-13.934817
1429.503185	-13.974548
1430.185141	-14.014009
1430.867749	-14.053057
1431.551008	-14.091513
1432.234920	-14.129906
1432.919486	-14.167717
1433.604707	-14.205964
1434.290583	-14.243665
1434.977116	-14.282439
1435.664307	-14.320985
1436.352156	-14.361557
1437.040664	-14.401972
1437.729833	-14.444718
1438.419663	-14.487006
1439.110156	-14.531760
1439.801312	-14.575441
1440.493132	-14.621281
1441.185617	-14.664962
1441.878768	-14.709898
1442.572586	-14.751799
1443.267072	-14.794321
1443.962228	-14.833483
1444.658053	-14.872563
1445.354549	-14.908590
1446.051717	-14.944443
1446.749558	-14.978590
1447.448073	-15.013111
1448.147263	-15.047776
1448.847128	-15.083192
1449.547671	-15.120907
1450.248891	-15.159836
1450.950789	-15.202850
1451.653368	-15.246845
1452.356627	-15.295588
1453.060568	-15.344417
1453.765192	-15.397479
1454.470500	-15.449337
1455.176492	-15.503551
1455.883170	-15.554600
1456.590534	-15.605248
1457.298586	-15.651252
1458.007327	-15.693981
1458.716758	-15.731379
1459.426880	-15.762958
1460.137693	-15.789559
1460.849199	-15.809537
1461.561398	-15.826484
1462.274293	-15.837352
1462.987883	-15.847744
1463.702170	-15.854212
1464.417155	-15.863258
1465.132838	-15.871896
1465.849222	-15.885104
1466.566306	-15.901102
1467.284093	-15.922734
1468.002582	-15.950087
1468.721775	-15.982417
1469.441674	-16.021116
1470.162278	-16.062458
1470.883590	-16.108851
1471.605609	-16.154524
1472.328338	-16.201347
1473.051777	-16.242782
1473.775928	-16.279929
1474.500790	-16.307829
1475.226367	-16.325728
1475.952657	-16.331349
1476.679663	-16.322595
1477.407386	-16.300731
1478.135826	-16.263385
1478.864985	-16.213965
1479.594863	-16.150301
1480.325463	-16.077206
1481.056784	-15.993915
1481.788828	-15.904352
1482.521597	-15.809186
1483.255090	-15.710802
1483.989309	-15.611678
1484.724256	-15.512459
1485.459931	-15.416275
1486.196336	-15.322686
1486.933471	-15.235431
1487.671337	-15.153491
1488.409937	-15.079976
1489.149270	-15.014319
1489.889337	-14.958305
1490.630141	-14.912395
1491.371682	-14.876204
1492.113961	-14.850949
1492.856979	-14.834507
1493.600738	-14.827789
1494.345238	-14.827046
1495.090481	-14.831731
1495.836467	-14.837442
1496.583198	-14.840841
1497.330675	-14.837351
1498.078899	-14.820902
1498.827872	-14.787720
1499.577593	-14.730556
1500.328065	-14.646772
1501.079289	-14.531310
1501.831265	-14.383668
1502.583995	-14.203872
1503.337480	-13.993546
1504.091721	-13.758107
1504.846719	-13.501422
1505.602475	-13.231974
1506.358991	-12.954948
1507.116268	-12.678106
1507.874306	-12.407983
1508.633108	-12.149806
1509.392673	-11.910133
1510.153004	-11.691765
1510.914101	-11.500355
1511.675965	-11.338282
1512.438599	-11.208862
1513.202002	-11.115181
1513.966176	-11.058852
1514.731122	-11.043974
1515.496842	-11.071754
1516.263336	-11.146027
1517.030607	-11.269636
1517.798654	-11.445985
1518.567479	-11.679786
1519.337083	-11.973940
1520.107468	-12.334166
1520.878634	-12.763667
1521.650584	-13.265491
1522.423317	-13.839397
1523.196836	-14.477255
1523.971141	-15.160366
1524.746233	-15.843828
1525.522115	-16.449181
1526.298786	-16.859178
1527.076249	-16.945183
1527.854504	-16.637669
1528.633553	-15.971858
1529.413397	-15.065162
1530.194037	-14.045580
1530.975474	-13.005991
1531.757709	-12.002602
1532.540745	-11.062675
1533.324581	-10.198079
1534.109220	-9.412529
1534.894662	-8.704446
1535.680909	-8.071531
1536.467961	-7.510260
1537.255821	-7.017376
1538.044489	-6.589823
1538.833967	-6.224429
1539.624256	-5.919019
1540.415357	-5.671147
1541.207271	-5.478748
1542.000000	-5.339878
1542.793545	-5.252627
1543.587907	-5.215326
1544.383087	-5.225830
1545.179088	-5.282274
1545.975909	-5.382559
1546.773552	-5.524357
1547.572019	-5.705152
1548.371311	-5.922034
1549.171428	-6.172230
1549.972373	-6.452102
1550.774147	-6.757896
1551.576751	-7.085784
1552.380185	-7.431107
1553.184453	-7.789485
1553.989554	-8.155933
1554.795490	-8.525854
1555.602263	-8.895120
1556.409873	-9.259200
1557.218322	-9.615669
1558.027612	-9.962275
1558.837743	-10.297937
1559.648717	-10.623556
1560.460536	-10.940096
1561.273200	-11.250695
1562.086710	-11.558141
1562.901069	-11.865879
1563.716278	-12.178167
1564.532337	-12.497500
1565.349249	-12.827098
1566.167014	-13.169195
1566.985634	-13.524510
1567.805111	-13.893895
1568.625444	-14.276057
1569.446637	-14.669048
1570.268690	-15.070073
1571.091605	-15.473276
1571.915382	-15.872911
1572.740024	-16.260396
1573.565532	-16.624710
1574.391907	-16.954141
1575.219150	-17.234348
1576.047262	-17.451524
1576.876246	-17.593180
1577.706103	-17.649419
1578.536833	-17.616901
1579.368439	-17.498483
1580.200922	-17.301392
1581.034282	-17.039443
1581.868522	-16.728078
1582.703643	-16.382136
1583.539646	-16.016454
1584.376532	-15.643129
1585.214304	-15.271922
1586.052962	-14.910235
1586.892508	-14.563424
1587.732943	-14.235317
1588.574269	-13.928517
1589.416487	-13.643950
1590.259599	-13.382843
1591.103605	-13.145295
1591.948508	-12.930759
1592.794309	-12.738967
1593.641009	-12.569173
1594.488609	-12.420071
1595.337112	-12.290582
1596.186518	-12.179290
1597.036829	-12.084479
1597.888047	-12.004339
1598.740172	-11.936872
1599.593207	-11.880217
1600.447153	-11.831978
1601.302010	-11.790025
1602.157782	-11.752473
1603.014469	-11.717146
1603.872072	-11.682189
1604.730593	-11.646438
1605.590034	-11.608383
1606.450397	-11.567211
1607.311681	-11.522615
1608.173890	-11.474366
1609.037024	-11.422629
1609.901085	-11.368188
1610.766075	-11.311643
1611.631995	-11.254079
1612.498846	-11.196632
1613.366630	-11.140400
1614.235349	-11.086607
1615.105004	-11.036242
1615.975596	-10.990125
1616.847128	-10.949124
1617.719600	-10.913637
1618.593014	-10.883880
1619.467372	-10.860231
1620.342675	-10.842477
1621.218924	-10.830412
1622.096122	-10.823978
1622.974270	-10.822781
1623.853369	-10.826247
1624.733420	-10.834412
1625.614427	-10.846624
1626.496389	-10.862461
1627.379308	-10.881712
1628.263187	-10.903946
1629.148026	-10.928374
1630.033828	-10.954998
1630.920593	-10.983089
1631.808324	-11.012049
1632.697022	-11.041669
1633.586688	-11.071509
1634.477324	-11.100916
1635.368932	-11.129980
1636.261514	-11.158493
1637.155070	-11.186198
1638.049602	-11.213563
1638.945113	-11.240750
1639.841603	-11.267991
1640.739075	-11.295853
1641.637529	-11.324875
1642.536968	-11.355161
1643.437393	-11.387441
1644.338806	-11.421917
1645.241209	-11.458704
1646.144602	-11.498106
1647.048988	-11.540102
1647.954368	-11.584548
1648.860744	-11.631449
1649.768118	-11.680625
1650.676491	-11.731631
1651.585865	-11.784423
1652.496241	-11.838543
1653.407621	-11.893615
1654.320008	-11.949503
1655.233401	-12.005868
1656.147804	-12.062503
1657.063218	-12.119194
1657.979645	-12.176041
1658.897085	-12.232668
1659.815542	-12.289387
1660.735016	-12.346128
1661.655509	-12.403028
1662.577023	-12.460404
1663.499560	-12.518352
1664.423121	-12.577233
1665.347709	-12.637110
1666.273324	-12.698230
1667.199969	-12.760516
1668.127645	-12.824101
1669.056353	-12.888890
1669.986097	-12.954860
1670.916877	-13.021987
1671.848695	-13.089995
1672.781553	-13.158931
1673.715452	-13.228432
1674.650395	-13.298444
1675.586383	-13.368790
1676.523418	-13.439410
1677.461501	-13.510268
1678.400635	-13.581338
1679.340821	-13.652727
1680.282061	-13.724434
1681.224357	-13.796480
1682.167710	-13.868956
1683.112122	-13.941869
1684.057595	-14.015076
1685.004132	-14.088797
1685.951732	-14.162802
1686.900400	-14.237136
1687.850135	-14.311751
1688.800940	-14.386418
1689.752818	-14.461283
1690.705768	-14.536044
1691.659795	-14.610655
1692.614898	-14.685165
1693.571081	-14.759151
1694.528345	-14.832791
1695.486691	-14.905844
1696.446122	-14.978210
1697.406640	-15.050002
1698.368245	-15.121019
1699.330941	-15.191350
1700.294729	-15.260990
1701.259611	-15.329814
1702.225588	-15.397885
1703.192664	-15.465093
1704.160838	-15.531218
1705.130114	-15.596321
1706.100493	-15.660138
1707.071977	-15.722550
1708.044568	-15.783585
1709.018268	-15.842990
1709.993079	-15.900739
1710.969003	-15.956861
1711.946041	-16.010996
1712.924196	-16.063360
1713.903469	-16.113766
1714.883862	-16.162037
1715.865378	-16.208468
1716.848017	-16.252828
1717.831783	-16.294959
1718.816677	-16.335295
1719.802701	-16.373176
1720.789857	-16.408811
1721.778147	-16.442288
1722.767573	-16.472920
1723.758136	-16.501270
1724.749840	-16.527139
1725.742685	-16.550309
1726.736673	-16.571449
1727.731808	-16.590332
1728.728090	-16.606944
1729.725521	-16.621780
1730.724105	-16.634513
1731.723842	-16.645103
1732.724735	-16.653712
1733.726785	-16.660203
1734.729995	-16.664250
1735.734366	-16.666277
1736.739902	-16.666131
1737.746603	-16.663410
1738.754472	-16.658840
1739.763510	-16.652090
1740.773721	-16.642907
1741.785105	-16.631992
1742.797665	-16.618883
1743.811403	-16.603538
1744.826321	-16.586201
1745.842422	-16.566862
1746.859706	-16.545162
1747.878177	-16.521369
1748.897835	-16.495680
1749.918685	-16.467651
1750.940726	-16.437524
1751.963963	-16.405546
1752.988395	-16.371468
1754.014027	-16.335278
1755.040860	-16.297431
1756.068895	-16.257949
1757.098135	-16.216659
1758.128583	-16.173984
1759.160240	-16.130265
1760.193109	-16.085158
1761.227191	-16.038707
1762.262488	-15.991673
1763.299004	-15.943817
1764.336740	-15.894905
1765.375697	-15.845744
1766.415880	-15.796470
1767.457288	-15.746548
1768.499926	-15.696125
1769.543794	-15.646042
1770.588895	-15.595651
1771.635231	-15.544637
1772.682805	-15.493931
1773.731619	-15.443623
1774.781674	-15.392963
1775.832973	-15.342102
1776.885519	-15.292033
1777.939312	-15.242050
1778.994357	-15.191583
1780.050654	-15.141353
1781.108207	-15.091621
1782.167017	-15.041645
1783.227087	-14.991148
1784.288418	-14.941094
1785.351013	-14.891440
1786.414875	-14.841388
1787.480006	-14.791193
1788.546407	-14.741513
1789.614082	-14.692222
1790.683032	-14.642643
1791.753259	-14.593153
1792.824767	-14.544201
1793.897557	-14.495654
1794.971632	-14.447127
1796.046994	-14.398742
1797.123645	-14.350960
1798.201588	-14.303807
1799.280824	-14.257155
1800.361357	-14.210721
1801.443188	-14.164999
1802.526320	-14.120261
1803.610756	-14.076395
1804.696497	-14.032921
1805.783546	-13.990008
1806.871906	-13.948296
1807.961578	-13.907716
1809.052565	-13.867649
1810.144870	-13.827752
1811.238494	-13.788862
1812.333441	-13.751283
1813.429713	-13.714438
1814.527311	-13.677465
1815.626239	-13.640938
1816.726499	-13.605427
1817.828094	-13.570726
1818.931025	-13.535727
1820.035295	-13.500405
1821.140906	-13.465474
1822.247862	-13.431364
1823.356165	-13.397558
1824.465816	-13.363462
1825.576819	-13.329215
1826.689175	-13.295409
1827.802888	-13.262338
1828.917960	-13.229446
1830.034394	-13.196382
1831.152191	-13.163206
1832.271354	-13.130402
1833.391887	-13.098291
1834.513790	-13.066829
1835.637068	-13.035656
1836.761722	-13.004371
1837.887755	-12.972971
1839.015169	-12.941987
1840.143968	-12.911901
1841.274153	-12.882388
1842.405727	-12.852846
1843.538693	-12.823205
1844.673053	-12.794090
1845.808810	-12.765995
1846.945966	-12.738783
1848.084525	-12.711758
1849.224488	-12.684584
1850.365858	-12.657482
1851.508638	-12.631104
1852.652831	-12.605829
1853.798438	-12.581566
1854.945463	-12.557711
1856.093909	-12.533937
1857.243777	-12.510268
1858.395071	-12.486958
1859.547794	-12.464232
1860.701947	-12.442263
1861.857533	-12.421128
1863.014556	-12.400760
1864.173018	-12.380780
1865.332922	-12.360835
1866.494270	-12.341119
1867.657065	-12.322206
1868.821309	-12.304485
1869.987006	-12.287629
1871.154158	-12.270872
1872.322768	-12.253744
1873.492839	-12.236420
1874.664373	-12.219383
1875.837373	-12.202967
1877.011841	-12.187111
1878.187782	-12.171594
1879.365197	-12.156155
1880.544089	-12.140601
1881.724460	-12.124810
1882.906315	-12.108757
1884.089655	-12.092504
1885.274483	-12.076244
1886.460803	-12.060095
1887.648616	-12.044252
1888.837927	-12.028837
1890.028736	-12.013847
1891.221049	-11.999161
1892.414866	-11.984553
1893.610192	-11.969834
1894.807028	-11.955070
1896.005379	-11.940454
1897.205246	-11.926329
1898.406633	-11.912793
1899.609542	-11.899710
1900.813977	-11.886868
1902.019940	-11.874145
1903.227434	-11.861518
1904.436462	-11.848935
1905.647028	-11.836322
1906.859133	-11.823641
1908.072781	-11.810984
1909.287976	-11.798538
1910.504719	-11.786535
1911.723013	-11.775046
1912.942863	-11.763972
1914.164270	-11.753160
1915.387238	-11.742494
1916.611770	-11.732059
1917.837868	-11.722081
1919.065536	-11.712808
1920.294777	-11.704365
1921.525594	-11.696644
1922.757989	-11.689477
1923.991967	-11.682703
1925.227529	-11.676228
1926.464679	-11.669954
1927.703420	-11.663948
1928.943755	-11.658196
1930.185688	-11.652754
1931.429221	-11.647485
1932.674356	-11.642346
1933.921099	-11.637242
1935.169451	-11.632086
1936.419415	-11.626930
1937.670996	-11.621717
1938.924195	-11.616442
1940.179017	-11.611041
1941.435463	-11.605442
1942.693538	-11.599638
1943.953245	-11.593831
1945.214586	-11.588261
1946.477566	-11.583064
1947.742186	-11.578139
1949.008451	-11.573316
1950.276363	-11.568417
1951.545926	-11.563377
1952.817143	-11.558275
1954.090017	-11.553230
1955.364551	-11.548320
1956.640749	-11.543608
1957.918615	-11.539199
1959.198150	-11.535193
1960.479359	-11.531778
1961.762244	-11.529062
1963.046810	-11.527030
1964.333059	-11.525601
1965.620995	-11.524665
1966.910621	-11.524107
1968.201940	-11.523787
1969.494956	-11.523721
1970.789672	-11.523938
1972.086091	-11.524467
1973.384217	-11.525410
1974.684053	-11.526750
1975.985602	-11.528430
1977.288869	-11.530405
1978.593855	-11.532697
1979.900566	-11.535415
1981.209003	-11.538605
1982.519171	-11.542293
1983.831073	-11.546488
1985.144712	-11.551180
1986.460093	-11.556323
1987.777217	-11.561856
1989.096089	-11.567788
1990.416713	-11.574129
1991.739092	-11.580933
1993.063228	-11.588335
1994.389127	-11.596411
1995.716791	-11.605184
1997.046223	-11.614548
1998.377428	-11.624258
1999.710409	-11.634155
2001.045169	-11.644179
2002.381713	-11.654295
2003.720043	-11.664538
2005.060163	-11.675001
2006.402077	-11.685626
2007.745788	-11.696257
2009.091301	-11.706835
2010.438618	-11.717272
2011.787743	-11.727585
2013.138680	-11.737927
2014.491433	-11.748373
2015.846005	-11.758946
2017.202399	-11.769612
2018.560621	-11.780265
2019.920673	-11.790943
2021.282558	-11.801845
2022.646281	-11.813128
2024.011846	-11.824901
2025.379256	-11.837289
2026.748515	-11.850396
2028.119626	-11.864311
2029.492594	-11.879018
2030.867422	-11.894267
2032.244114	-11.909718
2033.622673	-11.925094
2035.003104	-11.940345
2036.385411	-11.955695
2037.769597	-11.971542
2039.155665	-11.988266
2040.543621	-12.005922
2041.933467	-12.024155
2043.325208	-12.042489
2044.718847	-12.060695
2046.114389	-12.078930
2047.511837	-12.097548
2048.911195	-12.116976
2050.312467	-12.137545
2051.715657	-12.159231
2053.120769	-12.181666
2054.527807	-12.204387
2055.936775	-12.227241
2057.347677	-12.250658
2058.760516	-12.275214
2060.175297	-12.301153
2061.592025	-12.328314
2063.010701	-12.356232
2064.431332	-12.384349
2065.853921	-12.412236
2067.278472	-12.439861
2068.704988	-12.467607
2070.133475	-12.495803
2071.563936	-12.524362
2072.996375	-12.552810
2074.430796	-12.580786
2075.867204	-12.608571
2077.305603	-12.636745
2078.745996	-12.665430
2080.188389	-12.694084
2081.632784	-12.722047
2083.079187	-12.749325
2084.527601	-12.776509
2085.978030	-12.804110
2087.430480	-12.832186
2088.884954	-12.860441
2090.341455	-12.888811
2091.799990	-12.917733
2093.260561	-12.947599
2094.723173	-12.978311
2096.187831	-13.009504
2097.654538	-13.041213
2099.123300	-13.074156
2100.594119	-13.108946
2102.067001	-13.145369
2103.541950	-13.182784
2105.018971	-13.221042
2106.498067	-13.260610
2107.979243	-13.301584
2109.462503	-13.343335
2110.947853	-13.385533
2112.435295	-13.428701
2113.924836	-13.473362
2115.416478	-13.519318
2116.910227	-13.566075
2118.406087	-13.613719
2119.904063	-13.662535
2121.404158	-13.712003
2122.906378	-13.761410
2124.410727	-13.811142
2125.917210	-13.862232
2127.425831	-13.914463
2128.936594	-13.966253
2130.449505	-14.016916
2131.964567	-14.067410
2133.481786	-14.118320
2135.001166	-14.169095
2136.522711	-14.219601
2138.046427	-14.270280
2139.572317	-14.320946
2141.100388	-14.371102
2142.630642	-14.421068
2144.163085	-14.471158
2145.697722	-14.520699
2147.234558	-14.569524
2148.773596	-14.618516
2150.314842	-14.667976
2151.858301	-14.717843
2153.403977	-14.769196
2154.951875	-14.822797
2156.502000	-14.877255
2158.054357	-14.931511
2159.608950	-14.986464
2161.165785	-15.042242
2162.724866	-15.097991
2164.286198	-15.154762
2165.849786	-15.214304
2167.415635	-15.276484
2168.983749	-15.340925
2170.554134	-15.408025
2172.126795	-15.477394
2173.701737	-15.548321
2175.278964	-15.620190
2176.858481	-15.691382
2178.440294	-15.760690
2180.024408	-15.828482
2181.610827	-15.895173
2183.199557	-15.961750
2184.790602	-16.030361
2186.383968	-16.102192
2187.979660	-16.177712
2189.577683	-16.257278
2191.178041	-16.340286
2192.780741	-16.426697
2194.385787	-16.516084
2195.993185	-16.605914
2197.602939	-16.695505
2199.215054	-16.779149
