# 2022-03-22_01.24.12
# shape = sech2
# FWHM_ps = 0.1
# carrier_nm = 1542
# frep_MHz = 12126
# pow_mW = 8000
# GDD = 0.0
# propa_len = 0.15311111111111111
# untap_len = 0.01
# taper_len = 0.09311111111111112
# waist_len = 0.02
# uptap_len = 0.02
# untap_scale = 1.0
# waist_scale = 0.11578947368421054
# workingDir = NL_20110305_12 (Spirou)
# axis = slow
# window_ps = 10.0
# steps = 200
# points = 21700
# 
# wavelength [nm]	 power spectral density [dB]
600.043425	-86.829332
600.163550	-85.554252
600.283723	-84.452140
600.403943	-85.139810
600.524212	-89.298032
600.644529	-89.596403
600.764895	-93.796063
600.885308	-95.939758
601.005770	-101.770338
601.126280	-95.450305
601.246839	-90.874877
601.367446	-89.463273
601.488101	-90.858015
601.608804	-90.376499
601.729557	-93.748693
601.850357	-90.724144
601.971206	-92.843733
602.092104	-93.810164
602.213050	-95.199482
602.334045	-101.133796
602.455089	-101.061412
602.576181	-99.825419
602.697322	-97.239698
602.818511	-98.757767
602.939749	-97.726017
603.061036	-96.717658
603.182372	-102.027230
603.303757	-96.615131
603.425191	-99.251631
603.546673	-96.088952
603.668204	-93.394540
603.789785	-94.640988
603.911414	-92.524548
604.033092	-95.644261
604.154820	-90.960533
604.276596	-87.408499
604.398422	-93.319354
604.520297	-89.919447
604.642220	-90.205223
604.764193	-89.863578
604.886216	-87.826568
605.008287	-86.028445
605.130408	-88.122826
605.252578	-87.860848
605.374798	-84.873220
605.497066	-84.906132
605.619385	-85.835693
605.741752	-86.913273
605.864169	-87.084340
605.986636	-88.327935
606.109152	-90.744285
606.231718	-91.546757
606.354333	-91.623175
606.476998	-95.787106
606.599712	-92.667901
606.722476	-92.921176
606.845290	-92.561657
606.968154	-89.001824
607.091067	-91.809565
607.214030	-88.487615
607.337043	-86.355036
607.460106	-89.512409
607.583219	-90.451645
607.706381	-91.699723
607.829594	-93.172584
607.952856	-91.500851
608.076169	-94.397381
608.199531	-101.793857
608.322944	-96.558857
608.446407	-92.790720
608.569920	-103.884536
608.693483	-98.523853
608.817096	-95.137687
608.940759	-95.512969
609.064473	-104.986987
609.188237	-104.838249
609.312051	-95.889997
609.435916	-96.802486
609.559831	-99.975536
609.683796	-95.395189
609.807812	-92.504581
609.931878	-101.367857
610.055995	-98.080221
610.180162	-109.155846
610.304380	-100.759026
610.428648	-102.745516
610.552967	-101.494767
610.677337	-99.065634
610.801757	-99.056544
610.926228	-96.382705
611.050750	-94.152795
611.175323	-102.020399
611.299946	-93.413302
611.424620	-97.110253
611.549345	-96.140569
611.674121	-93.388498
611.798948	-93.893003
611.923826	-92.906959
612.048755	-94.889564
612.173734	-94.883108
612.298765	-91.165578
612.423847	-94.265625
612.548980	-90.949578
612.674165	-90.452200
612.799400	-90.522549
612.924687	-87.196744
613.050025	-86.540142
613.175414	-86.827826
613.300854	-89.607885
613.426346	-88.079607
613.551889	-89.776133
613.677484	-90.079791
613.803130	-96.576372
613.928827	-92.959566
614.054576	-95.019042
614.180377	-90.926609
614.306229	-95.028176
614.432132	-89.120267
614.558087	-87.900649
614.684094	-85.556788
614.810153	-88.629050
614.936263	-88.847421
615.062425	-84.279446
615.188639	-84.027541
615.314904	-85.131509
615.441222	-89.213800
615.567591	-86.682109
615.694012	-90.302700
615.820486	-90.871780
615.947011	-98.183507
616.073588	-90.219105
616.200217	-99.935581
616.326898	-90.948064
616.453632	-91.091979
616.580417	-87.890996
616.707255	-88.834706
616.834144	-86.217837
616.961086	-94.839697
617.088081	-91.156094
617.215127	-89.281071
617.342226	-91.033848
617.469378	-92.845445
617.596581	-95.815970
617.723837	-99.823978
617.851146	-105.696015
617.978507	-105.447933
618.105920	-92.948764
618.233386	-95.741545
618.360905	-90.150671
618.488476	-91.568508
618.616100	-90.296073
618.743777	-86.890508
618.871506	-88.627631
618.999288	-88.613444
619.127123	-91.004664
619.255011	-86.133034
619.382951	-89.080486
619.510945	-86.968995
619.638991	-88.123743
619.767090	-92.035475
619.895243	-89.638514
620.023448	-88.570916
620.151706	-88.104011
620.280017	-90.921979
620.408382	-92.157527
620.536799	-92.661241
620.665270	-89.690901
620.793794	-104.910038
620.922371	-98.476912
621.051002	-95.129671
621.179686	-88.405836
621.308423	-90.839615
621.437213	-95.173347
621.566057	-93.090029
621.694954	-85.921116
621.823905	-89.469868
621.952909	-93.736036
622.081967	-90.570595
622.211079	-86.307142
622.340244	-85.605388
622.469462	-83.059441
622.598735	-83.824183
622.728061	-82.288638
622.857441	-83.475600
622.986874	-82.557319
623.116361	-86.086047
623.245903	-83.410221
623.375498	-84.705076
623.505147	-84.654687
623.634850	-91.416490
623.764606	-93.201060
623.894417	-91.073190
624.024282	-87.693036
624.154201	-90.639458
624.284174	-91.356667
624.414202	-89.813121
624.544283	-91.992078
624.674419	-92.125185
624.804609	-93.485798
624.934853	-88.331084
625.065151	-86.664670
625.195504	-89.941427
625.325911	-89.776531
625.456373	-94.155430
625.586889	-95.422036
625.717460	-93.339664
625.848085	-89.368785
625.978764	-91.664366
626.109498	-95.502990
626.240287	-99.433631
626.371131	-91.445840
626.502029	-89.170710
626.632982	-92.159104
626.763989	-88.519365
626.895052	-89.125977
627.026169	-82.430163
627.157341	-82.367086
627.288568	-85.485478
627.419850	-87.722592
627.551187	-81.369755
627.682579	-84.374200
627.814026	-85.148117
627.945528	-85.739051
628.077085	-86.452954
628.208697	-89.039715
628.340364	-95.066654
628.472087	-96.913954
628.603865	-93.249363
628.735698	-87.003770
628.867586	-85.934268
628.999530	-91.116403
629.131529	-84.654690
629.263584	-86.783328
629.395694	-86.951312
629.527859	-99.763998
629.660080	-95.094318
629.792357	-96.829368
629.924689	-94.883520
630.057077	-82.246708
630.189520	-84.710757
630.322019	-84.660629
630.454574	-86.235519
630.587184	-81.558537
630.719851	-79.231767
630.852573	-77.890974
630.985351	-80.205554
631.118185	-79.868314
631.251075	-78.953593
631.384021	-79.411966
631.517023	-79.329033
631.650081	-77.836690
631.783195	-78.987883
631.916365	-81.750494
632.049592	-87.612264
632.182874	-86.706501
632.316213	-81.888131
632.449608	-83.424794
632.583059	-81.518298
632.716567	-82.673959
632.850131	-82.936513
632.983751	-85.157420
633.117428	-79.168514
633.251161	-80.066125
633.384951	-77.432422
633.518797	-77.769932
633.652700	-77.010923
633.786660	-77.794431
633.920676	-76.997481
634.054749	-79.017256
634.188879	-79.772586
634.323065	-79.697427
634.457308	-80.197515
634.591608	-82.534477
634.725965	-84.152397
634.860379	-85.546731
634.994850	-90.601049
635.129377	-93.526035
635.263962	-94.575176
635.398604	-89.483605
635.533303	-93.477896
635.668058	-105.862922
635.802872	-99.551357
635.937742	-95.269604
636.072669	-98.723156
636.207654	-86.025879
636.342696	-87.572379
636.477796	-91.731629
636.612953	-100.574179
636.748167	-96.661770
636.883439	-87.498124
637.018768	-93.589965
637.154155	-82.979616
637.289599	-82.132036
637.425101	-77.930091
637.560660	-81.427778
637.696277	-80.692063
637.831952	-80.285190
637.967685	-82.485997
638.103475	-89.278041
638.239324	-81.154496
638.375230	-80.220386
638.511194	-83.645374
638.647215	-85.558970
638.783295	-84.421415
638.919433	-81.850682
639.055629	-84.848087
639.191883	-82.251849
639.328195	-84.679803
639.464565	-80.638174
639.600994	-84.170347
639.737481	-82.176408
639.874025	-87.641725
640.010629	-81.237683
640.147290	-84.721266
640.284010	-85.784488
640.420789	-87.199662
640.557625	-95.090983
640.694521	-87.450854
640.831474	-92.704008
640.968487	-90.059845
641.105558	-98.873312
641.242687	-88.011670
641.379876	-87.977147
641.517123	-82.186103
641.654429	-82.838314
641.791793	-80.208248
641.929216	-85.256438
642.066699	-80.772887
642.204240	-82.681139
642.341840	-80.869751
642.479499	-80.524026
642.617217	-79.979569
642.754994	-84.672051
642.892830	-78.039302
643.030726	-80.428040
643.168680	-81.476853
643.306694	-82.380229
643.444767	-79.677543
643.582899	-81.497139
643.721091	-88.464096
643.859342	-88.944965
643.997652	-89.301097
644.136022	-89.553517
644.274451	-81.417617
644.412940	-84.374125
644.551488	-80.459878
644.690096	-82.831631
644.828763	-82.149556
644.967490	-88.124293
645.106277	-88.495098
645.245124	-85.872021
645.384030	-92.385548
645.522997	-81.860175
645.662023	-87.447578
645.801109	-77.751405
645.940255	-78.955578
646.079460	-79.642986
646.218726	-79.797207
646.358052	-76.023432
646.497438	-77.822287
646.636884	-76.934323
646.776391	-77.906704
646.915957	-77.680700
647.055584	-76.069711
647.195271	-77.463541
647.335019	-73.642908
647.474826	-75.511549
647.614695	-75.956764
647.754623	-77.777087
647.894612	-75.237459
648.034662	-75.942911
648.174772	-72.742606
648.314943	-75.190782
648.455174	-73.806814
648.595466	-75.529512
648.735819	-73.654480
648.876233	-74.603057
649.016707	-73.796355
649.157242	-76.767157
649.297838	-75.928630
649.438495	-77.914597
649.579213	-76.970113
649.719992	-80.018281
649.860832	-83.539519
650.001733	-82.105470
650.142695	-82.838940
650.283718	-81.822517
650.424803	-80.481031
650.565949	-73.793969
650.707156	-74.949416
650.848424	-73.404120
650.989754	-74.416722
651.131145	-71.255943
651.272597	-73.058983
651.414111	-74.293148
651.555687	-79.988501
651.697324	-77.868858
651.839022	-79.508605
651.980782	-85.443571
652.122604	-92.009208
652.264488	-81.888815
652.406433	-83.180714
652.548441	-78.871731
652.690510	-77.683897
652.832640	-73.697240
652.974833	-74.474173
653.117088	-72.090570
653.259405	-75.043437
653.401784	-76.757251
653.544224	-76.032304
653.686727	-74.094924
653.829293	-75.089350
653.971920	-77.558456
654.114609	-71.837387
654.257361	-72.654792
654.400175	-74.304194
654.543052	-80.696653
654.685991	-82.743050
654.828992	-92.191125
654.972056	-89.049791
655.115183	-76.201036
655.258372	-73.925683
655.401623	-72.811655
655.544937	-77.857074
655.688314	-78.287567
655.831754	-79.832244
655.975256	-81.828782
656.118822	-88.444938
656.262450	-80.104620
656.406141	-74.692370
656.549894	-78.459473
656.693711	-76.425768
656.837591	-78.078163
656.981534	-75.672572
657.125540	-80.709356
657.269610	-79.081690
657.413742	-80.682778
657.557938	-76.953788
657.702196	-77.013810
657.846519	-77.231463
657.990904	-79.417935
658.135353	-76.350844
658.279866	-76.536416
658.424441	-77.616851
658.569081	-87.264116
658.713784	-93.109371
658.858550	-78.380084
659.003381	-79.703587
659.148274	-82.649621
659.293232	-80.346876
659.438253	-73.777428
659.583339	-75.045259
659.728488	-78.586692
659.873701	-84.703969
660.018978	-89.145820
660.164318	-90.878280
660.309723	-96.661069
660.455192	-78.312230
660.600725	-74.039455
660.746323	-73.258841
660.891984	-78.813606
661.037710	-89.987900
661.183500	-87.865428
661.329354	-82.998606
661.475272	-90.479833
661.621255	-79.502937
661.767303	-73.555882
661.913415	-71.753350
662.059591	-75.770010
662.205833	-80.189968
662.352138	-83.532335
662.498509	-79.224143
662.644944	-79.216082
662.791443	-85.983190
662.938008	-77.891244
663.084638	-74.099264
663.231332	-73.085152
663.378091	-78.178158
663.524915	-91.726706
663.671804	-90.063307
663.818759	-84.247648
663.965778	-81.976281
664.112863	-76.730972
664.260012	-73.814973
664.407227	-71.540412
664.554507	-71.891670
664.701853	-72.407503
664.849264	-79.064022
664.996740	-80.556433
665.144282	-84.724662
665.291889	-82.199220
665.439561	-90.580004
665.587300	-86.634570
665.735103	-78.577437
665.882973	-76.460633
666.030908	-80.864327
666.178909	-85.458682
666.326976	-92.176917
666.475109	-80.069283
666.623307	-85.930829
666.771571	-77.000576
666.919902	-75.851397
667.068298	-79.341405
667.216761	-75.969611
667.365289	-79.434425
667.513884	-80.647533
667.662545	-85.934669
667.811272	-78.481605
667.960065	-82.044675
668.108925	-79.746785
668.257851	-74.458535
668.406843	-75.515892
668.555902	-76.288615
668.705027	-75.297760
668.854219	-82.862651
669.003478	-76.061671
669.152803	-76.097829
669.302195	-74.915749
669.451653	-74.687887
669.601179	-72.516998
669.750771	-72.062311
669.900430	-74.942262
670.050156	-78.302554
670.199949	-76.916897
670.349808	-74.566714
670.499735	-72.722578
670.649729	-76.356929
670.799790	-75.505906
670.949918	-73.036555
671.100114	-74.499984
671.250377	-76.824892
671.400707	-80.558285
671.551104	-73.615606
671.701569	-72.128629
671.852101	-72.447775
672.002700	-72.960023
672.153368	-78.597308
672.304102	-79.491123
672.454905	-80.237698
672.605775	-95.211476
672.756713	-90.148655
672.907718	-94.027383
673.058791	-76.208627
673.209933	-79.484052
673.361142	-76.705335
673.512419	-75.093115
673.663764	-76.794546
673.815177	-75.691672
673.966658	-80.125889
674.118207	-81.367486
674.269825	-73.876689
674.421510	-77.394845
674.573264	-79.215561
674.725086	-78.619054
674.876977	-77.285848
675.028936	-72.315234
675.180963	-74.462272
675.333059	-75.302366
675.485224	-73.063088
675.637457	-75.794803
675.789758	-78.679415
675.942129	-80.241073
676.094568	-72.154503
676.247075	-70.260934
676.399652	-69.593163
676.552298	-71.210327
676.705012	-74.725880
676.857795	-74.992669
677.010648	-79.472924
677.163569	-90.228372
677.316560	-80.305622
677.469619	-85.631187
677.622748	-74.304835
677.775946	-72.229436
677.929214	-73.434702
678.082551	-73.050767
678.235957	-70.455202
678.389432	-71.038885
678.542977	-76.202125
678.696592	-78.521050
678.850276	-82.612130
679.004030	-80.765672
679.157853	-74.305203
679.311746	-74.854426
679.465709	-74.454459
679.619742	-68.439258
679.773844	-70.930712
679.928017	-76.209246
680.082259	-74.093632
680.236571	-76.325387
680.390954	-76.433982
680.545406	-77.482450
680.699929	-79.829368
680.854522	-89.427388
681.009185	-75.203839
681.163918	-71.635843
681.318722	-79.425295
681.473596	-75.083679
681.628540	-70.311724
681.783555	-72.525118
681.938641	-73.762307
682.093797	-78.754084
682.249023	-77.400935
682.404321	-71.012361
682.559689	-71.841856
682.715128	-72.975919
682.870637	-76.372285
683.026218	-79.673389
683.181869	-70.434926
683.337591	-74.724846
683.493385	-75.443363
683.649249	-70.182550
683.805185	-70.843531
683.961191	-71.592817
684.117269	-76.682423
684.273418	-83.524520
684.429639	-78.242909
684.585930	-73.096485
684.742294	-73.189398
684.898728	-82.580135
685.055234	-71.647113
685.211812	-67.417957
685.368461	-66.652150
685.525182	-69.971600
685.681975	-74.737731
685.838839	-71.622828
685.995775	-69.198695
686.152783	-70.837874
686.309863	-73.102377
686.467014	-79.576316
686.624238	-75.287334
686.781534	-69.605035
686.938902	-70.533592
687.096342	-74.600978
687.253854	-88.328647
687.411438	-76.889538
687.569095	-73.421850
687.726824	-80.618819
687.884626	-74.396523
688.042499	-72.828622
688.200446	-73.600993
688.358465	-73.459324
688.516556	-70.978935
688.674720	-74.521628
688.832957	-83.016885
688.991266	-72.334438
689.149649	-70.322873
689.308104	-73.656001
689.466632	-73.227875
689.625233	-71.256296
689.783906	-73.278184
689.942653	-71.259270
690.101473	-70.137973
690.260367	-73.684664
690.419333	-75.816316
690.578372	-77.453371
690.737485	-74.136868
690.896672	-74.002227
691.055931	-73.037146
691.215264	-69.145995
691.374671	-70.267949
691.534151	-69.207647
691.693704	-69.936408
691.853332	-76.111009
692.013033	-76.775062
692.172807	-77.293296
692.332656	-77.507155
692.492578	-86.988862
692.652575	-77.976260
692.812645	-79.285257
692.972789	-82.689620
693.133007	-73.091413
693.293300	-69.204197
693.453666	-73.086999
693.614107	-84.784185
693.774622	-70.652491
693.935211	-69.620794
694.095875	-72.749408
694.256613	-72.664193
694.417426	-74.465761
694.578313	-95.164723
694.739274	-78.428080
694.900311	-79.941753
695.061421	-77.760942
695.222607	-77.983903
695.383868	-90.293135
695.545203	-75.533562
695.706613	-72.406664
695.868098	-72.370731
696.029658	-73.252228
696.191293	-70.489769
696.353003	-78.053477
696.514789	-73.466622
696.676649	-69.766972
696.838585	-72.895869
697.000596	-73.329933
697.162682	-74.524192
697.324844	-76.216507
697.487081	-77.697251
697.649394	-77.609369
697.811782	-81.211096
697.974246	-88.431282
698.136786	-82.351092
698.299401	-75.789763
698.462092	-79.069765
698.624859	-87.837762
698.787702	-79.772128
698.950621	-72.339041
699.113616	-70.147170
699.276686	-70.849801
699.439833	-75.635156
699.603056	-78.421066
699.766355	-72.776511
699.929731	-74.105632
700.093183	-71.935639
700.256711	-76.375390
700.420315	-78.393628
700.583996	-76.504838
700.747754	-75.714785
700.911588	-72.038024
701.075499	-70.764098
701.239486	-73.816396
701.403550	-96.357707
701.567691	-71.948726
701.731909	-69.697800
701.896203	-71.320307
702.060575	-74.766422
702.225024	-80.509094
702.389549	-79.596413
702.554152	-71.427971
702.718832	-70.456206
702.883589	-76.714610
703.048424	-88.364893
703.213335	-82.436939
703.378324	-75.709147
703.543391	-73.114138
703.708535	-71.188074
703.873757	-77.315521
704.039056	-77.085717
704.204433	-71.222821
704.369887	-71.447240
704.535420	-73.667962
704.701030	-74.878380
704.866718	-83.922699
705.032484	-80.324045
705.198328	-70.677456
705.364250	-67.284597
705.530250	-70.505014
705.696328	-73.506118
705.862485	-68.585919
706.028720	-76.988790
706.195033	-72.140533
706.361424	-68.417824
706.527894	-73.240491
706.694442	-72.859147
706.861069	-75.059476
707.027775	-74.240961
707.194559	-74.647654
707.361422	-73.926930
707.528363	-72.963243
707.695384	-78.659401
707.862483	-73.194150
708.029661	-71.172809
708.196918	-67.930330
708.364254	-67.277022
708.531670	-66.697311
708.699164	-66.756055
708.866738	-76.767742
709.034391	-69.242414
709.202123	-68.089690
709.369935	-73.460851
709.537826	-66.642998
709.705796	-69.060699
709.873847	-78.420120
710.041976	-75.654353
710.210186	-69.196491
710.378475	-68.768332
710.546844	-73.828592
710.715292	-65.179530
710.883821	-66.560079
711.052429	-72.857553
711.221118	-65.755414
711.389887	-66.278242
711.558735	-67.681483
711.727664	-69.075496
711.896673	-70.983415
712.065763	-68.016774
712.234932	-75.120862
712.404183	-67.511326
712.573513	-64.744833
712.742924	-69.125431
712.912416	-69.364322
713.081988	-65.840484
713.251641	-66.157302
713.421375	-67.964449
713.591190	-64.795083
713.761085	-63.104173
713.931061	-64.632848
714.101119	-66.403195
714.271257	-63.906048
714.441476	-64.888082
714.611777	-68.646815
714.782159	-65.290410
714.952622	-65.144865
715.123166	-67.068755
715.293792	-65.281813
715.464499	-66.217225
715.635288	-69.151721
715.806158	-67.873806
715.977110	-69.724570
716.148143	-67.649185
716.319259	-65.647448
716.490456	-65.624787
716.661735	-64.532655
716.833096	-66.022524
717.004538	-66.839289
717.176063	-65.507516
717.347670	-66.189171
717.519359	-63.253040
717.691130	-62.332753
717.862984	-63.173149
718.034920	-61.608657
718.206938	-64.534365
718.379039	-67.063973
718.551222	-65.980200
718.723488	-68.178379
718.895836	-65.248485
719.068267	-66.272741
719.240781	-64.069387
719.413377	-63.818658
719.586057	-65.552867
719.758819	-61.843913
719.931664	-62.361743
720.104593	-61.562901
720.277604	-60.608369
720.450699	-62.367658
720.623876	-61.962756
720.797137	-64.043877
720.970482	-67.941734
721.143910	-66.387359
721.317421	-71.714706
721.491016	-65.990118
721.664694	-67.272848
721.838456	-64.654055
722.012302	-61.771734
722.186231	-63.879576
722.360244	-61.410838
722.534342	-61.564794
722.708523	-63.595924
722.882788	-63.804910
723.057137	-67.028858
723.231570	-64.617227
723.406088	-62.584890
723.580689	-62.613341
723.755375	-60.539116
723.930146	-60.715497
724.105000	-61.656846
724.279940	-62.214600
724.454963	-61.269507
724.630072	-61.113413
724.805265	-61.719525
724.980543	-62.481899
725.155905	-62.781138
725.331353	-65.989002
725.506885	-65.655523
725.682503	-64.655612
725.858205	-62.945082
726.033993	-60.961299
726.209865	-61.717357
726.385823	-60.263568
726.561866	-60.610517
726.737995	-63.416186
726.914209	-61.926891
727.090508	-64.253380
727.266893	-62.973942
727.443364	-63.848261
727.619920	-60.979710
727.796562	-61.354372
727.973290	-62.148597
728.150103	-60.699666
728.327003	-63.303995
728.503988	-63.714402
728.681060	-65.008310
728.858218	-66.382343
729.035461	-66.740851
729.212791	-66.145407
729.390208	-62.845744
729.567710	-63.390066
729.745299	-62.145400
729.922975	-60.071939
730.100737	-60.825681
730.278586	-60.967443
730.456521	-61.465163
730.634543	-62.635019
730.812652	-63.626828
730.990848	-64.658693
731.169130	-62.135957
731.347500	-60.090769
731.525957	-60.132012
731.704500	-60.680312
731.883131	-61.359961
732.061850	-63.092451
732.240655	-64.298456
732.419548	-64.948033
732.598528	-62.196441
732.777596	-62.943478
732.956751	-62.071197
733.135994	-62.204211
733.315325	-61.355686
733.494744	-61.425811
733.674250	-62.287020
733.853844	-60.897451
734.033526	-63.146499
734.213296	-62.380132
734.393154	-61.813764
734.573101	-61.380233
734.753135	-59.581137
734.933258	-60.624254
735.113469	-59.971586
735.293769	-59.867867
735.474157	-61.824514
735.654633	-61.432483
735.835198	-62.772693
736.015852	-62.526102
736.196594	-60.501157
736.377426	-59.815819
736.558346	-59.514503
736.739355	-58.887203
736.920453	-60.405571
737.101640	-61.523704
737.282916	-65.713229
737.464282	-64.542609
737.645736	-63.282375
737.827280	-61.196134
738.008914	-59.752303
738.190637	-59.781713
738.372449	-58.716606
738.554351	-62.271866
738.736342	-63.459238
738.918424	-63.863463
739.100595	-63.966541
739.282855	-61.100028
739.465206	-61.579045
739.647647	-59.508132
739.830178	-62.730158
740.012799	-62.255928
740.195510	-62.871302
740.378311	-63.392443
740.561203	-62.048385
740.744185	-65.163092
740.927258	-60.729074
741.110421	-61.647366
741.293674	-61.530893
741.477018	-60.390021
741.660453	-61.464895
741.843979	-60.449013
742.027596	-63.243279
742.211303	-61.834817
742.395102	-59.902735
742.578991	-62.850338
742.762972	-60.818060
742.947044	-64.261568
743.131207	-60.625287
743.315461	-62.521615
743.499807	-64.426788
743.684244	-61.428440
743.868773	-63.512932
744.053394	-61.249935
744.238106	-64.500791
744.422910	-60.454053
744.607805	-60.248556
744.792793	-62.728850
744.977872	-62.663427
745.163044	-63.674351
745.348307	-60.077683
745.533663	-62.934033
745.719111	-61.995217
745.904651	-61.369986
746.090283	-61.464226
746.276008	-61.629514
746.461826	-66.867719
746.647735	-62.371482
746.833738	-63.093133
747.019833	-61.207498
747.206021	-60.858158
747.392302	-64.067339
747.578676	-61.297119
747.765143	-64.881716
747.951703	-64.572301
748.138356	-65.584549
748.325102	-61.806961
748.511941	-59.931638
748.698874	-63.286832
748.885900	-61.175774
749.073019	-60.986090
749.260232	-59.659949
749.447539	-61.487418
749.634939	-61.791733
749.822433	-59.081567
750.010021	-60.081140
750.197703	-57.769833
750.385479	-59.782114
750.573348	-62.457764
750.761312	-62.214871
750.949370	-65.389554
751.137523	-61.479331
751.325769	-63.641264
751.514110	-60.085509
751.702545	-62.265191
751.891075	-61.223855
752.079700	-62.824314
752.268419	-64.162471
752.457233	-60.654847
752.646142	-65.940649
752.835145	-60.539083
753.024244	-64.194103
753.213437	-60.378736
753.402726	-62.022458
753.592110	-64.272340
753.781589	-63.149396
753.971163	-65.353497
754.160833	-59.460373
754.350598	-62.847782
754.540459	-61.436053
754.730415	-62.232057
754.920467	-64.839472
755.110615	-63.094119
755.300858	-68.181668
755.491198	-63.021420
755.681633	-65.340272
755.872164	-61.441911
756.062792	-60.464952
756.253515	-66.492686
756.444335	-63.104211
756.635252	-64.432084
756.826264	-60.652952
757.017373	-64.633464
757.208579	-59.714747
757.399881	-60.835233
757.591280	-61.554518
757.782776	-61.600015
757.974368	-61.544587
758.166058	-59.996279
758.357844	-64.097956
758.549728	-59.350527
758.741708	-62.315303
758.933786	-61.302079
759.125961	-62.267483
759.318233	-62.333975
759.510603	-62.945545
759.703071	-63.710249
759.895635	-57.630879
760.088298	-59.249994
760.281058	-60.530673
760.473916	-63.059099
760.666872	-60.791441
760.859926	-60.560066
761.053078	-60.848313
761.246328	-58.451430
761.439676	-63.376240
761.633122	-60.876443
761.826667	-60.990714
762.020310	-59.882556
762.214052	-62.153976
762.407892	-68.277756
762.601831	-62.386406
762.795868	-65.858588
762.990004	-62.462168
763.184239	-61.377301
763.378573	-57.893156
763.573006	-61.373298
763.767538	-56.454089
763.962169	-57.338436
764.156900	-58.464469
764.351729	-58.296205
764.546658	-57.776634
764.741687	-57.565768
764.936815	-60.720328
765.132042	-56.121505
765.327370	-58.200417
765.522797	-59.379806
765.718324	-60.855038
765.913950	-56.486476
766.109677	-56.868787
766.305504	-59.544300
766.501431	-58.452060
766.697458	-62.131666
766.893586	-59.235270
767.089814	-56.468063
767.286142	-55.691564
767.482571	-60.274318
767.679100	-61.036742
767.875730	-57.520237
768.072461	-57.698531
768.269293	-57.190567
768.466225	-58.756822
768.663259	-56.826187
768.860393	-59.812938
769.057629	-54.980270
769.254966	-56.632379
769.452404	-58.305919
769.649944	-57.516662
769.847585	-54.471070
770.045328	-52.768192
770.243172	-55.131446
770.441118	-54.115774
770.639166	-56.609889
770.837315	-56.146800
771.035567	-54.762117
771.233920	-53.714232
771.432376	-55.288328
771.630934	-58.003021
771.829594	-57.057558
772.028356	-55.963722
772.227220	-54.681706
772.426188	-55.706617
772.625257	-54.985451
772.824430	-57.931128
773.023705	-55.435953
773.223083	-55.818976
773.422563	-55.162350
773.622147	-55.211220
773.821834	-55.398320
774.021624	-53.811846
774.221517	-54.261292
774.421513	-53.251872
774.621613	-53.979420
774.821816	-53.030193
775.022122	-53.649675
775.222532	-52.811527
775.423046	-52.346639
775.623664	-52.501547
775.824385	-53.230244
776.025211	-53.414326
776.226140	-53.128824
776.427173	-54.877128
776.628311	-52.578261
776.829553	-54.030295
777.030899	-53.042401
777.232350	-54.579832
777.433905	-53.096830
777.635564	-53.009907
777.837328	-52.778374
778.039197	-52.780965
778.241171	-53.384723
778.443250	-54.059356
778.645433	-52.973728
778.847722	-50.781925
779.050116	-51.153663
779.252615	-50.096254
779.455219	-51.673730
779.657929	-51.121235
779.860744	-52.413800
780.063665	-51.478612
780.266691	-51.100152
780.469823	-52.464452
780.673061	-51.902845
780.876405	-52.979539
781.079855	-52.075852
781.283410	-52.277923
781.487072	-51.939336
781.690840	-51.975686
781.894715	-51.578814
782.098695	-51.977546
782.302783	-50.419692
782.506976	-50.655570
782.711277	-51.038490
782.915684	-51.203643
783.120198	-50.946561
783.324818	-50.075423
783.529546	-49.655065
783.734381	-48.707108
783.939322	-50.293759
784.144372	-50.832621
784.349528	-52.236652
784.554792	-50.069512
784.760163	-50.689132
784.965642	-49.831239
785.171228	-50.702886
785.376922	-51.995769
785.582724	-51.399709
785.788634	-50.500421
785.994651	-50.172200
786.200777	-50.025457
786.407011	-50.951332
786.613353	-49.577387
786.819804	-49.135115
787.026363	-48.556430
787.233030	-47.918572
787.439806	-49.486542
787.646691	-49.639390
787.853684	-50.575977
788.060786	-50.108753
788.267997	-49.623254
788.475317	-50.103185
788.682746	-49.869541
788.890285	-50.428429
789.097932	-50.229964
789.305689	-49.689174
789.513555	-49.704255
789.721531	-49.243317
789.929617	-49.704610
790.137812	-49.425828
790.346117	-48.727237
790.554531	-48.952963
790.763056	-48.293725
790.971691	-48.222960
791.180436	-49.109560
791.389291	-48.560855
791.598256	-49.240620
791.807332	-49.909268
792.016518	-49.041583
792.225815	-49.926255
792.435222	-49.216410
792.644740	-49.076050
792.854369	-49.506315
793.064109	-48.685579
793.273960	-49.353443
793.483922	-48.139509
793.693995	-48.714319
793.904180	-48.578932
794.114475	-48.637147
794.324882	-48.220999
794.535401	-49.153354
794.746031	-47.798573
794.956774	-49.272510
795.167627	-48.088109
795.378593	-48.230202
795.589671	-48.130093
795.800861	-48.735521
796.012162	-49.282663
796.223577	-50.186516
796.435103	-48.664439
796.646742	-48.905001
796.858493	-48.142229
797.070357	-47.838438
797.282334	-49.038040
797.494423	-47.731992
797.706626	-47.439795
797.918941	-47.875064
798.131369	-47.401118
798.343911	-48.385941
798.556566	-49.417299
798.769334	-48.342284
798.982215	-48.840414
799.195210	-47.906555
799.408319	-47.721901
799.621541	-49.157664
799.834877	-48.103694
800.048327	-48.696097
800.261890	-48.227264
800.475568	-46.889911
800.689360	-47.210284
800.903266	-48.102249
801.117287	-47.273975
801.331422	-48.814737
801.545671	-48.676123
801.760036	-48.628411
801.974514	-48.151414
802.189108	-48.554426
802.403816	-47.301495
802.618640	-48.539816
802.833578	-46.852839
803.048632	-47.751976
803.263800	-47.220443
803.479085	-47.643537
803.694484	-47.891382
803.909999	-48.278163
804.125630	-46.789461
804.341376	-47.797500
804.557239	-47.773718
804.773217	-47.389656
804.989311	-48.451933
805.205521	-47.371698
805.421847	-47.210090
805.638290	-47.377595
805.854849	-47.810009
806.071524	-47.363744
806.288316	-47.393808
806.505225	-47.354191
806.722250	-47.629184
806.939393	-47.014333
807.156652	-47.768595
807.374028	-47.074987
807.591521	-47.267975
807.809132	-47.304585
808.026859	-47.826253
808.244705	-46.515445
808.462667	-48.158342
808.680748	-46.349521
808.898946	-47.215003
809.117261	-46.247012
809.335695	-46.787778
809.554246	-46.785871
809.772916	-46.855222
809.991704	-46.549634
810.210610	-48.055640
810.429634	-45.999723
810.648777	-47.077426
810.868039	-46.958412
811.087419	-46.529040
811.306918	-46.177700
811.526535	-47.888233
811.746272	-45.988668
811.966127	-46.485640
812.186102	-46.733409
812.406196	-46.536237
812.626409	-45.360722
812.846742	-46.684521
813.067194	-46.939442
813.287766	-45.944181
813.508457	-46.549074
813.729269	-46.820587
813.950200	-45.593748
814.171251	-45.029002
814.392422	-46.658582
814.613714	-46.397353
814.835126	-45.387794
815.056658	-45.686557
815.278311	-47.372476
815.500084	-44.904049
815.721978	-45.184300
815.943993	-46.082591
816.166128	-46.455948
816.388385	-45.007649
816.610762	-46.049557
816.833261	-45.717168
817.055881	-45.188997
817.278623	-44.305207
817.501486	-46.131370
817.724471	-45.673403
817.947577	-45.061618
818.170805	-45.248952
818.394155	-45.816331
818.617627	-44.871502
818.841221	-44.883959
819.064937	-45.123819
819.288775	-45.435484
819.512736	-44.750861
819.736819	-44.588946
819.961025	-44.772664
820.185354	-45.486171
820.409805	-44.509428
820.634379	-44.846092
820.859076	-45.039875
821.083897	-44.553483
821.308840	-43.955134
821.533907	-44.510109
821.759097	-44.591134
821.984411	-44.932272
822.209848	-44.062544
822.435409	-44.751104
822.661093	-44.114218
822.886902	-43.966836
823.112834	-44.240836
823.338891	-44.469966
823.565072	-44.238367
823.791377	-44.122751
824.017807	-44.217734
824.244361	-44.020541
824.471039	-43.899284
824.697843	-43.287377
824.924771	-44.050333
825.151824	-43.957714
825.379002	-43.604057
825.606306	-43.464756
825.833734	-44.128650
826.061288	-43.731690
826.288967	-43.853160
826.516772	-43.499712
826.744703	-43.857343
826.972759	-43.480639
827.200941	-43.286554
827.429249	-42.867378
827.657683	-43.953001
827.886243	-43.213956
828.114930	-43.454835
828.343743	-43.135747
828.572682	-43.083562
828.801748	-42.890032
829.030941	-43.619305
829.260260	-43.021947
829.489706	-43.357386
829.719280	-42.475139
829.948980	-42.701002
830.178808	-42.919498
830.408763	-42.969612
830.638845	-42.760765
830.869055	-43.261072
831.099393	-43.013152
831.329858	-42.307817
831.560451	-42.567216
831.791173	-42.571458
832.022022	-42.793887
832.252999	-42.262767
832.484105	-42.391172
832.715339	-42.613087
832.946702	-42.763508
833.178193	-42.153234
833.409813	-42.431646
833.641561	-42.852117
833.873439	-42.556859
834.105445	-42.255529
834.337581	-42.314800
834.569846	-41.952968
834.802241	-41.824223
835.034764	-42.131087
835.267418	-42.405747
835.500201	-42.618505
835.733114	-41.678931
835.966157	-41.772041
836.199329	-42.433088
836.432632	-42.212664
836.666065	-41.740758
836.899629	-42.102370
837.133323	-42.228280
837.367147	-41.676370
837.601102	-41.636540
837.835188	-41.523436
838.069405	-42.510020
838.303752	-41.693643
838.538231	-41.337106
838.772841	-41.777401
839.007582	-42.870000
839.242455	-41.103361
839.477459	-41.613614
839.712595	-41.334433
839.947863	-41.837489
840.183263	-41.443677
840.418794	-41.707531
840.654458	-41.187391
840.890254	-41.967764
841.126182	-41.110815
841.362242	-41.383078
841.598435	-41.651922
841.834761	-41.884227
842.071220	-40.665158
842.307811	-41.637617
842.544536	-41.291308
842.781393	-41.510933
843.018384	-41.222499
843.255508	-41.644405
843.492765	-40.984914
843.730156	-41.418893
843.967681	-40.777903
844.205339	-41.126606
844.443132	-41.348107
844.681058	-41.400553
844.919118	-40.530584
845.157313	-41.313926
845.395642	-40.911090
845.634105	-41.202975
845.872703	-40.994499
846.111436	-41.190425
846.350303	-40.491051
846.589306	-41.209861
846.828443	-40.606875
847.067716	-40.960244
847.307124	-41.123986
847.546667	-41.112873
847.786345	-40.558437
848.026160	-40.790212
848.266110	-40.564140
848.506195	-40.872744
848.746417	-40.945104
848.986775	-40.650012
849.227269	-40.527771
849.467899	-40.528494
849.708666	-40.564618
849.949569	-40.675212
850.190609	-40.950089
850.431785	-40.086637
850.673099	-40.465944
850.914549	-40.446248
851.156137	-40.641857
851.397861	-40.286884
851.639723	-40.503739
851.881723	-39.984693
852.123860	-40.798109
852.366135	-40.118925
852.608547	-40.306061
852.851098	-39.797533
853.093786	-40.432332
853.336613	-39.705488
853.579578	-40.344530
853.822681	-39.800179
854.065923	-39.998907
854.309304	-39.562749
854.552823	-40.367937
854.796481	-39.474027
855.040278	-40.248949
855.284215	-39.643988
855.528290	-39.777590
855.772505	-39.446400
856.016859	-40.003611
856.261353	-39.350130
856.505987	-39.825855
856.750760	-39.592650
856.995673	-39.387917
857.240727	-39.157661
857.485920	-39.488016
857.731254	-39.302752
857.976729	-39.050990
858.222343	-39.455982
858.468099	-38.902904
858.713995	-39.225158
858.960032	-39.173102
859.206211	-39.148450
859.452530	-38.685497
859.698991	-39.472263
859.945593	-38.523922
860.192336	-38.866945
860.439222	-38.757335
860.686248	-38.995369
860.933417	-38.437087
861.180728	-39.218937
861.428181	-38.183089
861.675776	-38.486440
861.923514	-38.296639
862.171394	-38.495063
862.419417	-38.038627
862.667582	-38.727518
862.915890	-38.097328
863.164342	-38.306463
863.412936	-38.396468
863.661674	-38.182234
863.910555	-37.729304
864.159579	-37.994066
864.408747	-37.911387
864.658059	-37.580463
864.907515	-38.085458
865.157114	-37.554382
865.406858	-37.809473
865.656746	-37.531319
865.906778	-37.788803
866.156955	-37.013676
866.407277	-37.717524
866.657743	-36.999839
866.908354	-37.755064
867.159110	-37.274690
867.410011	-37.390094
867.661057	-36.826312
867.912249	-37.114756
868.163586	-36.795801
868.415069	-37.237714
868.666697	-36.811624
868.918472	-36.708215
869.170392	-36.868554
869.422458	-36.690327
869.674671	-36.606197
869.927030	-36.821041
870.179536	-36.636126
870.432188	-36.417021
870.684987	-36.721481
870.937933	-36.304144
871.191026	-36.312404
871.444266	-36.130263
871.697653	-36.318110
871.951188	-35.819627
872.204870	-36.420674
872.458700	-35.972138
872.712677	-36.198196
872.966803	-35.886894
873.221076	-36.200116
873.475498	-35.442326
873.730068	-35.994422
873.984787	-35.618955
874.239654	-35.649634
874.494669	-35.569046
874.749834	-35.476419
875.005147	-35.517173
875.260610	-35.555271
875.516222	-35.519194
875.771983	-35.313377
876.027894	-35.454818
876.283954	-34.832321
876.540164	-35.401019
876.796524	-34.784836
877.053033	-35.232372
877.309693	-34.862353
877.566503	-35.230265
877.823464	-34.684399
878.080575	-35.050978
878.337837	-34.458271
878.595249	-34.750097
878.852813	-34.623953
879.110528	-34.690668
879.368393	-34.581523
879.626410	-34.451902
879.884579	-34.431002
880.142899	-34.176175
880.401371	-34.398198
880.659994	-34.200625
880.918770	-34.463189
881.177698	-34.011389
881.436778	-34.251644
881.696010	-33.923766
881.955395	-34.114933
882.214933	-33.877739
882.474623	-34.156135
882.734467	-33.688847
882.994463	-33.885736
883.254613	-33.656163
883.514916	-33.797950
883.775372	-33.641747
884.035982	-33.850970
884.296746	-33.519773
884.557664	-33.483845
884.818735	-33.539469
885.079961	-33.347934
885.341341	-33.441242
885.602876	-33.386168
885.864565	-33.546951
886.126409	-32.932783
886.388407	-33.491674
886.650561	-33.089030
886.912870	-33.212076
887.175334	-32.921044
887.437953	-33.272857
887.700728	-32.831644
887.963658	-32.912157
888.226745	-33.093338
888.489987	-32.885381
888.753385	-32.664933
889.016940	-32.922766
889.280651	-32.733149
889.544518	-32.487705
889.808543	-32.824422
890.072723	-32.546667
890.337061	-32.703656
890.601556	-32.428989
890.866208	-32.547988
891.131017	-32.228518
891.395984	-32.492215
891.661109	-32.287191
891.926391	-32.515418
892.191831	-32.140062
892.457429	-32.315964
892.723186	-32.143569
892.989100	-32.190124
893.255173	-32.113636
893.521405	-32.058770
893.787796	-32.096622
894.054345	-32.015406
894.321053	-32.204711
894.587921	-31.868717
894.854948	-31.925385
895.122134	-31.792646
895.389480	-32.169277
895.656986	-31.553578
895.924651	-31.995264
896.192477	-31.833014
896.460463	-31.644932
896.728609	-31.745166
896.996915	-31.944426
897.265382	-31.380941
897.534010	-31.687469
897.802799	-31.639728
898.071749	-31.605904
898.340860	-31.628406
898.610132	-31.460070
898.879566	-31.629457
899.149162	-31.379963
899.418919	-31.584721
899.688838	-31.315495
899.958919	-31.590155
900.229162	-31.203188
900.499568	-31.511722
900.770136	-31.267970
901.040867	-31.453080
901.311761	-31.162303
901.582817	-31.294468
901.854037	-31.289374
902.125420	-31.080828
902.396966	-31.342982
902.668676	-31.132286
902.940550	-31.298979
903.212587	-31.064753
903.484788	-31.161157
903.757153	-31.089376
904.029683	-31.220724
904.302377	-30.865655
904.575236	-31.202297
904.848259	-31.106607
905.121447	-30.853001
905.394800	-31.259297
905.668319	-30.849690
905.942002	-31.006276
906.215852	-30.894258
906.489866	-31.130314
906.764047	-30.769779
907.038393	-31.006181
907.312906	-31.013001
907.587584	-30.732629
907.862429	-30.876197
908.137441	-31.108654
908.412619	-30.581617
908.687964	-30.842226
908.963476	-31.019243
909.239155	-30.686104
909.515002	-30.847216
909.791015	-30.860912
910.067197	-30.811319
910.343546	-30.736906
910.620063	-30.644423
910.896748	-30.935338
911.173601	-30.587798
911.450623	-30.657494
911.727813	-30.780639
912.005171	-30.691730
912.282699	-30.520069
912.560395	-30.629818
912.838261	-30.717143
913.116296	-30.421686
913.394500	-30.658848
913.672874	-30.515855
913.951418	-30.454792
914.230131	-30.553597
914.509015	-30.402937
914.788068	-30.454546
915.067292	-30.631210
915.346687	-30.275095
915.626252	-30.456255
915.905988	-30.560921
916.185895	-30.318729
916.465973	-30.281955
916.746223	-30.513767
917.026644	-30.381705
917.307236	-30.258775
917.588000	-30.352531
917.868937	-30.444148
918.150045	-30.303320
918.431325	-30.034156
918.712778	-30.468014
918.994404	-30.341472
919.276202	-29.947104
919.558173	-30.551295
919.840317	-29.984565
920.122634	-30.423926
920.405125	-30.126823
920.687789	-30.157167
920.970627	-30.200963
921.253639	-30.243957
921.536824	-30.171725
921.820184	-30.184563
922.103718	-30.343461
922.387427	-29.933742
922.671310	-30.411602
922.955368	-29.971935
923.239601	-30.547013
923.524009	-29.685566
923.808592	-30.586295
924.093351	-29.908887
924.378285	-30.164403
924.663396	-30.142156
924.948682	-30.185049
925.234144	-29.850308
925.519782	-30.251404
925.805597	-30.059716
926.091589	-29.914589
926.377757	-30.275613
926.664102	-29.763525
926.950624	-30.321838
927.237323	-29.774352
927.524200	-30.255346
927.811255	-29.788100
928.098487	-30.302476
928.385897	-29.977609
928.673485	-29.848079
928.961251	-30.310814
929.249196	-29.839780
929.537319	-30.069294
929.825621	-29.993309
930.114102	-30.161497
930.402762	-29.835626
930.691601	-30.139399
930.980620	-29.821447
931.269818	-30.127439
931.559196	-29.930773
931.848753	-29.853324
932.138491	-30.123530
932.428409	-29.936383
932.718508	-29.763247
933.008787	-29.965881
933.299246	-30.051689
933.589887	-29.762492
933.880709	-29.903622
934.171712	-30.017699
934.462896	-29.815428
934.754262	-29.989248
935.045810	-29.765043
935.337539	-29.979746
935.629451	-30.091137
935.921545	-29.611462
936.213822	-30.009927
936.506281	-30.021968
936.798922	-29.813026
937.091747	-29.814918
937.384755	-29.929131
937.677946	-29.840052
937.971321	-29.860647
938.264879	-29.730271
938.558621	-29.708069
938.852547	-30.102877
939.146657	-29.408515
939.440952	-29.904524
939.735431	-29.640991
940.030095	-29.774387
940.324943	-29.589316
940.619977	-29.694567
940.915196	-29.718313
941.210600	-29.674640
941.506189	-29.539889
941.801965	-29.466978
942.097926	-29.980108
942.394074	-29.222041
942.690407	-29.827356
942.986927	-29.450491
943.283634	-29.624634
943.580527	-29.449614
943.877608	-29.324797
944.174875	-29.660315
944.472330	-29.515597
944.769972	-29.266219
945.067802	-29.335903
945.365820	-29.464123
945.664026	-29.204113
945.962420	-29.367708
946.261002	-28.913235
946.559773	-29.633132
946.858733	-28.945970
947.157881	-29.099459
947.457219	-29.126726
947.756746	-29.070520
948.056462	-29.130627
948.356368	-28.864064
948.656464	-29.057571
948.956749	-29.165184
949.257225	-28.854144
949.557891	-29.008083
949.858748	-28.926267
950.159796	-29.057556
950.461034	-28.939463
950.762463	-28.770733
951.064084	-29.207149
951.365896	-28.912033
951.667900	-28.875170
951.970095	-28.979951
952.272483	-28.878305
952.575063	-29.145822
952.877835	-28.552881
953.180799	-29.046383
953.483956	-28.802611
953.787307	-28.960535
954.090850	-28.702771
954.394586	-28.712326
954.698516	-29.011913
955.002640	-28.595026
955.306957	-28.746399
955.611469	-28.601232
955.916174	-28.852938
956.221074	-28.610779
956.526169	-28.537639
956.831458	-28.605990
957.136942	-28.685096
957.442622	-28.581755
957.748496	-28.397547
958.054567	-28.569507
958.360833	-28.578540
958.667294	-28.410513
958.973952	-28.391984
959.280806	-28.387572
959.587857	-28.589664
959.895104	-28.244310
960.202548	-28.299323
960.510189	-28.298210
960.818027	-28.482896
961.126062	-28.129405
961.434295	-28.171268
961.742726	-28.182842
962.051355	-28.305016
962.360182	-28.094847
962.669207	-27.974376
962.978431	-28.095657
963.287854	-28.125594
963.597475	-27.955941
963.907296	-27.875791
964.217315	-27.893492
964.527535	-28.016883
964.837954	-27.816978
965.148573	-27.692773
965.459392	-27.795572
965.770411	-27.797509
966.081630	-27.692614
966.393051	-27.502359
966.704672	-27.616639
967.016494	-27.603528
967.328517	-27.511771
967.640742	-27.310591
967.953169	-27.445017
968.265797	-27.355687
968.578627	-27.382858
968.891660	-27.072863
969.204895	-27.259340
969.518332	-27.188629
969.831972	-27.167406
970.145816	-26.952408
970.459862	-27.001893
970.774112	-27.094267
971.088565	-26.938826
971.403223	-26.858621
971.718084	-26.805646
972.033149	-26.936581
972.348419	-26.812304
972.663893	-26.732697
972.979572	-26.650092
973.295456	-26.820217
973.611546	-26.658492
973.927840	-26.652402
974.244340	-26.505993
974.561046	-26.683899
974.877958	-26.579352
975.195076	-26.481789
975.512401	-26.474188
975.829932	-26.441672
976.147670	-26.567668
976.465615	-26.302026
976.783767	-26.350348
977.102126	-26.307669
977.420693	-26.405978
977.739468	-26.211563
978.058451	-26.167963
978.377642	-26.186170
978.697041	-26.252816
979.016649	-26.099225
979.336466	-25.987122
979.656492	-26.054807
979.976727	-26.064234
980.297171	-26.027177
980.617825	-25.796162
980.938689	-25.941825
981.259763	-25.872901
981.581048	-25.926055
981.902542	-25.686547
982.224248	-25.755052
982.546164	-25.769909
982.868291	-25.739699
983.190630	-25.636220
983.513180	-25.550053
983.835942	-25.645797
984.158916	-25.605029
984.482101	-25.529051
984.805500	-25.375704
985.129110	-25.501250
985.452934	-25.441959
985.776970	-25.421061
986.101220	-25.205678
986.425683	-25.334205
986.750359	-25.289974
987.075250	-25.246686
987.400354	-25.098896
987.725673	-25.072017
988.051206	-25.149916
988.376954	-25.062733
988.702916	-24.984268
989.029094	-24.836199
989.355487	-24.937867
989.682095	-24.894645
990.008919	-24.824540
990.335959	-24.644241
990.663216	-24.724744
990.990688	-24.702614
991.318377	-24.643839
991.646283	-24.503777
991.974406	-24.487781
992.302746	-24.534372
992.631304	-24.451309
992.960079	-24.387196
993.289072	-24.267476
993.618283	-24.378632
993.947713	-24.280076
994.277361	-24.228575
994.607227	-24.108841
994.937313	-24.191263
995.267618	-24.147756
995.598142	-24.082675
995.928886	-23.980990
996.259849	-23.971628
996.591033	-24.027519
996.922437	-23.944911
997.254061	-23.854240
997.585906	-23.786854
997.917972	-23.884899
998.250260	-23.806638
998.582768	-23.775142
998.915498	-23.624913
999.248450	-23.686874
999.581624	-23.681027
999.915020	-23.647301
1000.248639	-23.532863
1000.582480	-23.500802
1000.916545	-23.529095
1001.250832	-23.517225
1001.585343	-23.466153
1001.920077	-23.330334
1002.255035	-23.390303
1002.590218	-23.380430
1002.925624	-23.368179
1003.261255	-23.226319
1003.597111	-23.257911
1003.933192	-23.251250
1004.269497	-23.268841
1004.606029	-23.151228
1004.942785	-23.126384
1005.279768	-23.164949
1005.616977	-23.135793
1005.954412	-23.118803
1006.292074	-23.008140
1006.629962	-23.049980
1006.968077	-23.033024
1007.306420	-23.064367
1007.644990	-22.945760
1007.983787	-22.920526
1008.322813	-22.921724
1008.662067	-22.984593
1009.001549	-22.879947
1009.341259	-22.802159
1009.681199	-22.807362
1010.021367	-22.831526
1010.361765	-22.816907
1010.702392	-22.698647
1011.043250	-22.694491
1011.384337	-22.635836
1011.725654	-22.706540
1012.067202	-22.599548
1012.408980	-22.553460
1012.750989	-22.486042
1013.093230	-22.525708
1013.435702	-22.488674
1013.778405	-22.404662
1014.121341	-22.352955
1014.464508	-22.333880
1014.807908	-22.337163
1015.151540	-22.278821
1015.495405	-22.223725
1015.839503	-22.150487
1016.183835	-22.200518
1016.528400	-22.144695
1016.873198	-22.112240
1017.218231	-22.004299
1017.563498	-22.044635
1017.908999	-22.011220
1018.254735	-22.018593
1018.600707	-21.921326
1018.946913	-21.865063
1019.293354	-21.890836
1019.640032	-21.898546
1019.986945	-21.870810
1020.334094	-21.762177
1020.681480	-21.749828
1021.029102	-21.744794
1021.376961	-21.803512
1021.725058	-21.712978
1022.073391	-21.642170
1022.421962	-21.597611
1022.770772	-21.687756
1023.119819	-21.643396
1023.469104	-21.593674
1023.818628	-21.499801
1024.168391	-21.521306
1024.518393	-21.580038
1024.868634	-21.505408
1025.219115	-21.461180
1025.569836	-21.406087
1025.920796	-21.448233
1026.271997	-21.444440
1026.623438	-21.413168
1026.975121	-21.344673
1027.327044	-21.353285
1027.679208	-21.327830
1028.031614	-21.385479
1028.384262	-21.312873
1028.737152	-21.278543
1029.090284	-21.265644
1029.443659	-21.293026
1029.797276	-21.305741
1030.151137	-21.223725
1030.505240	-21.214720
1030.859587	-21.224162
1031.214178	-21.252415
1031.569013	-21.197566
1031.924093	-21.175675
1032.279417	-21.126986
1032.634985	-21.181557
1032.990799	-21.156922
1033.346858	-21.151420
1033.703162	-21.063854
1034.059712	-21.055428
1034.416509	-21.086703
1034.773551	-21.093626
1035.130841	-21.034044
1035.488377	-20.974433
1035.846160	-20.974234
1036.204190	-20.974366
1036.562468	-20.981231
1036.920994	-20.914853
1037.279768	-20.883902
1037.638790	-20.845827
1037.998061	-20.893431
1038.357581	-20.842593
1038.717350	-20.801007
1039.077368	-20.754119
1039.437636	-20.754202
1039.798154	-20.742764
1040.158922	-20.740393
1040.519940	-20.678933
1040.881209	-20.633460
1041.242729	-20.635782
1041.604501	-20.635417
1041.966524	-20.609796
1042.328798	-20.552702
1042.691325	-20.534624
1043.054103	-20.508212
1043.417135	-20.525788
1043.780419	-20.481515
1044.143956	-20.441096
1044.507746	-20.390284
1044.871791	-20.420787
1045.236088	-20.390697
1045.600641	-20.382946
1045.965447	-20.298503
1046.330508	-20.283291
1046.695824	-20.314947
1047.061395	-20.306658
1047.427222	-20.256513
1047.793304	-20.204625
1048.159642	-20.196680
1048.526237	-20.235190
1048.893088	-20.236529
1049.260196	-20.157234
1049.627561	-20.149330
1049.995183	-20.145360
1050.363063	-20.190591
1050.731201	-20.153276
1051.099597	-20.118985
1051.468251	-20.088069
1051.837164	-20.121882
1052.206336	-20.120443
1052.575767	-20.136029
1052.945458	-20.070394
1053.315409	-20.054326
1053.685619	-20.063651
1054.056090	-20.096325
1054.426821	-20.098564
1054.797814	-20.038464
1055.169067	-20.007627
1055.540582	-20.029914
1055.912359	-20.063698
1056.284398	-20.039839
1056.656698	-20.000360
1057.029262	-19.961314
1057.402088	-19.991859
1057.775177	-19.995136
1058.148530	-19.995127
1058.522146	-19.925769
1058.896027	-19.905615
1059.270171	-19.917441
1059.644580	-19.953222
1060.019254	-19.899126
1060.394193	-19.860150
1060.769397	-19.829069
1061.144867	-19.848327
1061.520602	-19.845331
1061.896604	-19.822329
1062.272872	-19.768648
1062.649407	-19.716879
1063.026210	-19.747607
1063.403279	-19.741902
1063.780616	-19.710702
1064.158221	-19.634853
1064.536094	-19.620722
1064.914235	-19.611694
1065.292645	-19.632987
1065.671325	-19.585617
1066.050273	-19.525090
1066.429491	-19.482676
1066.808979	-19.518502
1067.188738	-19.509046
1067.568766	-19.484166
1067.949066	-19.400745
1068.329636	-19.378595
1068.710478	-19.395674
1069.091592	-19.408265
1069.472977	-19.358270
1069.854635	-19.302964
1070.236565	-19.269967
1070.618768	-19.288520
1071.001243	-19.307698
1071.383993	-19.266155
1071.767016	-19.206361
1072.150313	-19.182442
1072.533884	-19.207764
1072.917730	-19.215167
1073.301850	-19.196930
1073.686246	-19.127809
1074.070917	-19.124715
1074.455864	-19.121167
1074.841087	-19.142833
1075.226586	-19.114695
1075.612362	-19.077797
1075.998415	-19.030438
1076.384745	-19.054986
1076.771353	-19.052381
1077.158238	-19.059227
1077.545401	-18.991328
1077.932843	-18.973661
1078.320564	-18.973594
1078.708564	-19.003257
1079.096842	-18.987352
1079.485401	-18.949107
1079.874240	-18.914731
1080.263358	-18.938925
1080.652757	-18.950503
1081.042438	-18.940678
1081.432399	-18.900234
1081.822641	-18.877266
1082.213166	-18.876599
1082.603972	-18.884990
1082.995061	-18.881868
1083.386433	-18.830168
1083.778087	-18.789847
1084.170025	-18.786214
1084.562246	-18.806607
1084.954751	-18.768500
1085.347541	-18.733635
1085.740615	-18.686983
1086.133973	-18.689835
1086.527617	-18.686176
1086.921546	-18.677149
1087.315761	-18.631578
1087.710262	-18.591563
1088.105050	-18.576122
1088.500124	-18.602458
1088.895485	-18.567055
1089.291134	-18.535563
1089.687070	-18.481102
1090.083294	-18.477401
1090.479806	-18.468868
1090.876607	-18.466320
1091.273696	-18.404480
1091.671075	-18.367960
1092.068744	-18.339053
1092.466702	-18.352005
1092.864950	-18.328006
1093.263489	-18.298971
1093.662319	-18.242520
1094.061440	-18.236444
1094.460852	-18.244945
1094.860555	-18.241763
1095.260551	-18.201236
1095.660840	-18.175532
1096.061421	-18.154320
1096.462295	-18.168601
1096.863462	-18.168980
1097.264923	-18.125899
1097.666678	-18.085778
1098.068727	-18.067443
1098.471071	-18.061496
1098.873710	-18.050758
1099.276644	-17.996582
1099.679874	-17.941531
1100.083400	-17.923243
1100.487222	-17.892593
1100.891340	-17.880762
1101.295756	-17.820943
1101.700468	-17.778494
1102.105478	-17.753255
1102.510787	-17.742323
1102.916393	-17.713700
1103.322298	-17.698522
1103.728502	-17.657819
1104.135005	-17.660494
1104.541807	-17.637960
1104.948909	-17.651850
1105.356312	-17.634423
1105.764015	-17.625238
1106.172019	-17.598402
1106.580324	-17.611216
1106.988931	-17.611456
1107.397840	-17.601555
1107.807051	-17.562936
1108.216564	-17.545602
1108.626380	-17.538300
1109.036500	-17.535638
1109.446923	-17.480624
1109.857649	-17.465565
1110.268680	-17.424016
1110.680016	-17.404471
1111.091657	-17.387824
1111.503602	-17.359931
1111.915854	-17.324317
1112.328411	-17.292909
1112.741275	-17.281441
1113.154445	-17.288447
1113.567922	-17.263045
1113.981706	-17.234058
1114.395798	-17.234985
1114.810198	-17.234230
1115.224906	-17.236146
1115.639923	-17.238858
1116.055249	-17.208998
1116.470884	-17.203275
1116.886829	-17.207568
1117.303084	-17.205609
1117.719650	-17.180733
1118.136526	-17.150801
1118.553713	-17.122017
1118.971212	-17.092965
1119.389022	-17.078465
1119.807145	-17.029954
1120.225580	-16.978987
1120.644328	-16.917731
1121.063389	-16.889076
1121.482763	-16.843356
1121.902452	-16.803131
1122.322454	-16.745900
1122.742771	-16.675650
1123.163404	-16.661428
1123.584351	-16.639172
1124.005614	-16.598599
1124.427193	-16.566054
1124.849089	-16.537463
1125.271301	-16.516063
1125.693830	-16.534309
1126.116677	-16.533903
1126.539842	-16.504163
1126.963324	-16.497538
1127.387126	-16.505441
1127.811246	-16.533179
1128.235685	-16.535286
1128.660444	-16.523791
1129.085522	-16.505593
1129.510922	-16.518104
1129.936641	-16.531942
1130.362682	-16.522137
1130.789044	-16.481960
1131.215728	-16.462978
1131.642734	-16.455198
1132.070063	-16.434321
1132.497714	-16.390912
1132.925689	-16.355308
1133.353987	-16.314281
1133.782610	-16.281854
1134.211556	-16.229970
1134.640827	-16.195821
1135.070424	-16.165405
1135.500345	-16.112553
1135.930593	-16.044611
1136.361166	-16.029700
1136.792067	-16.024479
1137.223294	-15.983526
1137.654848	-15.901835
1138.086730	-15.888062
1138.518940	-15.907798
1138.951479	-15.892649
1139.384346	-15.840859
1139.817543	-15.809418
1140.251069	-15.816988
1140.684925	-15.829396
1141.119111	-15.814236
1141.553628	-15.806775
1141.988475	-15.774538
1142.423655	-15.766327
1142.859166	-15.793908
1143.295009	-15.810789
1143.731185	-15.763633
1144.167694	-15.739575
1144.604536	-15.747659
1145.041711	-15.757532
1145.479221	-15.750275
1145.917065	-15.723909
1146.355245	-15.688533
1146.793759	-15.675415
1147.232609	-15.665747
1147.671795	-15.666965
1148.111317	-15.642945
1148.551177	-15.581162
1148.991373	-15.541746
1149.431907	-15.564661
1149.872779	-15.550737
1150.313989	-15.490115
1150.755538	-15.448413
1151.197426	-15.434144
1151.639653	-15.419481
1152.082220	-15.400817
1152.525128	-15.367060
1152.968376	-15.320919
1153.411966	-15.302520
1153.855897	-15.305241
1154.300169	-15.285258
1154.744784	-15.240055
1155.189742	-15.213763
1155.635042	-15.208221
1156.080687	-15.208051
1156.526674	-15.186717
1156.973007	-15.147729
1157.419683	-15.119368
1157.866705	-15.127480
1158.314072	-15.124660
1158.761786	-15.105552
1159.209845	-15.058108
1159.658251	-15.032701
1160.107004	-15.042520
1160.556104	-15.042408
1161.005553	-15.010818
1161.455349	-14.971264
1161.905494	-14.935458
1162.355989	-14.944467
1162.806832	-14.942178
1163.258026	-14.906897
1163.709570	-14.862595
1164.161464	-14.842939
1164.613710	-14.837983
1165.066307	-14.828436
1165.519256	-14.786125
1165.972558	-14.750294
1166.426212	-14.740397
1166.880219	-14.751626
1167.334580	-14.715797
1167.789295	-14.669790
1168.244364	-14.634485
1168.699788	-14.647803
1169.155567	-14.668566
1169.611702	-14.632747
1170.068193	-14.565331
1170.525041	-14.531239
1170.982245	-14.561390
1171.439807	-14.592981
1171.897726	-14.557082
1172.356004	-14.491741
1172.814640	-14.447878
1173.273635	-14.478126
1173.732989	-14.511833
1174.192703	-14.486964
1174.652778	-14.419818
1175.113213	-14.391294
1175.574009	-14.406613
1176.035167	-14.419366
1176.496687	-14.402551
1176.958569	-14.353158
1177.420814	-14.334919
1177.883422	-14.338170
1178.346394	-14.330995
1178.809730	-14.298941
1179.273430	-14.277869
1179.737496	-14.273282
1180.201927	-14.275435
1180.666723	-14.242666
1181.131886	-14.202349
1181.597416	-14.192073
1182.063312	-14.208438
1182.529576	-14.204856
1182.996209	-14.169213
1183.463209	-14.125075
1183.930579	-14.115019
1184.398317	-14.134657
1184.866426	-14.149035
1185.334904	-14.115215
1185.803754	-14.072479
1186.272974	-14.063355
1186.742566	-14.077519
1187.212529	-14.091718
1187.682865	-14.084813
1188.153574	-14.048655
1188.624656	-14.021317
1189.096112	-14.028780
1189.567942	-14.050507
1190.040147	-14.053074
1190.512726	-14.020053
1190.985681	-13.990115
1191.459012	-13.973929
1191.932720	-13.994329
1192.406804	-13.999784
1192.881265	-13.973948
1193.356104	-13.922492
1193.831322	-13.899430
1194.306918	-13.912002
1194.782893	-13.913174
1195.259248	-13.878128
1195.735982	-13.832040
1196.213097	-13.799222
1196.690593	-13.794906
1197.168471	-13.800705
1197.646730	-13.761471
1198.125371	-13.707844
1198.604395	-13.684201
1199.083803	-13.676193
1199.563594	-13.664055
1200.043769	-13.639294
1200.524329	-13.590570
1201.005273	-13.562566
1201.486604	-13.561113
1201.968320	-13.550939
1202.450422	-13.517096
1202.932912	-13.486542
1203.415789	-13.462731
1203.899054	-13.460371
1204.382707	-13.449729
1204.866748	-13.426334
1205.351179	-13.396412
1205.836000	-13.379881
1206.321211	-13.386644
1206.806812	-13.374445
1207.292805	-13.345019
1207.779189	-13.332236
1208.265965	-13.329183
1208.753134	-13.321574
1209.240696	-13.319546
1209.728651	-13.296960
1210.217000	-13.286256
1210.705744	-13.288922
1211.194883	-13.288934
1211.684417	-13.276382
1212.174347	-13.261266
1212.664673	-13.263115
1213.155396	-13.263529
1213.646516	-13.254128
1214.138034	-13.251192
1214.629951	-13.236826
1215.122266	-13.240252
1215.614980	-13.235982
1216.108095	-13.226684
1216.601609	-13.214768
1217.095524	-13.212820
1217.589841	-13.209564
1218.084559	-13.194350
1218.579679	-13.183448
1219.075202	-13.178747
1219.571128	-13.170839
1220.067458	-13.154105
1220.564191	-13.135806
1221.061330	-13.131504
1221.558874	-13.122374
1222.056823	-13.099677
1222.555178	-13.082113
1223.053940	-13.071885
1223.553109	-13.055228
1224.052686	-13.043435
1224.552671	-13.021008
1225.053065	-12.993005
1225.553867	-12.986520
1226.055079	-12.984060
1226.556702	-12.944988
1227.058735	-12.919937
1227.561179	-12.916783
1228.064035	-12.906712
1228.567303	-12.876559
1229.070983	-12.850817
1229.575077	-12.838147
1230.079585	-12.834553
1230.584506	-12.808328
1231.089842	-12.784038
1231.595594	-12.768033
1232.101761	-12.756082
1232.608345	-12.747989
1233.115345	-12.724474
1233.622762	-12.691745
1234.130597	-12.695974
1234.638851	-12.685456
1235.147523	-12.663370
1235.656615	-12.633703
1236.166126	-12.632200
1236.676058	-12.631065
1237.186411	-12.602547
1237.697185	-12.584547
1238.208381	-12.579475
1238.719999	-12.572220
1239.232040	-12.555257
1239.744505	-12.540818
1240.257394	-12.529077
1240.770708	-12.521683
1241.284446	-12.515188
1241.798610	-12.503714
1242.313201	-12.484231
1242.828218	-12.481356
1243.343662	-12.483066
1243.859534	-12.468881
1244.375834	-12.448676
1244.892563	-12.452586
1245.409721	-12.456069
1245.927309	-12.438017
1246.445327	-12.425710
1246.963777	-12.430011
1247.482657	-12.431770
1248.001970	-12.415632
1248.521716	-12.410589
1249.041894	-12.410483
1249.562506	-12.412389
1250.083553	-12.400482
1250.605034	-12.396772
1251.126950	-12.394295
1251.649302	-12.393978
1252.172091	-12.388731
1252.695316	-12.383130
1253.218979	-12.377057
1253.743079	-12.377706
1254.267619	-12.376088
1254.792597	-12.363190
1255.318015	-12.357975
1255.843874	-12.361942
1256.370173	-12.355753
1256.896913	-12.340146
1257.424095	-12.336262
1257.951720	-12.339578
1258.479787	-12.329004
1259.008298	-12.312192
1259.537254	-12.311516
1260.066654	-12.311349
1260.596499	-12.295070
1261.126790	-12.282083
1261.657527	-12.282043
1262.188711	-12.276568
1262.720342	-12.259088
1263.252422	-12.250423
1263.784950	-12.248611
1264.317928	-12.237948
1264.851355	-12.223753
1265.385232	-12.217219
1265.919560	-12.212526
1266.454340	-12.199779
1266.989572	-12.189905
1267.525256	-12.184157
1268.061394	-12.175495
1268.597985	-12.164711
1269.135031	-12.157946
1269.672531	-12.151024
1270.210487	-12.140087
1270.748899	-12.134001
1271.287768	-12.127531
1271.827094	-12.117483
1272.366877	-12.108583
1272.907119	-12.105490
1273.447820	-12.097537
1273.988981	-12.085511
1274.530601	-12.080467
1275.072683	-12.077475
1275.615226	-12.067385
1276.158230	-12.054707
1276.701697	-12.054163
1277.245627	-12.049901
1277.790021	-12.035645
1278.334879	-12.026472
1278.880202	-12.028320
1279.425991	-12.020138
1279.972245	-12.003592
1280.518966	-12.001037
1281.066155	-12.001183
1281.613811	-11.989309
1282.161936	-11.973920
1282.710529	-11.975538
1283.259593	-11.974072
1283.809126	-11.957829
1284.359131	-11.948336
1284.909607	-11.951429
1285.460555	-11.946734
1286.011976	-11.928779
1286.563870	-11.926079
1287.116237	-11.929830
1287.669080	-11.919528
1288.222397	-11.905459
1288.776191	-11.906821
1289.330460	-11.909208
1289.885207	-11.895217
1290.440431	-11.886718
1290.996133	-11.891027
1291.552314	-11.889276
1292.108975	-11.874317
1292.666115	-11.871544
1293.223737	-11.877242
1293.781839	-11.869569
1294.340424	-11.856895
1294.899491	-11.859173
1295.459041	-11.862698
1296.019075	-11.850031
1296.579593	-11.841886
1297.140597	-11.848279
1297.702086	-11.845668
1298.264061	-11.831602
1298.826524	-11.828419
1299.389474	-11.835878
1299.952912	-11.827177
1300.516839	-11.814961
1301.081255	-11.816546
1301.646162	-11.820398
1302.211559	-11.810550
1302.777448	-11.798755
1303.343829	-11.806001
1303.910702	-11.806526
1304.478069	-11.792974
1305.045930	-11.788547
1305.614285	-11.796420
1306.183136	-11.793418
1306.752483	-11.780932
1307.322326	-11.782865
1307.892666	-11.789111
1308.463504	-11.783784
1309.034841	-11.775616
1309.606677	-11.781101
1310.179012	-11.785845
1310.751849	-11.778562
1311.325186	-11.777255
1311.899025	-11.783352
1312.473366	-11.784756
1313.048211	-11.780826
1313.623559	-11.782677
1314.199412	-11.788425
1314.775770	-11.787997
1315.352634	-11.788023
1315.930004	-11.791098
1316.507881	-11.794640
1317.086266	-11.796102
1317.665159	-11.797795
1318.244562	-11.800176
1318.824474	-11.803615
1319.404897	-11.807785
1319.985831	-11.808022
1320.567276	-11.810549
1321.149234	-11.817207
1321.731706	-11.820860
1322.314691	-11.820503
1322.898190	-11.823723
1323.482205	-11.835482
1324.066736	-11.836291
1324.651783	-11.835104
1325.237347	-11.844270
1325.823430	-11.855816
1326.410031	-11.855755
1326.997151	-11.853856
1327.584791	-11.871231
1328.172952	-11.880632
1328.761634	-11.874505
1329.350839	-11.881971
1329.940566	-11.901965
1330.530817	-11.903641
1331.121592	-11.898500
1331.712891	-11.915489
1332.304716	-11.930686
1332.897068	-11.925535
1333.489946	-11.928643
1334.083352	-11.948933
1334.677287	-11.954530
1335.271750	-11.950618
1335.866744	-11.961737
1336.462268	-11.977451
1337.058323	-11.977897
1337.654910	-11.979006
1338.252029	-11.993883
1338.849682	-12.002722
1339.447869	-12.003802
1340.046591	-12.010603
1340.645848	-12.021962
1341.245641	-12.028409
1341.845972	-12.035312
1342.446840	-12.040243
1343.048246	-12.047452
1343.650191	-12.060588
1344.252677	-12.065487
1344.855702	-12.065771
1345.459269	-12.078926
1346.063379	-12.091772
1346.668030	-12.090657
1347.273226	-12.093316
1347.878965	-12.111550
1348.485250	-12.118811
1349.092080	-12.112965
1349.699456	-12.123727
1350.307380	-12.141170
1350.915851	-12.140629
1351.524871	-12.138386
1352.134441	-12.154175
1352.744560	-12.166017
1353.355231	-12.162867
1353.966453	-12.167177
1354.578227	-12.182585
1355.190555	-12.188299
1355.803436	-12.188916
1356.416872	-12.197066
1357.030863	-12.206185
1357.645411	-12.214567
1358.260515	-12.217913
1358.876177	-12.220310
1359.492397	-12.233640
1360.109176	-12.244406
1360.726516	-12.240969
1361.344416	-12.245704
1361.962877	-12.265693
1362.581901	-12.269839
1363.201487	-12.263140
1363.821637	-12.278820
1364.442352	-12.295321
1365.063632	-12.291775
1365.685478	-12.294226
1366.307891	-12.313027
1366.930871	-12.321677
1367.554420	-12.320073
1368.178538	-12.329816
1368.803226	-12.345259
1369.428485	-12.352162
1370.054315	-12.355101
1370.680717	-12.364499
1371.307693	-12.380258
1371.935242	-12.390233
1372.563366	-12.390627
1373.192065	-12.400418
1373.821341	-12.423762
1374.451193	-12.429200
1375.081623	-12.426798
1375.712632	-12.446283
1376.344221	-12.470267
1376.976389	-12.467808
1377.609139	-12.470650
1378.242470	-12.500459
1378.876384	-12.514607
1379.510881	-12.510112
1380.145963	-12.526437
1380.781629	-12.552986
1381.417881	-12.560621
1382.054720	-12.563961
1382.692147	-12.582687
1383.330161	-12.606642
1383.968765	-12.617280
1384.607959	-12.619322
1385.247743	-12.641297
1385.888119	-12.672057
1386.529087	-12.675295
1387.170648	-12.678225
1387.812804	-12.712813
1388.455554	-12.737872
1389.098899	-12.733275
1389.742842	-12.748006
1390.387381	-12.786108
1391.032519	-12.799730
1391.678256	-12.798909
1392.324592	-12.823261
1392.971529	-12.856504
1393.619068	-12.868478
1394.267208	-12.871590
1394.915952	-12.897870
1395.565300	-12.934786
1396.215253	-12.942542
1396.865812	-12.945347
1397.516977	-12.981738
1398.168749	-13.017544
1398.821130	-13.016859
1399.474120	-13.029128
1400.127719	-13.071245
1400.781930	-13.094428
1401.436752	-13.097074
1402.092186	-13.117369
1402.748234	-13.151964
1403.404897	-13.171215
1404.062174	-13.181898
1404.720067	-13.200641
1405.378577	-13.231706
1406.037705	-13.255832
1406.697451	-13.263804
1407.357817	-13.284418
1408.018803	-13.318029
1408.680410	-13.335933
1409.342639	-13.347716
1410.005492	-13.372477
1410.668968	-13.399412
1411.333068	-13.420854
1411.997795	-13.438699
1412.663147	-13.456343
1413.329127	-13.483775
1413.995736	-13.510555
1414.662973	-13.522147
1415.330840	-13.537513
1415.999339	-13.565156
1416.668469	-13.589121
1417.338232	-13.604253
1418.008628	-13.616196
1418.679659	-13.638908
1419.351325	-13.671812
1420.023628	-13.687064
1420.696568	-13.689670
1421.370145	-13.714661
1422.044362	-13.749219
1422.719219	-13.760003
1423.394717	-13.760608
1424.070856	-13.781842
1424.747638	-13.819206
1425.425064	-13.835936
1426.103134	-13.829879
1426.781850	-13.851778
1427.461212	-13.899825
1428.141221	-13.907999
1428.821878	-13.896996
1429.503185	-13.924563
1430.185141	-13.963571
1430.867749	-13.962901
1431.551008	-13.956172
1432.234920	-13.983103
1432.919486	-14.015221
1433.604707	-14.020282
1434.290583	-14.017416
1434.977116	-14.048728
1435.664307	-14.079165
1436.352156	-14.075225
1437.040664	-14.082315
1437.729833	-14.106293
1438.419663	-14.112819
1439.110156	-14.112103
1439.801312	-14.121183
1440.493132	-14.130218
1441.185617	-14.134860
1441.878768	-14.146054
1442.572586	-14.165303
1443.267072	-14.174009
1443.962228	-14.181637
1444.658053	-14.209674
1445.354549	-14.226359
1446.051717	-14.216332
1446.749558	-14.225452
1447.448073	-14.245880
1448.147263	-14.233600
1448.847128	-14.216888
1449.547671	-14.228125
1450.248891	-14.238258
1450.950789	-14.227886
1451.653368	-14.229987
1452.356627	-14.261636
1453.060568	-14.280328
1453.765192	-14.279306
1454.470500	-14.305884
1455.176492	-14.336615
1455.883170	-14.329005
1456.590534	-14.324460
1457.298586	-14.336780
1458.007327	-14.323064
1458.716758	-14.292513
1459.426880	-14.282648
1460.137693	-14.278268
1460.849199	-14.258246
1461.561398	-14.246324
1462.274293	-14.270870
1462.987883	-14.279901
1463.702170	-14.289916
1464.417155	-14.324992
1465.132838	-14.357056
1465.849222	-14.367003
1466.566306	-14.379268
1467.284093	-14.391069
1468.002582	-14.369171
1468.721775	-14.328873
1469.441674	-14.294186
1470.162278	-14.239084
1470.883590	-14.163357
1471.605609	-14.105086
1472.328338	-14.055485
1473.051777	-13.994366
1473.775928	-13.956480
1474.500790	-13.947177
1475.226367	-13.929669
1475.952657	-13.926694
1476.679663	-13.947519
1477.407386	-13.953787
1478.135826	-13.950183
1478.864985	-13.948900
1479.594863	-13.922698
1480.325463	-13.865452
1481.056784	-13.792184
1481.788828	-13.700565
1482.521597	-13.578949
1483.255090	-13.447440
1483.989309	-13.324131
1484.724256	-13.193092
1485.459931	-13.073140
1486.196336	-12.988738
1486.933471	-12.921786
1487.671337	-12.881374
1488.409937	-12.889274
1489.149270	-12.929769
1489.889337	-12.997566
1490.630141	-13.106500
1491.371682	-13.246166
1492.113961	-13.393393
1492.856979	-13.551869
1493.600738	-13.716317
1494.345238	-13.847270
1495.090481	-13.944625
1495.836467	-14.014314
1496.583198	-14.016829
1497.330675	-13.965754
1498.078899	-13.886546
1498.827872	-13.754556
1499.577593	-13.595694
1500.328065	-13.441815
1501.079289	-13.275931
1501.831265	-13.116385
1502.583995	-12.988547
1503.337480	-12.876924
1504.091721	-12.784060
1504.846719	-12.730982
1505.602475	-12.703047
1506.358991	-12.687329
1507.116268	-12.704022
1507.874306	-12.734614
1508.633108	-12.752365
1509.392673	-12.774177
1510.153004	-12.771278
1510.914101	-12.707020
1511.675965	-12.596904
1512.438599	-12.411472
1513.202002	-12.127785
1513.966176	-11.778209
1514.731122	-11.357378
1515.496842	-10.872288
1516.263336	-10.367162
1517.030607	-9.850114
1517.798654	-9.331705
1518.567479	-8.844268
1519.337083	-8.393279
1520.107468	-7.978339
1520.878634	-7.619910
1521.650584	-7.320430
1522.423317	-7.072117
1523.196836	-6.891566
1523.971141	-6.779338
1524.746233	-6.726132
1525.522115	-6.748050
1526.298786	-6.845658
1527.076249	-7.012013
1527.854504	-7.262269
1528.633553	-7.601336
1529.413397	-8.025484
1530.194037	-8.550077
1530.975474	-9.189298
1531.757709	-9.939772
1532.540745	-10.821787
1533.324581	-11.859095
1534.109220	-13.034849
1534.894662	-14.350315
1535.680909	-15.761868
1536.467961	-17.066885
1537.255821	-17.927010
1538.044489	-18.012532
1538.833967	-17.320627
1539.624256	-16.182747
1540.415357	-14.972345
1541.207271	-13.851380
1542.000000	-12.854813
1542.793545	-12.011650
1543.587907	-11.315302
1544.383087	-10.735536
1545.179088	-10.270837
1545.975909	-9.915894
1546.773552	-9.641730
1547.572019	-9.453228
1548.371311	-9.347223
1549.171428	-9.299210
1549.972373	-9.321537
1550.774147	-9.406223
1551.576751	-9.536222
1552.380185	-9.725244
1553.184453	-9.961139
1553.989554	-10.232260
1554.795490	-10.550046
1555.602263	-10.900628
1556.409873	-11.273557
1557.218322	-11.682090
1558.027612	-12.106665
1558.837743	-12.541014
1559.648717	-13.002713
1560.460536	-13.462072
1561.273200	-13.928470
1562.086710	-14.412785
1562.901069	-14.880658
1563.716278	-15.361425
1564.532337	-15.841730
1565.349249	-16.296510
1566.167014	-16.757192
1566.985634	-17.179571
1567.805111	-17.560423
1568.625444	-17.904587
1569.446637	-18.154614
1570.268690	-18.332200
1571.091605	-18.408264
1571.915382	-18.364592
1572.740024	-18.237646
1573.565532	-17.998028
1574.391907	-17.688753
1575.219150	-17.324980
1576.047262	-16.908822
1576.876246	-16.487385
1577.706103	-16.046963
1578.536833	-15.614503
1579.368439	-15.201034
1580.200922	-14.797505
1581.034282	-14.430100
1581.868522	-14.083503
1582.703643	-13.767178
1583.539646	-13.487321
1584.376532	-13.230377
1585.214304	-13.013118
1586.052962	-12.822387
1586.892508	-12.660942
1587.732943	-12.534190
1588.574269	-12.428029
1589.416487	-12.355452
1590.259599	-12.304848
1591.103605	-12.276328
1591.948508	-12.274820
1592.794309	-12.286090
1593.641009	-12.321695
1594.488609	-12.369789
1595.337112	-12.429646
1596.186518	-12.504818
1597.036829	-12.580878
1597.888047	-12.669235
1598.740172	-12.756546
1599.593207	-12.844644
1600.447153	-12.934841
1601.302010	-13.016248
1602.157782	-13.099934
1603.014469	-13.173511
1603.872072	-13.242941
1604.730593	-13.307411
1605.590034	-13.361711
1606.450397	-13.416092
1607.311681	-13.460924
1608.173890	-13.506518
1609.037024	-13.549063
1609.901085	-13.590431
1610.766075	-13.635845
1611.631995	-13.680132
1612.498846	-13.732703
1613.366630	-13.786949
1614.235349	-13.850042
1615.105004	-13.918661
1615.975596	-13.995030
1616.847128	-14.080829
1617.719600	-14.172300
1618.593014	-14.274995
1619.467372	-14.380370
1620.342675	-14.496205
1621.218924	-14.613067
1622.096122	-14.735845
1622.974270	-14.859831
1623.853369	-14.981848
1624.733420	-15.106200
1625.614427	-15.219970
1626.496389	-15.334642
1627.379308	-15.434206
1628.263187	-15.529533
1629.148026	-15.611936
1630.033828	-15.682353
1630.920593	-15.745811
1631.808324	-15.792176
1632.697022	-15.837038
1633.586688	-15.866157
1634.477324	-15.894568
1635.368932	-15.913398
1636.261514	-15.928812
1637.155070	-15.942151
1638.049602	-15.949838
1638.945113	-15.959826
1639.841603	-15.963639
1640.739075	-15.970055
1641.637529	-15.970851
1642.536968	-15.972307
1643.437393	-15.967889
1644.338806	-15.961803
1645.241209	-15.948146
1646.144602	-15.930755
1647.048988	-15.905085
1647.954368	-15.873637
1648.860744	-15.836023
1649.768118	-15.790149
1650.676491	-15.742380
1651.585865	-15.685150
1652.496241	-15.630695
1653.407621	-15.568402
1654.320008	-15.510868
1655.233401	-15.449322
1656.147804	-15.391510
1657.063218	-15.334493
1657.979645	-15.278807
1658.897085	-15.226775
1659.815542	-15.173629
1660.735016	-15.124036
1661.655509	-15.071985
1662.577023	-15.021892
1663.499560	-14.968855
1664.423121	-14.916828
1665.347709	-14.861422
1666.273324	-14.807894
1667.199969	-14.750867
1668.127645	-14.697834
1669.056353	-14.641369
1669.986097	-14.590222
1670.916877	-14.536370
1671.848695	-14.487237
1672.781553	-14.437117
1673.715452	-14.389813
1674.650395	-14.343809
1675.586383	-14.297847
1676.523418	-14.254051
1677.461501	-14.208313
1678.400635	-14.164973
1679.340821	-14.119147
1680.282061	-14.075635
1681.224357	-14.030403
1682.167710	-13.988280
1683.112122	-13.944686
1684.057595	-13.905123
1685.004132	-13.863453
1685.951732	-13.826932
1686.900400	-13.786784
1687.850135	-13.752352
1688.800940	-13.713494
1689.752818	-13.680393
1690.705768	-13.643282
1691.659795	-13.610841
1692.614898	-13.575475
1693.571081	-13.543502
1694.528345	-13.509992
1695.486691	-13.479378
1696.446122	-13.447865
1697.406640	-13.419384
1698.368245	-13.389851
1699.330941	-13.363966
1700.294729	-13.336193
1701.259611	-13.311966
1702.225588	-13.285480
1703.192664	-13.262202
1704.160838	-13.237651
1705.130114	-13.215357
1706.100493	-13.193401
1707.071977	-13.172826
1708.044568	-13.153522
1709.018268	-13.135130
1709.993079	-13.117493
1710.969003	-13.101214
1711.946041	-13.084468
1712.924196	-13.069850
1713.903469	-13.053545
1714.883862	-13.039788
1715.865378	-13.024277
1716.848017	-13.011104
1717.831783	-12.997363
1718.816677	-12.985278
1719.802701	-12.973700
1720.789857	-12.962929
1721.778147	-12.952299
1722.767573	-12.942480
1723.758136	-12.931629
1724.749840	-12.922627
1725.742685	-12.911662
1726.736673	-12.903776
1727.731808	-12.893765
1728.728090	-12.886841
1729.725521	-12.878217
1730.724105	-12.871686
1731.723842	-12.864421
1732.724735	-12.858166
1733.726785	-12.852099
1734.729995	-12.846753
1735.734366	-12.841728
1736.739902	-12.837873
1737.746603	-12.833622
1738.754472	-12.831146
1739.763510	-12.827810
1740.773721	-12.826384
1741.785105	-12.824509
1742.797665	-12.823791
1743.811403	-12.823383
1744.826321	-12.822642
1745.842422	-12.823259
1746.859706	-12.822424
1747.878177	-12.823579
1748.897835	-12.823210
1749.918685	-12.824777
1750.940726	-12.825576
1751.963963	-12.827638
1752.988395	-12.829245
1754.014027	-12.831516
1755.040860	-12.833285
1756.068895	-12.836004
1757.098135	-12.838074
1758.128583	-12.841837
1759.160240	-12.844807
1760.193109	-12.849662
1761.227191	-12.854007
1762.262488	-12.859657
1763.299004	-12.865845
1764.336740	-12.872136
1765.375697	-12.880050
1766.415880	-12.886924
1767.457288	-12.896035
1768.499926	-12.903743
1769.543794	-12.913737
1770.588895	-12.922757
1771.635231	-12.933501
1772.682805	-12.943916
1773.731619	-12.955296
1774.781674	-12.966824
1775.832973	-12.978622
1776.885519	-12.990407
1777.939312	-13.002297
1778.994357	-13.014197
1780.050654	-13.026178
1781.108207	-13.038409
1782.167017	-13.050339
1783.227087	-13.062928
1784.288418	-13.074882
1785.351013	-13.087842
1786.414875	-13.099503
1787.480006	-13.112310
1788.546407	-13.123601
1789.614082	-13.136055
1790.683032	-13.147884
1791.753259	-13.160498
1792.824767	-13.173912
1793.897557	-13.186737
1794.971632	-13.201200
1796.046994	-13.213726
1797.123645	-13.228047
1798.201588	-13.240595
1799.280824	-13.254721
1800.361357	-13.268743
1801.443188	-13.282860
1802.526320	-13.298234
1803.610756	-13.312530
1804.696497	-13.328590
1805.783546	-13.344018
1806.871906	-13.360241
1807.961578	-13.376645
1809.052565	-13.392720
1810.144870	-13.409736
1811.238494	-13.426688
1812.333441	-13.444654
1813.429713	-13.463461
1814.527311	-13.482074
1815.626239	-13.501802
1816.726499	-13.520555
1817.828094	-13.540053
1818.931025	-13.559399
1820.035295	-13.578642
1821.140906	-13.599336
1822.247862	-13.619438
1823.356165	-13.641203
1824.465816	-13.662200
1825.576819	-13.683376
1826.689175	-13.704284
1827.802888	-13.724082
1828.917960	-13.744676
1830.034394	-13.764153
1831.152191	-13.784765
1832.271354	-13.804763
1833.391887	-13.824853
1834.513790	-13.844922
1835.637068	-13.863768
1836.761722	-13.883043
1837.887755	-13.901003
1839.015169	-13.919470
1840.143968	-13.937321
1841.274153	-13.955297
1842.405727	-13.973572
1843.538693	-13.991346
1844.673053	-14.009383
1845.808810	-14.026086
1846.945966	-14.042890
1848.084525	-14.059026
1849.224488	-14.075424
1850.365858	-14.092323
1851.508638	-14.109048
1852.652831	-14.126227
1853.798438	-14.142068
1854.945463	-14.157676
1856.093909	-14.172024
1857.243777	-14.185851
1858.395071	-14.199288
1859.547794	-14.212300
1860.701947	-14.225806
1861.857533	-14.238748
1863.014556	-14.252079
1864.173018	-14.264589
1865.332922	-14.276949
1866.494270	-14.288710
1867.657065	-14.299993
1868.821309	-14.311451
1869.987006	-14.322693
1871.154158	-14.334528
1872.322768	-14.346031
1873.492839	-14.357435
1874.664373	-14.367784
1875.837373	-14.377433
1877.011841	-14.386690
1878.187782	-14.395854
1879.365197	-14.405325
1880.544089	-14.414000
1881.724460	-14.422248
1882.906315	-14.429065
1884.089655	-14.435075
1885.274483	-14.440587
1886.460803	-14.445932
1887.648616	-14.451457
1888.837927	-14.456309
1890.028736	-14.460769
1891.221049	-14.464182
1892.414866	-14.466908
1893.610192	-14.468429
1894.807028	-14.468832
1896.005379	-14.468170
1897.205246	-14.466453
1898.406633	-14.464411
1899.609542	-14.461102
1900.813977	-14.457171
1902.019940	-14.451755
1903.227434	-14.445027
1904.436462	-14.437207
1905.647028	-14.427996
1906.859133	-14.418531
1908.072781	-14.408663
1909.287976	-14.398617
1910.504719	-14.387820
1911.723013	-14.375687
1912.942863	-14.362482
1914.164270	-14.348383
1915.387238	-14.333804
1916.611770	-14.318668
1917.837868	-14.302992
1919.065536	-14.286493
1920.294777	-14.269190
1921.525594	-14.251346
1922.757989	-14.232950
1923.991967	-14.214657
1925.227529	-14.196116
1926.464679	-14.177673
1927.703420	-14.159263
1928.943755	-14.140624
1930.185688	-14.122321
1931.429221	-14.104003
1932.674356	-14.086287
1933.921099	-14.068947
1935.169451	-14.051512
1936.419415	-14.033947
1937.670996	-14.016179
1938.924195	-13.998313
1940.179017	-13.979985
1941.435463	-13.961051
1942.693538	-13.941362
1943.953245	-13.921124
1945.214586	-13.900334
1946.477566	-13.878792
1947.742186	-13.856772
1949.008451	-13.834167
1950.276363	-13.811319
1951.545926	-13.788198
1952.817143	-13.764590
1954.090017	-13.740468
1955.364551	-13.715317
1956.640749	-13.689258
1957.918615	-13.662808
1959.198150	-13.636396
1960.479359	-13.610058
1961.762244	-13.583470
1963.046810	-13.556086
1964.333059	-13.527771
1965.620995	-13.498961
1966.910621	-13.469984
1968.201940	-13.441018
1969.494956	-13.411776
1970.789672	-13.382183
1972.086091	-13.352324
1973.384217	-13.322197
1974.684053	-13.292542
1975.985602	-13.263273
1977.288869	-13.234401
1978.593855	-13.206463
1979.900566	-13.179099
1981.209003	-13.152497
1982.519171	-13.126503
1983.831073	-13.101326
1985.144712	-13.077090
1986.460093	-13.054018
1987.777217	-13.031714
1989.096089	-13.009417
1990.416713	-12.987368
1991.739092	-12.965566
1993.063228	-12.944518
1994.389127	-12.924105
1995.716791	-12.903867
1997.046223	-12.883666
1998.377428	-12.863296
1999.710409	-12.843038
2001.045169	-12.822969
2002.381713	-12.803187
2003.720043	-12.783148
2005.060163	-12.762646
2006.402077	-12.741928
2007.745788	-12.721424
2009.091301	-12.701358
2010.438618	-12.681167
2011.787743	-12.660470
2013.138680	-12.639048
2014.491433	-12.616837
2015.846005	-12.594504
2017.202399	-12.572612
2018.560621	-12.551160
2019.920673	-12.529476
2021.282558	-12.507110
2022.646281	-12.484332
2024.011846	-12.461814
2025.379256	-12.439956
2026.748515	-12.418707
2028.119626	-12.398168
2029.492594	-12.377939
2030.867422	-12.357940
2032.244114	-12.338676
2033.622673	-12.320631
2035.003104	-12.303656
2036.385411	-12.287172
2037.769597	-12.271195
2039.155665	-12.256101
2040.543621	-12.242396
2041.933467	-12.230381
2043.325208	-12.219543
2044.718847	-12.209059
2046.114389	-12.198821
2047.511837	-12.189760
2048.911195	-12.182143
2050.312467	-12.175197
2051.715657	-12.168369
2053.120769	-12.161508
2054.527807	-12.154677
2055.936775	-12.148147
2057.347677	-12.142341
2058.760516	-12.136871
2060.175297	-12.130974
2061.592025	-12.124396
2063.010701	-12.117554
2064.431332	-12.110681
2065.853921	-12.103450
2067.278472	-12.095813
2068.704988	-12.087843
2070.133475	-12.079520
2071.563936	-12.071023
2072.996375	-12.062512
2074.430796	-12.053992
2075.867204	-12.045294
2077.305603	-12.036880
2078.745996	-12.029406
2080.188389	-12.022895
2081.632784	-12.016948
2083.079187	-12.011314
2084.527601	-12.006245
2085.978030	-12.001984
2087.430480	-11.998502
2088.884954	-11.995546
2090.341455	-11.993382
2091.799990	-11.992398
2093.260561	-11.992653
2094.723173	-11.993871
2096.187831	-11.996023
2097.654538	-11.999337
2099.123300	-12.003564
2100.594119	-12.008484
2102.067001	-12.014577
2103.541950	-12.022212
2105.018971	-12.031039
2106.498067	-12.040085
2107.979243	-12.049004
2109.462503	-12.058473
2110.947853	-12.069266
2112.435295	-12.081350
2113.924836	-12.094092
2115.416478	-12.106923
2116.910227	-12.119662
2118.406087	-12.132391
2119.904063	-12.144863
2121.404158	-12.156746
2122.906378	-12.167312
2124.410727	-12.176206
2125.917210	-12.183963
2127.425831	-12.191321
2128.936594	-12.198147
2130.449505	-12.204521
2131.964567	-12.211597
2133.481786	-12.220147
2135.001166	-12.230059
2136.522711	-12.240633
2138.046427	-12.251422
2139.572317	-12.262612
2141.100388	-12.274354
2142.630642	-12.285988
2144.163085	-12.297076
2145.697722	-12.308993
2147.234558	-12.321948
2148.773596	-12.335727
2150.314842	-12.351971
2151.858301	-12.370593
2153.403977	-12.391885
2154.951875	-12.417418
2156.502000	-12.445752
2158.054357	-12.477751
2159.608950	-12.513362
2161.165785	-12.550327
2162.724866	-12.590389
2164.286198	-12.631438
2165.849786	-12.672888
2167.415635	-12.713887
2168.983749	-12.752566
2170.554134	-12.792358
2172.126795	-12.828804
2173.701737	-12.863319
2175.278964	-12.894940
2176.858481	-12.922818
2178.440294	-12.950237
2180.024408	-12.972955
2181.610827	-12.995282
2183.199557	-13.013373
2184.790602	-13.031700
2186.383968	-13.049359
2187.979660	-13.067830
2189.577683	-13.087452
2191.178041	-13.107208
2192.780741	-13.132556
2194.385787	-13.160256
2195.993185	-13.192931
2197.602939	-13.226282
2199.215054	-13.265375
2200.829537	-13.307985
2202.446392	-13.356014
2204.065624	-13.404512
2205.687239	-13.455915
2207.311242	-13.509752
2208.937638	-13.566208
2210.566433	-13.623816
2212.197631	-13.683072
2213.831239	-13.743143
2215.467261	-13.805040
2217.105703	-13.867392
2218.746570	-13.928790
2220.389867	-13.989472
2222.035601	-14.049512
2223.683776	-14.107056
2225.334398	-14.161038
2226.987472	-14.211394
2228.643004	-14.257923
2230.300999	-14.304738
2231.961463	-14.348717
2233.624402	-14.392552
2235.289820	-14.436207
2236.957723	-14.483782
2238.628118	-14.531809
2240.301009	-14.582237
2241.976402	-14.633728
2243.654303	-14.687832
2245.334717	-14.743363
2247.017650	-14.799887
2248.703108	-14.859033
2250.391096	-14.920163
2252.081620	-14.982522
2253.774686	-15.047477
2255.470300	-15.112526
2257.168467	-15.182109
2258.869193	-15.252572
2260.572484	-15.328183
2262.278345	-15.402865
2263.986783	-15.480151
2265.697804	-15.557866
2267.411412	-15.637397
2269.127615	-15.717685
2270.846417	-15.797361
2272.567826	-15.879203
2274.291846	-15.960078
2276.018484	-16.045511
2277.747745	-16.131883
2279.479637	-16.219622
2281.214164	-16.307012
2282.951333	-16.398076
2284.691149	-16.487336
2286.433619	-16.579622
2288.178750	-16.665925
2289.926546	-16.757476
2291.677014	-16.841488
2293.430161	-16.930367
2295.185992	-17.010098
2296.944513	-17.093773
2298.705732	-17.169422
2300.469653	-17.249028
2302.236283	-17.324492
2304.005629	-17.401238
2305.777696	-17.475162
2307.552492	-17.552216
2309.330022	-17.630250
2311.110292	-17.713269
2312.893310	-17.798218
2314.679080	-17.886285
2316.467611	-17.978951
2318.258907	-18.073583
2320.052976	-18.176874
2321.849824	-18.277834
2323.649457	-18.387647
2325.451883	-18.493406
2327.257106	-18.609524
2329.065135	-18.721645
2330.875975	-18.842317
2332.689633	-18.956517
2334.506116	-19.078578
2336.325430	-19.198003
2338.147581	-19.321055
2339.972578	-19.438424
2341.800425	-19.561858
2343.631130	-19.685147
2345.464700	-19.809045
2347.301141	-19.926095
2349.140461	-20.040758
2350.982665	-20.162324
2352.827760	-20.273747
2354.675754	-20.385015
2356.526653	-20.485472
2358.380464	-20.593347
2360.237195	-20.686041
2362.096851	-20.781590
2363.959440	-20.867773
2365.824968	-20.964393
2367.693444	-21.049926
2369.564873	-21.145227
2371.439263	-21.238337
2373.316620	-21.347091
2375.196953	-21.451016
2377.080267	-21.568737
2378.966570	-21.687606
2380.855869	-21.811131
2382.748171	-21.939858
2384.643484	-22.076011
2386.541815	-22.215817
2388.443170	-22.349743
2390.347557	-22.497673
2392.254984	-22.645966
2394.165457	-22.793600
2396.078984	-22.936460
2397.995572	-23.095289
2399.915229	-23.241170
2401.837961	-23.386531
2403.763777	-23.532081
2405.692684	-23.687778
2407.624689	-23.828165
2409.559800	-23.966725
2411.498023	-24.103211
2413.439368	-24.240575
2415.383840	-24.359522
2417.331449	-24.479109
2419.282201	-24.592242
2421.236104	-24.696123
2423.193165	-24.785113
2425.153393	-24.874664
2427.116795	-24.952770
2429.083378	-25.041200
2431.053151	-25.122787
2433.026121	-25.216314
2435.002297	-25.320190
2436.981685	-25.438920
2438.964293	-25.560427
2440.950131	-25.696105
2442.939204	-25.842472
2444.931522	-25.994058
2446.927092	-26.152980
2448.925923	-26.315022
2450.928022	-26.488223
2452.933397	-26.655275
2454.942056	-26.824897
2456.954008	-27.011007
2458.969260	-27.181757
2460.987821	-27.359396
2463.009699	-27.529749
2465.034902	-27.714947
2467.063437	-27.877741
2469.095315	-28.046842
2471.130542	-28.217306
2473.169127	-28.365990
2475.211078	-28.515254
2477.256404	-28.658047
2479.305112	-28.795000
2481.357212	-28.888677
2483.412713	-28.991925
2485.471621	-29.081419
2487.533946	-29.139261
2489.599696	-29.203857
2491.668880	-29.242417
2493.741507	-29.319304
2495.817585	-29.355743
2497.897122	-29.449326
2499.980127	-29.535666
2502.066609	-29.640551
2504.156578	-29.775721
2506.250040	-29.929805
2508.347006	-30.119466
2510.447483	-30.245567
2512.551482	-30.470318
2514.659010	-30.627332
2516.770076	-30.864879
2518.884690	-31.006745
2521.002861	-31.278061
2523.124597	-31.435425
2525.249907	-31.698422
2527.378801	-31.881428
2529.511287	-32.139104
2531.647375	-32.312712
2533.787074	-32.557269
2535.930393	-32.752613
2538.077340	-32.972001
2540.227927	-33.104428
2542.382160	-33.324325
2544.540051	-33.470394
2546.701608	-33.578162
2548.866840	-33.668038
2551.035757	-33.752346
2553.208369	-33.753300
2555.384684	-33.747260
2557.564713	-33.807447
2559.748465	-33.708317
2561.935948	-33.747510
2564.127174	-33.757945
2566.322152	-33.800839
2568.520890	-33.831943
2570.723399	-33.998827
2572.929689	-34.070798
2575.139769	-34.245241
2577.353649	-34.436968
2579.571340	-34.567761
2581.792849	-34.759697
2584.018189	-34.962169
2586.247368	-35.152234
2588.480396	-35.383295
2590.717284	-35.612195
2592.958041	-35.896081
2595.202678	-36.160890
2597.451204	-36.454041
2599.703630	-36.716581
2601.959966	-37.071894
2604.220222	-37.387482
2606.484408	-37.668348
2608.752535	-37.962513
2611.024612	-38.339422
2613.300651	-38.543355
2615.580661	-38.796274
2617.864653	-38.915635
2620.152638	-39.015042
2622.444625	-39.069260
2624.740626	-38.931477
2627.040651	-38.892035
2629.344710	-38.838872
2631.652814	-38.654366
2633.964974	-38.602798
2636.281200	-38.573144
2638.601504	-38.562094
2640.925896	-38.621096
2643.254386	-38.604833
2645.586987	-38.770496
2647.923707	-38.843110
2650.264559	-38.839967
2652.609554	-38.967142
2654.958702	-39.071654
2657.312015	-39.147370
2659.669503	-39.330582
2662.031178	-39.471266
2664.397051	-39.757939
2666.767132	-39.975043
2669.141434	-40.222741
2671.519968	-40.562662
2673.902745	-40.910302
2676.289776	-41.203675
2678.681072	-41.739852
2681.076646	-42.218018
2683.476508	-42.641147
2685.880671	-43.249797
2688.289145	-43.707752
2690.701942	-44.232283
2693.119075	-44.452497
2695.540554	-44.701497
2697.966391	-44.825279
2700.396599	-44.704008
2702.831189	-44.728179
2705.270172	-44.698186
2707.713561	-44.467192
2710.161368	-44.502699
2712.613605	-44.639365
2715.070283	-44.480205
2717.531416	-44.576414
2719.997014	-44.547710
2722.467090	-44.509237
2724.941657	-44.297492
2727.420726	-44.201977
2729.904310	-44.201432
2732.392421	-43.957470
2734.885072	-44.029160
2737.382275	-44.077671
2739.884042	-43.984130
2742.390387	-44.019144
2744.901321	-44.151495
2747.416857	-44.229038
2749.937008	-44.352292
2752.461787	-44.738253
2754.991206	-45.054908
2757.525279	-45.459096
2760.064017	-46.075346
2762.607434	-46.540138
2765.155544	-47.142099
2767.708358	-47.775374
2770.265890	-48.148669
2772.828153	-48.515797
2775.395160	-48.906645
2777.966924	-49.071423
2780.543459	-49.286616
2783.124778	-49.450470
2785.710894	-49.622286
2788.301821	-50.183640
2790.897572	-50.612502
2793.498160	-51.016387
2796.103599	-51.550242
2798.713903	-51.796816
2801.329085	-51.817737
2803.949159	-52.034311
2806.574139	-51.727693
2809.204038	-51.490478
2811.838871	-51.458805
2814.478650	-51.079123
2817.123391	-50.892568
2819.773107	-50.248637
2822.427812	-49.799736
2825.087521	-49.679234
2827.752247	-49.494446
2830.422005	-49.586261
2833.096808	-49.529360
2835.776672	-49.559172
2838.461611	-50.142616
2841.151638	-50.565088
2843.846769	-51.002708
2846.547019	-51.386733
2849.252401	-51.530907
2851.962930	-51.948005
2854.678621	-52.071014
2857.399489	-52.111343
2860.125549	-52.290145
2862.856815	-52.179242
2865.593302	-52.255688
2868.335026	-52.218309
2871.082002	-52.792165
2873.834244	-53.456095
2876.591767	-53.980590
2879.354588	-54.525457
2882.122721	-54.812966
2884.896181	-55.272314
2887.674984	-55.917888
2890.459146	-56.892095
2893.248681	-58.398759
2896.043606	-59.933748
2898.843937	-60.879835
2901.649687	-60.640778
2904.460875	-59.737280
2907.277515	-58.489479
2910.099623	-57.332095
2912.927215	-56.757821
2915.760308	-56.492428
2918.598916	-56.285221
2921.443057	-56.541223
2924.292747	-57.009887
2927.148002	-57.467135
2930.008837	-58.120539
2932.875270	-58.359789
2935.747318	-58.680694
2938.624995	-58.500540
2941.508320	-58.404586
2944.397308	-57.955042
2947.291977	-58.029283
2950.192343	-57.967310
2953.098423	-57.920214
2956.010234	-58.150382
2958.927792	-57.887593
2961.851116	-57.634801
2964.780221	-57.521828
2967.715126	-57.470226
2970.655847	-57.468889
2973.602402	-57.619060
2976.554808	-57.963877
2979.513083	-58.518693
2982.477243	-59.343073
2985.447308	-60.160161
2988.423293	-61.464775
2991.405218	-62.996827
2994.393099	-64.252828
2997.386955	-65.365665
