# 2022-03-21_14.15.15
# shape = sech2
# FWHM_ps = 0.1
# carrier_nm = 1542
# frep_MHz = 12126
# pow_mW = 8000
# GDD = 0.0
# propa_len = 0.12111111111111113
# untap_len = 0.01
# taper_len = 0.061111111111111116
# waist_len = 0.02
# uptap_len = 0.02
# untap_scale = 1.0
# waist_scale = 0.23333333333333336
# workingDir = NL_20110305_12 (Spirou)
# axis = slow
# window_ps = 10.0
# steps = 200
# points = 13000
# 
# wavelength [nm]	 power spectral density [dB]
1000.248639	-22.727557
1000.582480	-22.683805
1000.916545	-22.566652
1001.250832	-22.513605
1001.585343	-22.576782
1001.920077	-22.649830
1002.255035	-22.603948
1002.590218	-22.473282
1002.925624	-22.408491
1003.261255	-22.470604
1003.597111	-22.550159
1003.933192	-22.506494
1004.269497	-22.368573
1004.606029	-22.293748
1004.942785	-22.351001
1005.279768	-22.433464
1005.616977	-22.395164
1005.954412	-22.258951
1006.292074	-22.181367
1006.629962	-22.233809
1006.968077	-22.312466
1007.306420	-22.276228
1007.644990	-22.147503
1007.983787	-22.075993
1008.322813	-22.124944
1008.662067	-22.192270
1009.001549	-22.150853
1009.341259	-22.033038
1009.681199	-21.977570
1010.021367	-22.029399
1010.361765	-22.081526
1010.702392	-22.028389
1011.043250	-21.922664
1011.384337	-21.893170
1011.725654	-21.956896
1012.067202	-21.994407
1012.408980	-21.923562
1012.750989	-21.826150
1013.093230	-21.824387
1013.435702	-21.902791
1013.778405	-21.926823
1014.121341	-21.837200
1014.464508	-21.745408
1014.807908	-21.766620
1015.151540	-21.855514
1015.495405	-21.866085
1015.839503	-21.764923
1016.183835	-21.684215
1016.528400	-21.725044
1016.873198	-21.814614
1017.218231	-21.807642
1017.563498	-21.702099
1017.908999	-21.640959
1018.254735	-21.697726
1018.600707	-21.774436
1018.946913	-21.742426
1019.293354	-21.638543
1019.640032	-21.603633
1019.986945	-21.671229
1020.334094	-21.722298
1020.681480	-21.662478
1021.029102	-21.569077
1021.376961	-21.565601
1021.725058	-21.637150
1022.073391	-21.653605
1022.421962	-21.569690
1022.770772	-21.495930
1023.119819	-21.522759
1023.469104	-21.585592
1023.818628	-21.561377
1024.168391	-21.462280
1024.518393	-21.415291
1024.868634	-21.463163
1025.219115	-21.501982
1025.569836	-21.438868
1025.920796	-21.341494
1026.271997	-21.327503
1026.623438	-21.383496
1026.975121	-21.386625
1027.327044	-21.296470
1027.679208	-21.220140
1028.031614	-21.239164
1028.384262	-21.285715
1028.737152	-21.247135
1029.090284	-21.146839
1029.443659	-21.104329
1029.797276	-21.145346
1030.151137	-21.163994
1030.505240	-21.089299
1030.859587	-21.001803
1031.214178	-20.999406
1031.569013	-21.045274
1031.924093	-21.025740
1032.279417	-20.934424
1032.634985	-20.881428
1032.990799	-20.913486
1033.346858	-20.941853
1033.703162	-20.883872
1034.059712	-20.799120
1034.416509	-20.789524
1034.773551	-20.835401
1035.130841	-20.828312
1035.488377	-20.747282
1035.846160	-20.693294
1036.204190	-20.722210
1036.562468	-20.756816
1036.920994	-20.712997
1037.279768	-20.637943
1037.638790	-20.629276
1037.998061	-20.674507
1038.357581	-20.674176
1038.717350	-20.607569
1039.077368	-20.565191
1039.437636	-20.594027
1039.798154	-20.621409
1040.158922	-20.578503
1040.519940	-20.518745
1040.881209	-20.523911
1041.242729	-20.564957
1041.604501	-20.550122
1041.966524	-20.484094
1042.328798	-20.461272
1042.691325	-20.503519
1043.054103	-20.520132
1043.417135	-20.460509
1043.780419	-20.404432
1044.143956	-20.425791
1044.507746	-20.467452
1044.871791	-20.434952
1045.236088	-20.359087
1045.600641	-20.343391
1045.965447	-20.388007
1046.330508	-20.389717
1046.695824	-20.319010
1047.061395	-20.269912
1047.427222	-20.295826
1047.793304	-20.319327
1048.159642	-20.266615
1048.526237	-20.197649
1048.893088	-20.197179
1049.260196	-20.228041
1049.627561	-20.196635
1049.995183	-20.120032
1050.363063	-20.094889
1050.731201	-20.125120
1051.099597	-20.115425
1051.468251	-20.041041
1051.837164	-19.993773
1052.206336	-20.016408
1052.575767	-20.026384
1052.945458	-19.961768
1053.315409	-19.895329
1053.685619	-19.903063
1054.056090	-19.928742
1054.426821	-19.882621
1054.797814	-19.804679
1055.169067	-19.793024
1055.540582	-19.827931
1055.912359	-19.806410
1056.284398	-19.728407
1056.656698	-19.697242
1057.029262	-19.731900
1057.402088	-19.733531
1057.775177	-19.664589
1058.148530	-19.618259
1058.522146	-19.645995
1058.896027	-19.665282
1059.270171	-19.610401
1059.644580	-19.555478
1060.019254	-19.575112
1060.394193	-19.607611
1060.769397	-19.567900
1061.144867	-19.507793
1061.520602	-19.517761
1061.896604	-19.558229
1062.272872	-19.531753
1062.649407	-19.467276
1063.026210	-19.465605
1063.403279	-19.510135
1063.780616	-19.496525
1064.158221	-19.430056
1064.536094	-19.416270
1064.914235	-19.461573
1065.292645	-19.459873
1065.671325	-19.393197
1066.050273	-19.366180
1066.429491	-19.406673
1066.808979	-19.413236
1067.188738	-19.347691
1067.568766	-19.308521
1067.949066	-19.340641
1068.329636	-19.351637
1068.710478	-19.288679
1069.091592	-19.240423
1069.472977	-19.262306
1069.854635	-19.271829
1070.236565	-19.209284
1070.618768	-19.154472
1071.001243	-19.166725
1071.383993	-19.170181
1071.767016	-19.104532
1072.150313	-19.045513
1072.533884	-19.052776
1072.917730	-19.051285
1073.301850	-18.980830
1073.686246	-18.918454
1074.070917	-18.924752
1074.455864	-18.921811
1074.841087	-18.846936
1075.226586	-18.781229
1075.612362	-18.788608
1075.998415	-18.787775
1076.384745	-18.711521
1076.771353	-18.643998
1077.158238	-18.653486
1077.545401	-18.656799
1077.932843	-18.582544
1078.320564	-18.515560
1078.708564	-18.526930
1079.096842	-18.533181
1079.485401	-18.461790
1079.874240	-18.397933
1080.263358	-18.411416
1080.652757	-18.418628
1081.042438	-18.350523
1081.432399	-18.293227
1081.822641	-18.311055
1082.213166	-18.318097
1082.603972	-18.252772
1082.995061	-18.204396
1083.386433	-18.228586
1083.778087	-18.234843
1084.170025	-18.171762
1084.562246	-18.133439
1084.954751	-18.165042
1085.347541	-18.170662
1085.740615	-18.110729
1086.133973	-18.083859
1086.527617	-18.121744
1086.921546	-18.124484
1087.315761	-18.067393
1087.710262	-18.051473
1088.105050	-18.091724
1088.500124	-18.086870
1088.895485	-18.031837
1089.291134	-18.026485
1089.687070	-18.064654
1090.083294	-18.047542
1090.479806	-17.993659
1090.876607	-17.997666
1091.273696	-18.028762
1091.671075	-17.995678
1092.068744	-17.942753
1092.466702	-17.954341
1092.864950	-17.974526
1093.263489	-17.926073
1093.662319	-17.877421
1094.061440	-17.895231
1094.460852	-17.901738
1094.860555	-17.841513
1095.260551	-17.801668
1095.660840	-17.823586
1096.061421	-17.814105
1096.462295	-17.747088
1096.863462	-17.720241
1097.264923	-17.743185
1097.666678	-17.717105
1098.068727	-17.649718
1098.471071	-17.637629
1098.873710	-17.655777
1099.276644	-17.612630
1099.679874	-17.550685
1100.083400	-17.551515
1100.487222	-17.557314
1100.891340	-17.498656
1101.295756	-17.448054
1101.700468	-17.457706
1102.105478	-17.444769
1102.510787	-17.375923
1102.916393	-17.341501
1103.322298	-17.353028
1103.728502	-17.318009
1104.135005	-17.248254
1104.541807	-17.233562
1104.948909	-17.240026
1105.356312	-17.186031
1105.764015	-17.127679
1106.172019	-17.132606
1106.580324	-17.127512
1106.988931	-17.063020
1107.397840	-17.026898
1107.807051	-17.045904
1108.216564	-17.025000
1108.626380	-16.962546
1109.036500	-16.954738
1109.446923	-16.977398
1109.857649	-16.940163
1110.268680	-16.892763
1110.680016	-16.910894
1111.091657	-16.923027
1111.503602	-16.873126
1111.915854	-16.849688
1112.328411	-16.881335
1112.741275	-16.869945
1113.154445	-16.816650
1113.567922	-16.819532
1113.981706	-16.845445
1114.395798	-16.805337
1114.810198	-16.761431
1115.224906	-16.781824
1115.639923	-16.781404
1116.055249	-16.719870
1116.470884	-16.696197
1116.886829	-16.716697
1117.303084	-16.681043
1117.719650	-16.618051
1118.136526	-16.616117
1118.553713	-16.615839
1118.971212	-16.552375
1119.389022	-16.508782
1119.807145	-16.517422
1120.225580	-16.486216
1120.644328	-16.419972
1121.063389	-16.407086
1121.482763	-16.408170
1121.902452	-16.352382
1122.322454	-16.308400
1122.742771	-16.318596
1123.163404	-16.298134
1123.584351	-16.240245
1124.005614	-16.233265
1124.427193	-16.247734
1124.849089	-16.206402
1125.271301	-16.170973
1125.693830	-16.193605
1126.116677	-16.190961
1126.539842	-16.144693
1126.963324	-16.146218
1127.387126	-16.174996
1127.811246	-16.147132
1128.235685	-16.119289
1128.660444	-16.149723
1129.085522	-16.155143
1129.510922	-16.114202
1129.936641	-16.119910
1130.362682	-16.150330
1130.789044	-16.121383
1131.215728	-16.094538
1131.642734	-16.123787
1132.070063	-16.121453
1132.497714	-16.074767
1132.925689	-16.077157
1133.353987	-16.096398
1133.782610	-16.054919
1134.211556	-16.022826
1134.640827	-16.042050
1135.070424	-16.023343
1135.500345	-15.969418
1135.930593	-15.966750
1136.361166	-15.969984
1136.792067	-15.917349
1137.223294	-15.885744
1137.654848	-15.896872
1138.086730	-15.864012
1138.518940	-15.810569
1138.951479	-15.810669
1139.384346	-15.803171
1139.817543	-15.746378
1140.251069	-15.724118
1140.684925	-15.734856
1141.119111	-15.695157
1141.553628	-15.650592
1141.988475	-15.661857
1142.423655	-15.650676
1142.859166	-15.596462
1143.295009	-15.590928
1143.731185	-15.605716
1144.167694	-15.561669
1144.604536	-15.532082
1145.041711	-15.556221
1145.479221	-15.535664
1145.917065	-15.487721
1146.355245	-15.502824
1146.793759	-15.508228
1147.232609	-15.455824
1147.671795	-15.449982
1148.111317	-15.472938
1148.551177	-15.429554
1148.991373	-15.398643
1149.431907	-15.424577
1149.872779	-15.400169
1150.313989	-15.350039
1150.755538	-15.363819
1151.197426	-15.360544
1151.639653	-15.303238
1152.082220	-15.292848
1152.525128	-15.303207
1152.968376	-15.253274
1153.411966	-15.216979
1153.855897	-15.228731
1154.300169	-15.196361
1154.744784	-15.140252
1155.189742	-15.140235
1155.635042	-15.127819
1156.080687	-15.063215
1156.526674	-15.044137
1156.973007	-15.048974
1157.419683	-14.987505
1157.866705	-14.946198
1158.314072	-14.961229
1158.761786	-14.912561
1159.209845	-14.850889
1159.658251	-14.867414
1160.107004	-14.838233
1160.556104	-14.763058
1161.005553	-14.772176
1161.455349	-14.762403
1161.905494	-14.683123
1162.355989	-14.679896
1162.806832	-14.684238
1163.258026	-14.610149
1163.709570	-14.595738
1164.161464	-14.606345
1164.613710	-14.541788
1165.066307	-14.520436
1165.519256	-14.530388
1165.972558	-14.476412
1166.426212	-14.454537
1166.880219	-14.459780
1167.334580	-14.414213
1167.789295	-14.396102
1168.244364	-14.393942
1168.699788	-14.354104
1169.155567	-14.343896
1169.611702	-14.334244
1170.068193	-14.297269
1170.525041	-14.296547
1170.982245	-14.279661
1171.439807	-14.242930
1171.897726	-14.252283
1172.356004	-14.230819
1172.814640	-14.193438
1173.273635	-14.210554
1173.732989	-14.186002
1174.192703	-14.148161
1174.652778	-14.169967
1175.113213	-14.144322
1175.574009	-14.107833
1176.035167	-14.130458
1176.496687	-14.104252
1176.958569	-14.070897
1177.420814	-14.090978
1177.883422	-14.065264
1178.346394	-14.037134
1178.809730	-14.051958
1179.273430	-14.027312
1179.737496	-14.005418
1180.201927	-14.013255
1180.666723	-13.990596
1181.131886	-13.974923
1181.597416	-13.975291
1182.063312	-13.955804
1182.529576	-13.944382
1182.996209	-13.937507
1183.463209	-13.922778
1183.930579	-13.912882
1184.398317	-13.899992
1184.866426	-13.891627
1185.334904	-13.879963
1185.803754	-13.862682
1186.272974	-13.861581
1186.742566	-13.845573
1187.212529	-13.826475
1187.682865	-13.832111
1188.153574	-13.809648
1188.624656	-13.791656
1189.096112	-13.801952
1189.567942	-13.772060
1190.040147	-13.758281
1190.512726	-13.770028
1190.985681	-13.732719
1191.459012	-13.725627
1191.932720	-13.735279
1192.406804	-13.692351
1192.881265	-13.692988
1193.356104	-13.696761
1193.831322	-13.651588
1194.306918	-13.659948
1194.782893	-13.654658
1195.259248	-13.611157
1195.735982	-13.625382
1196.213097	-13.608901
1196.690593	-13.571278
1197.168471	-13.588849
1197.646730	-13.560846
1198.125371	-13.531968
1198.604395	-13.549017
1199.083803	-13.511504
1199.563594	-13.493804
1200.043769	-13.506524
1200.524329	-13.462839
1201.005273	-13.456555
1201.486604	-13.461336
1201.968320	-13.416163
1202.450422	-13.420760
1202.932912	-13.415084
1203.415789	-13.372429
1203.899054	-13.385329
1204.382707	-13.368645
1204.866748	-13.332564
1205.351179	-13.350483
1205.836000	-13.323708
1206.321211	-13.296844
1206.806812	-13.315758
1207.292805	-13.281456
1207.779189	-13.265626
1208.265965	-13.281966
1208.753134	-13.243300
1209.240696	-13.238121
1209.728651	-13.248756
1210.217000	-13.209561
1210.705744	-13.213792
1211.194883	-13.216891
1211.684417	-13.180444
1212.174347	-13.191348
1212.664673	-13.186399
1213.155396	-13.155929
1213.646516	-13.170723
1214.138034	-13.158314
1214.629951	-13.135393
1215.122266	-13.150804
1215.614980	-13.132688
1216.108095	-13.118209
1216.601609	-13.131394
1217.095524	-13.109482
1217.589841	-13.102607
1218.084559	-13.111594
1218.579679	-13.088748
1219.075202	-13.088106
1219.571128	-13.091544
1220.067458	-13.069886
1220.564191	-13.073421
1221.061330	-13.071350
1221.558874	-13.052662
1222.056823	-13.057821
1222.555178	-13.050528
1223.053940	-13.035518
1223.553109	-13.040234
1224.052686	-13.028949
1224.552671	-13.017578
1225.053065	-13.020145
1225.553867	-13.006161
1226.055079	-12.998015
1226.556702	-12.997678
1227.058735	-12.982096
1227.561179	-12.976224
1228.064035	-12.972337
1228.567303	-12.955900
1229.070983	-12.951523
1229.575077	-12.943736
1230.079585	-12.926938
1230.584506	-12.923325
1231.089842	-12.911395
1231.595594	-12.895069
1232.101761	-12.891579
1232.608345	-12.875381
1233.115345	-12.860557
1233.622762	-12.855709
1234.130597	-12.835291
1234.638851	-12.823196
1235.147523	-12.814938
1235.656615	-12.791300
1236.166126	-12.782408
1236.676058	-12.768505
1237.186411	-12.744565
1237.697185	-12.738231
1238.208381	-12.717097
1238.719999	-12.696314
1239.232040	-12.689869
1239.744505	-12.662350
1240.257394	-12.647742
1240.770708	-12.636691
1241.284446	-12.606197
1241.798610	-12.598461
1242.313201	-12.579360
1242.828218	-12.551867
1243.343662	-12.547840
1243.859534	-12.520070
1244.375834	-12.501465
1244.892563	-12.495257
1245.409721	-12.462675
1245.927309	-12.454664
1246.445327	-12.440038
1246.963777	-12.410508
1247.482657	-12.409511
1248.001970	-12.384272
1248.521716	-12.365380
1249.041894	-12.363307
1249.562506	-12.332312
1250.083553	-12.326861
1250.605034	-12.315312
1251.126950	-12.288058
1251.649302	-12.291091
1252.172091	-12.267726
1252.695316	-12.253258
1253.218979	-12.253950
1253.743079	-12.225205
1254.267619	-12.225770
1254.792597	-12.214997
1255.318015	-12.192991
1255.843874	-12.200697
1256.370173	-12.177963
1256.896913	-12.172051
1257.424095	-12.173746
1257.951720	-12.149053
1258.479787	-12.157733
1259.008298	-12.145275
1259.537254	-12.132777
1260.066654	-12.143687
1260.596499	-12.121625
1261.126790	-12.127734
1261.657527	-12.126886
1262.188711	-12.110270
1262.720342	-12.126677
1263.252422	-12.111055
1263.784950	-12.112761
1264.317928	-12.122497
1264.851355	-12.104664
1265.385232	-12.122837
1265.919560	-12.115866
1266.454340	-12.113297
1266.989572	-12.131273
1267.525256	-12.115249
1268.061394	-12.132736
1268.597985	-12.134376
1269.135031	-12.128584
1269.672531	-12.151650
1270.210487	-12.138954
1270.748899	-12.154438
1271.287768	-12.163149
1271.827094	-12.155690
1272.366877	-12.181586
1272.907119	-12.172572
1273.447820	-12.186093
1273.988981	-12.199783
1274.530601	-12.191495
1275.072683	-12.218399
1275.615226	-12.211992
1276.158230	-12.223765
1276.701697	-12.240331
1277.245627	-12.231610
1277.790021	-12.258732
1278.334879	-12.253858
1278.880202	-12.264484
1279.425991	-12.282091
1279.972245	-12.272678
1280.518966	-12.299306
1281.066155	-12.294443
1281.613811	-12.304050
1282.161936	-12.321159
1282.710529	-12.311360
1283.259593	-12.337030
1283.809126	-12.331124
1284.359131	-12.340429
1284.909607	-12.355189
1285.460555	-12.344944
1286.011976	-12.368808
1286.563870	-12.360529
1287.116237	-12.370054
1287.669080	-12.380806
1288.222397	-12.370782
1288.776191	-12.392303
1289.330460	-12.380617
1289.885207	-12.390753
1290.440431	-12.395659
1290.996133	-12.385810
1291.552314	-12.403545
1292.108975	-12.388054
1292.666115	-12.398763
1293.223737	-12.396584
1293.781839	-12.387941
1294.340424	-12.400513
1294.899491	-12.381589
1295.459041	-12.391974
1296.019075	-12.381805
1296.579593	-12.375109
1297.140597	-12.380680
1297.702086	-12.360214
1298.264061	-12.369542
1298.826524	-12.352195
1299.389474	-12.348561
1299.952912	-12.345649
1300.516839	-12.326047
1301.081255	-12.332082
1301.646162	-12.309215
1302.211559	-12.308903
1302.777448	-12.297102
1303.343829	-12.281473
1303.910702	-12.282154
1304.478069	-12.257210
1305.045930	-12.258663
1305.614285	-12.238492
1306.183136	-12.228382
1306.752483	-12.221111
1307.322326	-12.198374
1307.892666	-12.198728
1308.463504	-12.173514
1309.034841	-12.169113
1309.606677	-12.152731
1310.179012	-12.135858
1310.751849	-12.130863
1311.325186	-12.105232
1311.899025	-12.103657
1312.473366	-12.080166
1313.048211	-12.071278
1313.623559	-12.058139
1314.199412	-12.037806
1314.775770	-12.033920
1315.352634	-12.008132
1315.930004	-12.004831
1316.507881	-11.983722
1317.086266	-11.972471
1317.665159	-11.961768
1318.244562	-11.940879
1318.824474	-11.937681
1319.404897	-11.913413
1319.985831	-11.909626
1320.567276	-11.890672
1321.149234	-11.879444
1321.731706	-11.870300
1322.314691	-11.850819
1322.898190	-11.848475
1323.482205	-11.826255
1324.066736	-11.823364
1324.651783	-11.806005
1325.237347	-11.796490
1325.823430	-11.788140
1326.410031	-11.771218
1326.997151	-11.769627
1327.584791	-11.749781
1328.172952	-11.748634
1328.761634	-11.732386
1329.350839	-11.725944
1329.940566	-11.717613
1330.530817	-11.704406
1331.121592	-11.703186
1331.712891	-11.686230
1332.304716	-11.687100
1332.897068	-11.671863
1333.489946	-11.669365
1334.083352	-11.660358
1334.677287	-11.651954
1335.271750	-11.650102
1335.866744	-11.636978
1336.462268	-11.639158
1337.058323	-11.625269
1337.654910	-11.626623
1338.252029	-11.616568
1338.849682	-11.613541
1339.447869	-11.609918
1340.046591	-11.601799
1340.645848	-11.603587
1341.245641	-11.592434
1341.845972	-11.596176
1342.446840	-11.585748
1343.048246	-11.587730
1343.650191	-11.581630
1344.252677	-11.579528
1344.855702	-11.578942
1345.459269	-11.572559
1346.063379	-11.576100
1346.668030	-11.567445
1347.273226	-11.572370
1347.878965	-11.564829
1348.485250	-11.568239
1349.092080	-11.564343
1349.699456	-11.564197
1350.307380	-11.564687
1350.915851	-11.560731
1351.524871	-11.564862
1352.134441	-11.558857
1352.744560	-11.564775
1353.355231	-11.559148
1353.966453	-11.564233
1354.578227	-11.560862
1355.190555	-11.563218
1355.803436	-11.563336
1356.416872	-11.562616
1357.030863	-11.566410
1357.645411	-11.563325
1358.260515	-11.569383
1358.876177	-11.565180
1359.492397	-11.571553
1360.109176	-11.568068
1360.726516	-11.573274
1361.344416	-11.572208
1361.962877	-11.575147
1362.581901	-11.576966
1363.201487	-11.577100
1363.821637	-11.581431
1364.442352	-11.579485
1365.063632	-11.585731
1365.685478	-11.583032
1366.307891	-11.589961
1366.930871	-11.587585
1367.554420	-11.593637
1368.178538	-11.592625
1368.803226	-11.597098
1369.428485	-11.598466
1370.054315	-11.601141
1370.680717	-11.604874
1371.307693	-11.605514
1371.935242	-11.610924
1372.563366	-11.610071
1373.192065	-11.616779
1373.821341	-11.615450
1374.451193	-11.622642
1375.081623	-11.621396
1375.712632	-11.627911
1376.344221	-11.627303
1376.976389	-11.632690
1377.609139	-11.633599
1378.242470	-11.637707
1378.876384	-11.640171
1379.510881	-11.642529
1380.145963	-11.646226
1380.781629	-11.647115
1381.417881	-11.652218
1382.054720	-11.652355
1382.692147	-11.658568
1383.330161	-11.658120
1383.968765	-11.664634
1384.607959	-11.664044
1385.247743	-11.670746
1385.888119	-11.670817
1386.529087	-11.677424
1387.170648	-11.678118
1387.812804	-11.683894
1388.455554	-11.685291
1389.098899	-11.690330
1389.742842	-11.693006
1390.387381	-11.697498
1391.032519	-11.701215
1391.678256	-11.704712
1392.324592	-11.709142
1392.971529	-11.711926
1393.619068	-11.717305
1394.267208	-11.719643
1394.915952	-11.725511
1395.565300	-11.727091
1396.215253	-11.732966
1396.865812	-11.734134
1397.516977	-11.740374
1398.168749	-11.741637
1398.821130	-11.748030
1399.474120	-11.749140
1400.127719	-11.755338
1400.781930	-11.756606
1401.436752	-11.762902
1402.092186	-11.764600
1402.748234	-11.770657
1403.404897	-11.772346
1404.062174	-11.777837
1404.720067	-11.779739
1405.378577	-11.785158
1406.037705	-11.787693
1406.697451	-11.792952
1407.357817	-11.795773
1408.018803	-11.800822
1408.680410	-11.804278
1409.342639	-11.809632
1410.005492	-11.813840
1410.668968	-11.819089
1411.333068	-11.823351
1411.997795	-11.828247
1412.663147	-11.832896
1413.329127	-11.837992
1413.995736	-11.843169
1414.662973	-11.848207
1415.330840	-11.853627
1415.999339	-11.858880
1416.668469	-11.865210
1417.338232	-11.871349
1418.008628	-11.878509
1418.679659	-11.884881
1419.351325	-11.892254
1420.023628	-11.898897
1420.696568	-11.906774
1421.370145	-11.913702
1422.044362	-11.921511
1422.719219	-11.928110
1423.394717	-11.935832
1424.070856	-11.942925
1424.747638	-11.951539
1425.425064	-11.959549
1426.103134	-11.968847
1426.781850	-11.977727
1427.461212	-11.988151
1428.141221	-11.998483
1428.821878	-12.009958
1429.503185	-12.020795
1430.185141	-12.031949
1430.867749	-12.042545
1431.551008	-12.053368
1432.234920	-12.063789
1432.919486	-12.073815
1433.604707	-12.083520
1434.290583	-12.092910
1434.977116	-12.103088
1435.664307	-12.113432
1436.352156	-12.125151
1437.040664	-12.136691
1437.729833	-12.150108
1438.419663	-12.163435
1439.110156	-12.179067
1439.801312	-12.193697
1440.493132	-12.209895
1441.185617	-12.223751
1441.878768	-12.238786
1442.572586	-12.250813
1443.267072	-12.263611
1443.962228	-12.272414
1444.658053	-12.281853
1445.354549	-12.287704
1446.051717	-12.295342
1446.749558	-12.300486
1447.448073	-12.308236
1448.147263	-12.314488
1448.847128	-12.324465
1449.547671	-12.334453
1450.248891	-12.348462
1450.950789	-12.362467
1451.653368	-12.379239
1452.356627	-12.395416
1453.060568	-12.412820
1453.765192	-12.428644
1454.470500	-12.443007
1455.176492	-12.454143
1455.883170	-12.461911
1456.590534	-12.466422
1457.298586	-12.466790
1458.007327	-12.464417
1458.716758	-12.457959
1459.426880	-12.450793
1460.137693	-12.441762
1460.849199	-12.434898
1461.561398	-12.428025
1462.274293	-12.425575
1462.987883	-12.425381
1463.702170	-12.431605
1464.417155	-12.441338
1465.132838	-12.457108
1465.849222	-12.475755
1466.566306	-12.498933
1467.284093	-12.523778
1468.002582	-12.549676
1468.721775	-12.574195
1469.441674	-12.595479
1470.162278	-12.613026
1470.883590	-12.624227
1471.605609	-12.629972
1472.328338	-12.627174
1473.051777	-12.619244
1473.775928	-12.604117
1474.500790	-12.586364
1475.226367	-12.564533
1475.952657	-12.543213
1476.679663	-12.522682
1477.407386	-12.506954
1478.135826	-12.497119
1478.864985	-12.494820
1479.594863	-12.502448
1480.325463	-12.519726
1481.056784	-12.549698
1481.788828	-12.589539
1482.521597	-12.641482
1483.255090	-12.701407
1483.989309	-12.770332
1484.724256	-12.842943
1485.459931	-12.917368
1486.196336	-12.988245
1486.933471	-13.051160
1487.671337	-13.102444
1488.409937	-13.135408
1489.149270	-13.148548
1489.889337	-13.136043
1490.630141	-13.099713
1491.371682	-13.036981
1492.113961	-12.951912
1492.856979	-12.846332
1493.600738	-12.725732
1494.345238	-12.596571
1495.090481	-12.463446
1495.836467	-12.334963
1496.583198	-12.214531
1497.330675	-12.110805
1498.078899	-12.026468
1498.827872	-11.967107
1499.577593	-11.934522
1500.328065	-11.930662
1501.079289	-11.956462
1501.831265	-12.008956
1502.583995	-12.086538
1503.337480	-12.181528
1504.091721	-12.288966
1504.846719	-12.397385
1505.602475	-12.496791
1506.358991	-12.574836
1507.116268	-12.619486
1507.874306	-12.622692
1508.633108	-12.575626
1509.392673	-12.478043
1510.153004	-12.330070
1510.914101	-12.138970
1511.675965	-11.912504
1512.438599	-11.659767
1513.202002	-11.391309
1513.966176	-11.114678
1514.731122	-10.839140
1515.496842	-10.569315
1516.263336	-10.311761
1517.030607	-10.070246
1517.798654	-9.848878
1518.567479	-9.651637
1519.337083	-9.480803
1520.107468	-9.341368
1520.878634	-9.235221
1521.650584	-9.167102
1522.423317	-9.139397
1523.196836	-9.155763
1523.971141	-9.219728
1524.746233	-9.332842
1525.522115	-9.498657
1526.298786	-9.716829
1527.076249	-9.988935
1527.854504	-10.311743
1528.633553	-10.680987
1529.413397	-11.088316
1530.194037	-11.518748
1530.975474	-11.953272
1531.757709	-12.361921
1532.540745	-12.713887
1533.324581	-12.972981
1534.109220	-13.113970
1534.894662	-13.125201
1535.680909	-13.016047
1536.467961	-12.813999
1537.255821	-12.553108
1538.044489	-12.272438
1538.833967	-12.001759
1539.624256	-11.768154
1540.415357	-11.588773
1541.207271	-11.477581
1542.000000	-11.444348
1542.793545	-11.494632
1543.587907	-11.635348
1544.383087	-11.868958
1545.179088	-12.200693
1545.975909	-12.632568
1546.773552	-13.167086
1547.572019	-13.805506
1548.371311	-14.542580
1549.171428	-15.368228
1549.972373	-16.252123
1550.774147	-17.139629
1551.576751	-17.931153
1552.380185	-18.490416
1553.184453	-18.688292
1553.989554	-18.478916
1554.795490	-17.938018
1555.602263	-17.200244
1556.409873	-16.390995
1557.218322	-15.589422
1558.027612	-14.839479
1558.837743	-14.159897
1559.648717	-13.555514
1560.460536	-13.025955
1561.273200	-12.566777
1562.086710	-12.173517
1562.901069	-11.840745
1563.716278	-11.563634
1564.532337	-11.338761
1565.349249	-11.161412
1566.167014	-11.029059
1566.985634	-10.938761
1567.805111	-10.888109
1568.625444	-10.875150
1569.446637	-10.897399
1570.268690	-10.953948
1571.091605	-11.042263
1571.915382	-11.160661
1572.740024	-11.307682
1573.565532	-11.480909
1574.391907	-11.678429
1575.219150	-11.897744
1576.047262	-12.136181
1576.876246	-12.391491
1577.706103	-12.659327
1578.536833	-12.936971
1579.368439	-13.220646
1580.200922	-13.504867
1581.034282	-13.786208
1581.868522	-14.058985
1582.703643	-14.318302
1583.539646	-14.559578
1584.376532	-14.777177
1585.214304	-14.967807
1586.052962	-15.128225
1586.892508	-15.254403
1587.732943	-15.347065
1588.574269	-15.405125
1589.416487	-15.429048
1590.259599	-15.421920
1591.103605	-15.385918
1591.948508	-15.324447
1592.794309	-15.241546
1593.641009	-15.140181
1594.488609	-15.024978
1595.337112	-14.898464
1596.186518	-14.762841
1597.036829	-14.622016
1597.888047	-14.476535
1598.740172	-14.327604
1599.593207	-14.177241
1600.447153	-14.025418
1601.302010	-13.872272
1602.157782	-13.719109
1603.014469	-13.565780
1603.872072	-13.412992
1604.730593	-13.261239
1605.590034	-13.111707
1606.450397	-12.965323
1607.311681	-12.822870
1608.173890	-12.686100
1609.037024	-12.556539
1609.901085	-12.434470
1610.766075	-12.321764
1611.631995	-12.219379
1612.498846	-12.127098
1613.366630	-12.045804
1614.235349	-11.975733
1615.105004	-11.915986
1615.975596	-11.866224
1616.847128	-11.826025
1617.719600	-11.793860
1618.593014	-11.768679
1619.467372	-11.749360
1620.342675	-11.734716
1621.218924	-11.722850
1622.096122	-11.713061
1622.974270	-11.704048
1623.853369	-11.694438
1624.733420	-11.683339
1625.614427	-11.670814
1626.496389	-11.655451
1627.379308	-11.637703
1628.263187	-11.617954
1629.148026	-11.595930
1630.033828	-11.572273
1630.920593	-11.548285
1631.808324	-11.523872
1632.697022	-11.499820
1633.586688	-11.477516
1634.477324	-11.456640
1635.368932	-11.438114
1636.261514	-11.422576
1637.155070	-11.409888
1638.049602	-11.399919
1638.945113	-11.393280
1639.841603	-11.389085
1640.739075	-11.387168
1641.637529	-11.387603
1642.536968	-11.389248
1643.437393	-11.391747
1644.338806	-11.394586
1645.241209	-11.397167
1646.144602	-11.398658
1647.048988	-11.399393
1647.954368	-11.398658
1648.860744	-11.396423
1649.768118	-11.393238
1650.676491	-11.388781
1651.585865	-11.383671
1652.496241	-11.378238
1653.407621	-11.372995
1654.320008	-11.367857
1655.233401	-11.363874
1656.147804	-11.360896
1657.063218	-11.358885
1657.979645	-11.358642
1658.897085	-11.359470
1659.815542	-11.361581
1660.735016	-11.364926
1661.655509	-11.369281
1662.577023	-11.374244
1663.499560	-11.379829
1664.423121	-11.385854
1665.347709	-11.391637
1666.273324	-11.397738
1667.199969	-11.403633
1668.127645	-11.409365
1669.056353	-11.415385
1669.986097	-11.421230
1670.916877	-11.427545
1671.848695	-11.434316
1672.781553	-11.441709
1673.715452	-11.450090
1674.650395	-11.459460
1675.586383	-11.469985
1676.523418	-11.481429
1677.461501	-11.493950
1678.400635	-11.507196
1679.340821	-11.520836
1680.282061	-11.535136
1681.224357	-11.549477
1682.167710	-11.563938
1683.112122	-11.578716
1684.057595	-11.593392
1685.004132	-11.608460
1685.951732	-11.623786
1686.900400	-11.639413
1687.850135	-11.655819
1688.800940	-11.672565
1689.752818	-11.689995
1690.705768	-11.708135
1691.659795	-11.726517
1692.614898	-11.745600
1693.571081	-11.764920
1694.528345	-11.784292
1695.486691	-11.804193
1696.446122	-11.824087
1697.406640	-11.844258
1698.368245	-11.865017
1699.330941	-11.886048
1700.294729	-11.907841
1701.259611	-11.930204
1702.225588	-11.953080
1703.192664	-11.976954
1704.160838	-12.001180
1705.130114	-12.025981
1706.100493	-12.051593
1707.071977	-12.077303
1708.044568	-12.103603
1709.018268	-12.130461
1709.993079	-12.157454
1710.969003	-12.185226
1711.946041	-12.213499
1712.924196	-12.242159
1713.903469	-12.271757
1714.883862	-12.301818
1715.865378	-12.332324
1716.848017	-12.363638
1717.831783	-12.395193
1718.816677	-12.426954
1719.802701	-12.459338
1720.789857	-12.491766
1721.778147	-12.524345
1722.767573	-12.557603
1723.758136	-12.590888
1724.749840	-12.624471
1725.742685	-12.658798
1726.736673	-12.693134
1727.731808	-12.727718
1728.728090	-12.762888
1729.725521	-12.797894
1730.724105	-12.832963
1731.723842	-12.868467
1732.724735	-12.903886
1733.726785	-12.939352
1734.729995	-12.975304
1735.734366	-13.011291
1736.739902	-13.047216
1737.746603	-13.083585
1738.754472	-13.120138
1739.763510	-13.156534
1740.773721	-13.193496
1741.785105	-13.230745
1742.797665	-13.267917
1743.811403	-13.305435
1744.826321	-13.343137
1745.842422	-13.380742
1746.859706	-13.418219
1747.878177	-13.456103
1748.897835	-13.493913
1749.918685	-13.531599
1750.940726	-13.569975
1751.963963	-13.608477
1752.988395	-13.647067
1754.014027	-13.685643
1755.040860	-13.724394
1756.068895	-13.762939
1757.098135	-13.801022
1758.128583	-13.839455
1759.160240	-13.877849
1760.193109	-13.916141
1761.227191	-13.954403
1762.262488	-13.992897
1763.299004	-14.031435
1764.336740	-14.069417
1765.375697	-14.107724
1766.415880	-14.146300
1767.457288	-14.184598
1768.499926	-14.222740
1769.543794	-14.261099
1770.588895	-14.299721
1771.635231	-14.337576
1772.682805	-14.375531
1773.731619	-14.414123
1774.781674	-14.452526
1775.832973	-14.490807
1776.885519	-14.529340
1777.939312	-14.568512
1778.994357	-14.607187
1780.050654	-14.645382
1781.108207	-14.683716
1782.167017	-14.721920
1783.227087	-14.759686
1784.288418	-14.796722
1785.351013	-14.833957
1786.414875	-14.870696
1787.480006	-14.906388
1788.546407	-14.941247
1789.614082	-14.975195
1790.683032	-15.008394
1791.753259	-15.040407
1792.824767	-15.071488
1793.897557	-15.101457
1794.971632	-15.130580
1796.046994	-15.158857
1797.123645	-15.185789
1798.201588	-15.211577
1799.280824	-15.236262
1800.361357	-15.260523
1801.443188	-15.283998
1802.526320	-15.306377
1803.610756	-15.327908
1804.696497	-15.349135
1805.783546	-15.370010
1806.871906	-15.389533
1807.961578	-15.407934
1809.052565	-15.426149
1810.144870	-15.444182
1811.238494	-15.461287
1812.333441	-15.477228
1813.429713	-15.492647
1814.527311	-15.507670
1815.626239	-15.522197
1816.726499	-15.535852
1817.828094	-15.548870
1818.931025	-15.561029
1820.035295	-15.572634
1821.140906	-15.583096
1822.247862	-15.592655
1823.356165	-15.601284
1824.465816	-15.609309
1825.576819	-15.616454
1826.689175	-15.622903
1827.802888	-15.628885
1828.917960	-15.633988
1830.034394	-15.637343
1831.152191	-15.638886
1832.271354	-15.639976
1833.391887	-15.640966
1834.513790	-15.641497
1835.637068	-15.640726
1836.761722	-15.639095
1837.887755	-15.636731
1839.015169	-15.633349
1840.143968	-15.628545
1841.274153	-15.622714
1842.405727	-15.616396
1843.538693	-15.609539
1844.673053	-15.601843
1845.808810	-15.593061
1846.945966	-15.583088
1848.084525	-15.571685
1849.224488	-15.559021
1850.365858	-15.545425
1851.508638	-15.531149
1852.652831	-15.515961
1853.798438	-15.499930
1854.945463	-15.483065
1856.093909	-15.465468
1857.243777	-15.446452
1858.395071	-15.426507
1859.547794	-15.406170
1860.701947	-15.386457
1861.857533	-15.366674
1863.014556	-15.345818
1864.173018	-15.323371
1865.332922	-15.300261
1866.494270	-15.277754
1867.657065	-15.255509
1868.821309	-15.232943
1869.987006	-15.209099
1871.154158	-15.184786
1872.322768	-15.159952
1873.492839	-15.134799
1874.664373	-15.108358
1875.837373	-15.081106
1877.011841	-15.053580
1878.187782	-15.026663
1879.365197	-15.000122
1880.544089	-14.973112
1881.724460	-14.944959
1882.906315	-14.915725
1884.089655	-14.886208
1885.274483	-14.856912
1886.460803	-14.828014
1887.648616	-14.799082
1888.837927	-14.770206
1890.028736	-14.741349
1891.221049	-14.712764
1892.414866	-14.684258
1893.610192	-14.655842
1894.807028	-14.627434
1896.005379	-14.599250
1897.205246	-14.571542
1898.406633	-14.544068
1899.609542	-14.516595
1900.813977	-14.488339
1902.019940	-14.459283
1903.227434	-14.429478
1904.436462	-14.399738
1905.647028	-14.370585
1906.859133	-14.342323
1908.072781	-14.314875
1909.287976	-14.287875
1910.504719	-14.260813
1911.723013	-14.233271
1912.942863	-14.205094
1914.164270	-14.176285
1915.387238	-14.147378
1916.611770	-14.118407
1917.837868	-14.089495
1919.065536	-14.060196
1920.294777	-14.030281
1921.525594	-13.999471
1922.757989	-13.967467
1923.991967	-13.934747
1925.227529	-13.901881
1926.464679	-13.869479
1927.703420	-13.837895
1928.943755	-13.806898
1930.185688	-13.776317
1931.429221	-13.745624
1932.674356	-13.714797
1933.921099	-13.684133
1935.169451	-13.654064
1936.419415	-13.624739
1937.670996	-13.596429
1938.924195	-13.568792
1940.179017	-13.541671
1941.435463	-13.514611
1942.693538	-13.487731
1943.953245	-13.461525
1945.214586	-13.436260
1946.477566	-13.412295
1947.742186	-13.389238
1949.008451	-13.366765
1950.276363	-13.344262
1951.545926	-13.321552
1952.817143	-13.299034
1954.090017	-13.277294
1955.364551	-13.256750
1956.640749	-13.237362
1957.918615	-13.218690
1959.198150	-13.200458
1960.479359	-13.182369
1961.762244	-13.164238
1963.046810	-13.146086
1964.333059	-13.127810
1965.620995	-13.109383
1966.910621	-13.090617
1968.201940	-13.071480
1969.494956	-13.051790
1970.789672	-13.031658
1972.086091	-13.011154
1973.384217	-12.990667
1974.684053	-12.970799
1975.985602	-12.951517
1977.288869	-12.932757
1978.593855	-12.914197
1979.900566	-12.895477
1981.209003	-12.876952
1982.519171	-12.858826
1983.831073	-12.841438
1985.144712	-12.824840
1986.460093	-12.808442
1987.777217	-12.792080
1989.096089	-12.775617
1990.416713	-12.759466
1991.739092	-12.743896
1993.063228	-12.728978
1994.389127	-12.714645
1995.716791	-12.700680
1997.046223	-12.687067
1998.377428	-12.673871
1999.710409	-12.661329
2001.045169	-12.649658
2002.381713	-12.638447
2003.720043	-12.627541
2005.060163	-12.616960
2006.402077	-12.606442
2007.745788	-12.595968
2009.091301	-12.585343
2010.438618	-12.574558
2011.787743	-12.564329
2013.138680	-12.554998
2014.491433	-12.546766
2015.846005	-12.539344
2017.202399	-12.532123
2018.560621	-12.524955
2019.920673	-12.518130
2021.282558	-12.511900
2022.646281	-12.506308
2024.011846	-12.500711
2025.379256	-12.494713
2026.748515	-12.488621
2028.119626	-12.482847
2029.492594	-12.477570
2030.867422	-12.472433
2032.244114	-12.466815
2033.622673	-12.460567
2035.003104	-12.454022
2036.385411	-12.447702
2037.769597	-12.441589
2039.155665	-12.435089
2040.543621	-12.427742
2041.933467	-12.419617
2043.325208	-12.411409
2044.718847	-12.403670
2046.114389	-12.395954
2047.511837	-12.388047
2048.911195	-12.380098
2050.312467	-12.372484
2051.715657	-12.365811
2053.120769	-12.360146
2054.527807	-12.355591
2055.936775	-12.352421
2057.347677	-12.350534
2058.760516	-12.349734
2060.175297	-12.349426
2061.592025	-12.349417
2063.010701	-12.350362
2064.431332	-12.353001
2065.853921	-12.357714
2067.278472	-12.363931
2068.704988	-12.370352
2070.133475	-12.376779
2071.563936	-12.384083
2072.996375	-12.393121
2074.430796	-12.403812
2075.867204	-12.414740
2077.305603	-12.424730
2078.745996	-12.434135
2080.188389	-12.443869
2081.632784	-12.454519
2083.079187	-12.465529
2084.527601	-12.475844
2085.978030	-12.485120
2087.430480	-12.493592
2088.884954	-12.501686
2090.341455	-12.509734
2091.799990	-12.517872
2093.260561	-12.526248
2094.723173	-12.534430
2096.187831	-12.541440
2097.654538	-12.547391
2099.123300	-12.553780
2100.594119	-12.561785
2102.067001	-12.570688
2103.541950	-12.578710
2105.018971	-12.585325
2106.498067	-12.591796
2107.979243	-12.599678
2109.462503	-12.609438
2110.947853	-12.620381
2112.435295	-12.631638
2113.924836	-12.643067
2115.416478	-12.655632
2116.910227	-12.670309
2118.406087	-12.686625
2119.904063	-12.703012
2121.404158	-12.718993
2122.906378	-12.735937
2124.410727	-12.755195
2125.917210	-12.776690
2127.425831	-12.799347
2128.936594	-12.822055
2130.449505	-12.844393
2131.964567	-12.866671
2133.481786	-12.889195
2135.001166	-12.912301
2136.522711	-12.936823
2138.046427	-12.962933
2139.572317	-12.989250
2141.100388	-13.014940
2142.630642	-13.041440
2144.163085	-13.069969
2145.697722	-13.099084
2147.234558	-13.127262
2148.773596	-13.155030
2150.314842	-13.183405
2151.858301	-13.212669
2153.403977	-13.242414
2154.951875	-13.271207
2156.502000	-13.297853
2158.054357	-13.321975
2159.608950	-13.343095
2161.165785	-13.362114
2162.724866	-13.381798
2164.286198	-13.404472
2165.849786	-13.431395
2167.415635	-13.462666
2168.983749	-13.498173
2170.554134	-13.539045
2172.126795	-13.584052
2173.701737	-13.628547
2175.278964	-13.669923
2176.858481	-13.707561
2178.440294	-13.740772
2180.024408	-13.771486
2181.610827	-13.801984
2183.199557	-13.832865
2184.790602	-13.865441
2186.383968	-13.900734
2187.979660	-13.940451
2189.577683	-13.986671
2191.178041	-14.037816
2192.780741	-14.091328
2194.385787	-14.145439
2195.993185	-14.199026
2197.602939	-14.252910
2199.215054	-14.299484
