# 2022-03-22_11.21.14
# shape = sech2
# FWHM_ps = 0.11
# carrier_nm = 1542
# frep_MHz = 12126
# pow_mW = 8000
# GDD = 0.0
# propa_len = 0.13933333333333334
# untap_len = 0.01
# taper_len = 0.07933333333333334
# waist_len = 0.02
# uptap_len = 0.02
# untap_scale = 1.0
# waist_scale = 0.1
# workingDir = NL_20110305_12 (Spirou)
# axis = slow
# window_ps = 10.0
# steps = 200
# points = 21700
# 
# wavelength [nm]	 power spectral density [dB]
600.043425	-82.585115
600.163550	-81.101046
600.283723	-85.191972
600.403943	-84.651408
600.524212	-82.094257
600.644529	-86.326809
600.764895	-82.690068
600.885308	-92.936679
601.005770	-103.811790
601.126280	-89.512477
601.246839	-93.299882
601.367446	-89.066022
601.488101	-87.477766
601.608804	-83.619985
601.729557	-89.121525
601.850357	-88.280602
601.971206	-83.900577
602.092104	-86.978914
602.213050	-87.348121
602.334045	-87.837857
602.455089	-89.936567
602.576181	-84.467524
602.697322	-82.321513
602.818511	-86.058653
602.939749	-89.722759
603.061036	-89.265815
603.182372	-86.877327
603.303757	-85.774931
603.425191	-85.453230
603.546673	-85.285444
603.668204	-83.531391
603.789785	-80.015586
603.911414	-83.949455
604.033092	-86.455769
604.154820	-85.157374
604.276596	-88.286165
604.398422	-85.356840
604.520297	-86.402401
604.642220	-94.037951
604.764193	-96.371563
604.886216	-93.973843
605.008287	-85.856589
605.130408	-86.058178
605.252578	-81.409889
605.374798	-82.428435
605.497066	-83.643401
605.619385	-81.545354
605.741752	-90.048402
605.864169	-86.961572
605.986636	-85.416657
606.109152	-90.582891
606.231718	-96.307162
606.354333	-95.119424
606.476998	-85.748856
606.599712	-86.538019
606.722476	-83.962355
606.845290	-87.231842
606.968154	-90.842384
607.091067	-85.499299
607.214030	-80.670795
607.337043	-81.562639
607.460106	-82.300366
607.583219	-83.659351
607.706381	-86.360931
607.829594	-89.415916
607.952856	-86.224262
608.076169	-79.963875
608.199531	-78.247998
608.322944	-75.921366
608.446407	-76.849125
608.569920	-76.774614
608.693483	-78.210517
608.817096	-82.085476
608.940759	-83.153915
609.064473	-92.185843
609.188237	-92.029314
609.312051	-87.252263
609.435916	-81.134036
609.559831	-79.786420
609.683796	-81.495278
609.807812	-81.773878
609.931878	-89.346394
610.055995	-94.680253
610.180162	-91.715142
610.304380	-96.202328
610.428648	-94.801270
610.552967	-88.390741
610.677337	-82.283327
610.801757	-82.335183
610.926228	-80.936537
611.050750	-80.376689
611.175323	-83.026174
611.299946	-83.399068
611.424620	-83.600211
611.549345	-86.969261
611.674121	-90.317236
611.798948	-87.291210
611.923826	-86.150829
612.048755	-86.532426
612.173734	-84.084431
612.298765	-89.444500
612.423847	-93.634720
612.548980	-89.725864
612.674165	-82.339775
612.799400	-82.682478
612.924687	-83.790306
613.050025	-84.218544
613.175414	-92.648803
613.300854	-94.114463
613.426346	-87.149781
613.551889	-85.493522
613.677484	-85.844582
613.803130	-86.111780
613.928827	-83.844438
614.054576	-85.668071
614.180377	-85.648442
614.306229	-87.100506
614.432132	-86.132095
614.558087	-81.983307
614.684094	-80.482290
614.810153	-80.695299
614.936263	-83.538481
615.062425	-93.986255
615.188639	-90.398235
615.314904	-83.875180
615.441222	-80.501101
615.567591	-82.339676
615.694012	-87.490865
615.820486	-89.582232
615.947011	-87.323620
616.073588	-83.116778
616.200217	-82.101196
616.326898	-83.211694
616.453632	-87.852956
616.580417	-83.439402
616.707255	-82.133254
616.834144	-81.624180
616.961086	-82.524225
617.088081	-83.141147
617.215127	-85.032163
617.342226	-86.104842
617.469378	-87.301140
617.596581	-88.788331
617.723837	-93.877178
617.851146	-95.225501
617.978507	-85.865430
618.105920	-83.822590
618.233386	-82.208237
618.360905	-81.204434
618.488476	-78.958631
618.616100	-79.814277
618.743777	-82.217281
618.871506	-82.154304
618.999288	-80.221431
619.127123	-81.128635
619.255011	-84.417371
619.382951	-88.349802
619.510945	-93.268441
619.638991	-109.174754
619.767090	-85.579364
619.895243	-81.527323
620.023448	-80.368131
620.151706	-83.377096
620.280017	-82.914733
620.408382	-81.588836
620.536799	-82.369812
620.665270	-83.475949
620.793794	-85.787789
620.922371	-91.392903
621.051002	-89.126938
621.179686	-84.820483
621.308423	-82.199525
621.437213	-80.545617
621.566057	-81.696010
621.694954	-86.819986
621.823905	-81.996422
621.952909	-77.722370
622.081967	-77.349864
622.211079	-79.028833
622.340244	-82.549027
622.469462	-84.354072
622.598735	-88.430663
622.728061	-90.172484
622.857441	-83.556025
622.986874	-79.741627
623.116361	-78.085407
623.245903	-78.355216
623.375498	-79.394569
623.505147	-77.878721
623.634850	-77.057175
623.764606	-78.162190
623.894417	-82.067398
624.024282	-91.436016
624.154201	-91.584387
624.284174	-86.164847
624.414202	-81.963510
624.544283	-82.444775
624.674419	-82.625905
624.804609	-82.802909
624.934853	-85.329658
625.065151	-89.136656
625.195504	-85.180375
625.325911	-82.997482
625.456373	-82.675282
625.586889	-84.625866
625.717460	-85.684345
625.848085	-83.407387
625.978764	-80.628612
626.109498	-79.434456
626.240287	-78.900226
626.371131	-79.751113
626.502029	-80.498804
626.632982	-81.911331
626.763989	-82.546379
626.895052	-85.513901
627.026169	-87.813484
627.157341	-86.438310
627.288568	-87.264534
627.419850	-82.555499
627.551187	-82.775523
627.682579	-83.111747
627.814026	-80.323481
627.945528	-79.095689
628.077085	-78.072457
628.208697	-79.555546
628.340364	-82.605660
628.472087	-89.445121
628.603865	-90.332570
628.735698	-85.873557
628.867586	-80.916575
628.999530	-79.730410
629.131529	-78.659465
629.263584	-78.116257
629.395694	-77.253252
629.527859	-79.936230
629.660080	-80.067532
629.792357	-83.585980
629.924689	-83.141828
630.057077	-81.469899
630.189520	-83.569019
630.322019	-92.114903
630.454574	-87.663335
630.587184	-84.643444
630.719851	-79.083604
630.852573	-82.421506
630.985351	-82.106550
631.118185	-83.327068
631.251075	-86.888116
631.384021	-83.293884
631.517023	-80.366484
631.650081	-83.376347
631.783195	-81.445554
631.916365	-80.421676
632.049592	-80.419499
632.182874	-79.681032
632.316213	-80.084559
632.449608	-84.246896
632.583059	-90.006391
632.716567	-98.226167
632.850131	-88.269198
632.983751	-80.836793
633.117428	-79.478695
633.251161	-77.694220
633.384951	-78.853950
633.518797	-77.704269
633.652700	-78.527256
633.786660	-78.522593
633.920676	-81.826993
634.054749	-84.123781
634.188879	-93.479617
634.323065	-83.730551
634.457308	-82.181528
634.591608	-79.837248
634.725965	-80.591070
634.860379	-81.951474
634.994850	-85.411521
635.129377	-85.117146
635.263962	-82.233109
635.398604	-79.548980
635.533303	-81.180270
635.668058	-80.824746
635.802872	-79.287579
635.937742	-81.334646
636.072669	-86.670256
636.207654	-89.005979
636.342696	-82.318661
636.477796	-86.762197
636.612953	-80.263422
636.748167	-76.822638
636.883439	-78.992760
637.018768	-86.074808
637.154155	-81.235345
637.289599	-79.466251
637.425101	-79.458457
637.560660	-82.808827
637.696277	-80.611166
637.831952	-80.710425
637.967685	-83.408351
638.103475	-86.895389
638.239324	-81.610937
638.375230	-76.789580
638.511194	-74.631506
638.647215	-72.750897
638.783295	-73.437782
638.919433	-74.056478
639.055629	-74.932307
639.191883	-78.552476
639.328195	-80.195187
639.464565	-76.218658
639.600994	-76.772111
639.737481	-76.460132
639.874025	-77.184185
640.010629	-74.981255
640.147290	-77.904107
640.284010	-85.070325
640.420789	-90.237534
640.557625	-83.501925
640.694521	-95.483613
640.831474	-79.744156
640.968487	-79.594316
641.105558	-79.712458
641.242687	-77.155523
641.379876	-72.813148
641.517123	-74.470287
641.654429	-78.722393
641.791793	-89.413384
641.929216	-82.543152
642.066699	-80.374401
642.204240	-83.986721
642.341840	-81.354680
642.479499	-76.718320
642.617217	-79.523470
642.754994	-89.153035
642.892830	-82.444793
643.030726	-79.510708
643.168680	-80.686214
643.306694	-80.193437
643.444767	-83.830797
643.582899	-78.528860
643.721091	-80.652498
643.859342	-86.628015
643.997652	-81.048288
644.136022	-77.531538
644.274451	-97.831130
644.412940	-79.148246
644.551488	-78.876052
644.690096	-77.142572
644.828763	-74.660944
644.967490	-75.573794
645.106277	-86.690050
645.245124	-77.287450
645.384030	-77.400712
645.522997	-79.231548
645.662023	-88.630380
645.801109	-76.032966
645.940255	-77.796075
646.079460	-82.686354
646.218726	-83.639462
646.358052	-103.229390
646.497438	-80.445333
646.636884	-78.452681
646.776391	-80.551475
646.915957	-79.507603
647.055584	-77.184706
647.195271	-76.210694
647.335019	-85.399585
647.474826	-76.726722
647.614695	-82.937992
647.754623	-80.380426
647.894612	-76.960531
648.034662	-78.005493
648.174772	-79.491429
648.314943	-81.248190
648.455174	-81.398904
648.595466	-81.427495
648.735819	-83.511915
648.876233	-83.941288
649.016707	-78.190288
649.157242	-74.606277
649.297838	-78.819681
649.438495	-79.948976
649.579213	-78.459594
649.719992	-77.087169
649.860832	-75.233437
650.001733	-81.759729
650.142695	-81.444174
650.283718	-83.300658
650.424803	-80.321854
650.565949	-77.454444
650.707156	-81.727551
650.848424	-80.051801
650.989754	-84.389758
651.131145	-81.353600
651.272597	-75.476050
651.414111	-84.608621
651.555687	-76.884464
651.697324	-79.980786
651.839022	-78.232971
651.980782	-76.656945
652.122604	-77.558098
652.264488	-85.927104
652.406433	-85.946485
652.548441	-75.384005
652.690510	-72.491654
652.832640	-74.682494
652.974833	-75.155498
653.117088	-80.121357
653.259405	-93.031673
653.401784	-77.758230
653.544224	-76.301128
653.686727	-82.081162
653.829293	-80.708218
653.971920	-77.581412
654.114609	-84.156033
654.257361	-78.646518
654.400175	-81.130246
654.543052	-80.738367
654.685991	-78.379473
654.828992	-75.449344
654.972056	-78.798236
655.115183	-72.840684
655.258372	-79.728190
655.401623	-77.703758
655.544937	-80.028406
655.688314	-98.188553
655.831754	-83.020571
655.975256	-81.523127
656.118822	-75.900005
656.262450	-74.431591
656.406141	-76.833803
656.549894	-75.254867
656.693711	-83.042046
656.837591	-82.203344
656.981534	-81.560262
657.125540	-80.467683
657.269610	-78.410386
657.413742	-76.351281
657.557938	-76.553981
657.702196	-78.945222
657.846519	-79.557562
657.990904	-82.425506
658.135353	-76.228026
658.279866	-78.486567
658.424441	-79.081824
658.569081	-79.183651
658.713784	-87.469519
658.858550	-85.968277
659.003381	-79.209498
659.148274	-77.620905
659.293232	-76.940364
659.438253	-79.462107
659.583339	-73.034190
659.728488	-79.884102
659.873701	-78.100312
660.018978	-88.828225
660.164318	-79.328781
660.309723	-78.367522
660.455192	-79.229444
660.600725	-74.547779
660.746323	-75.659766
660.891984	-81.699936
661.037710	-81.294037
661.183500	-81.900172
661.329354	-75.804186
661.475272	-74.302139
661.621255	-81.649130
661.767303	-78.361087
661.913415	-77.460334
662.059591	-79.149466
662.205833	-80.503208
662.352138	-82.898069
662.498509	-87.693628
662.644944	-78.613172
662.791443	-78.768964
662.938008	-76.643172
663.084638	-82.005171
663.231332	-79.194606
663.378091	-80.152891
663.524915	-81.300611
663.671804	-75.634240
663.818759	-73.321630
663.965778	-72.040054
664.112863	-74.810327
664.260012	-84.423528
664.407227	-83.525825
664.554507	-82.608098
664.701853	-79.972136
664.849264	-75.348008
664.996740	-79.039245
665.144282	-77.414298
665.291889	-85.753029
665.439561	-92.822188
665.587300	-80.471279
665.735103	-78.085786
665.882973	-73.992230
666.030908	-72.659286
666.178909	-78.499621
666.326976	-81.025787
666.475109	-88.141146
666.623307	-82.096647
666.771571	-74.596394
666.919902	-76.935819
667.068298	-76.804083
667.216761	-84.528144
667.365289	-88.371906
667.513884	-86.018531
667.662545	-76.330826
667.811272	-73.729811
667.960065	-71.255138
668.108925	-77.203456
668.257851	-76.385429
668.406843	-86.160114
668.555902	-86.771420
668.705027	-80.162390
668.854219	-80.037765
669.003478	-76.475255
669.152803	-87.146010
669.302195	-81.303588
669.451653	-81.006522
669.601179	-82.088435
669.750771	-111.041863
669.900430	-78.621859
670.050156	-76.859041
670.199949	-73.939721
670.349808	-75.271802
670.499735	-74.645091
670.649729	-83.754402
670.799790	-79.365901
670.949918	-77.088564
671.100114	-75.822285
671.250377	-75.148587
671.400707	-85.786761
671.551104	-76.767848
671.701569	-80.678628
671.852101	-83.073002
672.002700	-86.579063
672.153368	-81.905432
672.304102	-80.858401
672.454905	-77.924074
672.605775	-80.394814
672.756713	-78.583746
672.907718	-84.987916
673.058791	-77.059925
673.209933	-75.883253
673.361142	-78.361261
673.512419	-72.858721
673.663764	-75.458905
673.815177	-72.111120
673.966658	-78.588088
674.118207	-82.460563
674.269825	-85.169219
674.421510	-89.551806
674.573264	-81.264383
674.725086	-77.721077
674.876977	-76.750507
675.028936	-79.798619
675.180963	-87.419249
675.333059	-79.582226
675.485224	-77.138242
675.637457	-74.024998
675.789758	-78.501209
675.942129	-80.891542
676.094568	-93.315760
676.247075	-81.091864
676.399652	-78.087499
676.552298	-80.384203
676.705012	-74.643141
676.857795	-81.146772
677.010648	-74.652414
677.163569	-81.565811
677.316560	-77.279615
677.469619	-78.617191
677.622748	-88.949883
677.775946	-80.932299
677.929214	-86.620475
678.082551	-80.545609
678.235957	-82.311549
678.389432	-77.158339
678.542977	-85.901481
678.696592	-93.471357
678.850276	-83.866678
679.004030	-76.919879
679.157853	-80.098126
679.311746	-80.568291
679.465709	-85.181968
679.619742	-83.918540
679.773844	-79.554029
679.928017	-82.672286
680.082259	-84.509351
680.236571	-83.988976
680.390954	-81.438314
680.545406	-82.676422
680.699929	-83.583086
680.854522	-83.514853
681.009185	-81.037146
681.163918	-80.928279
681.318722	-80.277688
681.473596	-78.013551
681.628540	-77.392676
681.783555	-82.157736
681.938641	-84.622076
682.093797	-73.701232
682.249023	-72.741551
682.404321	-85.398022
682.559689	-80.389192
682.715128	-82.968423
682.870637	-85.618202
683.026218	-79.284408
683.181869	-77.860704
683.337591	-80.687507
683.493385	-82.701215
683.649249	-75.927899
683.805185	-81.673131
683.961191	-90.811620
684.117269	-77.633170
684.273418	-77.686929
684.429639	-73.468743
684.585930	-72.646637
684.742294	-76.924437
684.898728	-90.020192
685.055234	-73.938042
685.211812	-76.326508
685.368461	-77.009469
685.525182	-82.632800
685.681975	-75.319269
685.838839	-84.302193
685.995775	-77.575973
686.152783	-79.247298
686.309863	-78.263652
686.467014	-76.196135
686.624238	-72.374890
686.781534	-73.582342
686.938902	-75.347432
687.096342	-74.782326
687.253854	-82.824961
687.411438	-79.188187
687.569095	-73.628711
687.726824	-74.060930
687.884626	-73.205476
688.042499	-76.520310
688.200446	-75.743308
688.358465	-93.394252
688.516556	-73.827516
688.674720	-72.786811
688.832957	-70.526481
688.991266	-71.749385
689.149649	-71.681669
689.308104	-88.307830
689.466632	-80.598182
689.625233	-73.776193
689.783906	-70.085774
689.942653	-73.081397
690.101473	-73.627996
690.260367	-75.336186
690.419333	-74.624001
690.578372	-74.169391
690.737485	-70.781489
690.896672	-74.350136
691.055931	-72.170015
691.215264	-73.130647
691.374671	-72.323460
691.534151	-76.789772
691.693704	-73.650318
691.853332	-76.111883
692.013033	-71.733666
692.172807	-70.931925
692.332656	-71.287739
692.492578	-76.323912
692.652575	-71.806028
692.812645	-69.933809
692.972789	-70.336793
693.133007	-73.342324
693.293300	-71.454285
693.453666	-72.454314
693.614107	-83.572801
693.774622	-70.158003
693.935211	-68.882542
694.095875	-67.007357
694.256613	-71.131552
694.417426	-71.255419
694.578313	-76.227825
694.739274	-75.024802
694.900311	-72.200739
695.061421	-70.124563
695.222607	-70.138861
695.383868	-70.815466
695.545203	-69.943391
695.706613	-71.870057
695.868098	-72.847818
696.029658	-68.693422
696.191293	-70.331392
696.353003	-68.548973
696.514789	-72.007589
696.676649	-76.344595
696.838585	-70.305393
697.000596	-68.964557
697.162682	-69.414864
697.324844	-69.389369
697.487081	-71.309293
697.649394	-70.743257
697.811782	-73.927487
697.974246	-68.875635
698.136786	-65.917203
698.299401	-69.953496
698.462092	-70.300804
698.624859	-69.624507
698.787702	-76.227569
698.950621	-68.251302
699.113616	-66.104636
699.276686	-70.284830
699.439833	-71.872261
699.603056	-74.356259
699.766355	-73.683904
699.929731	-66.304211
700.093183	-67.797104
700.256711	-67.519578
700.420315	-71.631726
700.583996	-73.588254
700.747754	-70.927125
700.911588	-67.366019
701.075499	-67.846700
701.239486	-71.161220
701.403550	-68.685454
701.567691	-75.354153
701.731909	-68.437811
701.896203	-67.956685
702.060575	-69.692125
702.225024	-68.882629
702.389549	-68.088102
702.554152	-68.765783
702.718832	-66.893016
702.883589	-68.249050
703.048424	-73.834275
703.213335	-68.422008
703.378324	-70.387777
703.543391	-67.193514
703.708535	-67.156625
703.873757	-71.912703
704.039056	-75.300571
704.204433	-73.701098
704.369887	-66.067627
704.535420	-66.604096
704.701030	-69.486701
704.866718	-72.643592
705.032484	-68.961955
705.198328	-70.850704
705.364250	-67.637164
705.530250	-66.938293
705.696328	-68.089524
705.862485	-69.200723
706.028720	-70.578650
706.195033	-69.744250
706.361424	-73.354316
706.527894	-68.946905
706.694442	-68.588166
706.861069	-67.303187
707.027775	-69.234732
707.194559	-68.196654
707.361422	-68.988649
707.528363	-74.771149
707.695384	-70.774404
707.862483	-68.489239
708.029661	-68.073603
708.196918	-72.735938
708.364254	-68.956053
708.531670	-69.257174
708.699164	-73.039273
708.866738	-70.470434
709.034391	-69.814001
709.202123	-66.883434
709.369935	-66.069992
709.537826	-66.468299
709.705796	-70.562259
709.873847	-71.864914
710.041976	-73.624118
710.210186	-69.065700
710.378475	-65.312947
710.546844	-67.768210
710.715292	-67.279062
710.883821	-72.640084
711.052429	-73.796362
711.221118	-67.448586
711.389887	-66.743797
711.558735	-66.440324
711.727664	-71.806282
711.896673	-67.062084
712.065763	-68.995989
712.234932	-74.113906
712.404183	-69.149658
712.573513	-68.301243
712.742924	-68.050360
712.912416	-69.270804
713.081988	-66.836367
713.251641	-68.782839
713.421375	-69.299503
713.591190	-69.872400
713.761085	-67.618781
713.931061	-71.611042
714.101119	-79.321342
714.271257	-67.429888
714.441476	-65.076527
714.611777	-63.620469
714.782159	-64.975032
714.952622	-67.684596
715.123166	-76.986679
715.293792	-69.989483
715.464499	-69.530536
715.635288	-70.961061
715.806158	-66.732195
715.977110	-66.872084
716.148143	-67.820311
716.319259	-73.492665
716.490456	-67.802800
716.661735	-66.353730
716.833096	-68.037240
717.004538	-71.091489
717.176063	-72.017502
717.347670	-67.185453
717.519359	-67.806203
717.691130	-66.816604
717.862984	-68.399580
718.034920	-67.934409
718.206938	-68.254301
718.379039	-71.855870
718.551222	-67.733382
718.723488	-67.037889
718.895836	-67.979030
719.068267	-68.914372
719.240781	-63.908903
719.413377	-69.089236
719.586057	-75.422389
719.758819	-65.341709
719.931664	-65.461207
720.104593	-65.901451
720.277604	-72.483205
720.450699	-65.776626
720.623876	-69.143956
720.797137	-67.263613
720.970482	-65.913953
721.143910	-65.988453
721.317421	-66.133672
721.491016	-67.496280
721.664694	-66.493665
721.838456	-69.077668
722.012302	-65.729437
722.186231	-64.982994
722.360244	-64.721630
722.534342	-67.249828
722.708523	-68.889661
722.882788	-64.955121
723.057137	-64.910918
723.231570	-65.302096
723.406088	-64.257331
723.580689	-65.340701
723.755375	-64.087904
723.930146	-69.548856
724.105000	-63.462862
724.279940	-62.238369
724.454963	-63.823977
724.630072	-65.628573
724.805265	-66.404743
724.980543	-63.357853
725.155905	-65.186256
725.331353	-64.690637
725.506885	-64.768601
725.682503	-61.225909
725.858205	-63.954111
726.033993	-65.016678
726.209865	-64.890771
726.385823	-63.223316
726.561866	-60.693237
726.737995	-63.425584
726.914209	-63.119823
727.090508	-67.389390
727.266893	-61.814329
727.443364	-61.807102
727.619920	-64.049081
727.796562	-61.233358
727.973290	-64.346037
728.150103	-61.036707
728.327003	-63.687839
728.503988	-61.601393
728.681060	-61.776311
728.858218	-61.992918
729.035461	-61.521183
729.212791	-62.915406
729.390208	-61.206903
729.567710	-61.794353
729.745299	-61.227148
729.922975	-61.183841
730.100737	-62.001022
730.278586	-61.410896
730.456521	-62.449575
730.634543	-59.806086
730.812652	-59.523099
730.990848	-61.451406
731.169130	-61.975056
731.347500	-62.277818
731.525957	-62.215299
731.704500	-58.455060
731.883131	-59.280558
732.061850	-60.218256
732.240655	-61.188462
732.419548	-61.386696
732.598528	-60.702780
732.777596	-58.607483
732.956751	-58.228686
733.135994	-60.389211
733.315325	-59.587435
733.494744	-62.903017
733.674250	-59.766039
733.853844	-59.365088
734.033526	-58.805939
734.213296	-58.997643
734.393154	-59.989965
734.573101	-59.271685
734.753135	-59.920541
734.933258	-58.377082
735.113469	-58.872735
735.293769	-60.447350
735.474157	-58.728263
735.654633	-60.663432
735.835198	-57.816464
736.015852	-58.085740
736.196594	-58.200124
736.377426	-60.153684
736.558346	-58.326159
736.739355	-58.388799
736.920453	-58.760571
737.101640	-58.713456
737.282916	-59.519673
737.464282	-57.898665
737.645736	-56.883689
737.827280	-58.583252
738.008914	-57.751140
738.190637	-58.344806
738.372449	-59.095771
738.554351	-57.243967
738.736342	-57.525312
738.918424	-58.094035
739.100595	-57.756962
739.282855	-58.381505
739.465206	-58.166581
739.647647	-56.976622
739.830178	-57.557124
740.012799	-58.799080
740.195510	-57.118009
740.378311	-57.223050
740.561203	-58.071352
740.744185	-56.144633
740.927258	-57.346650
741.110421	-58.821840
741.293674	-57.280106
741.477018	-56.260332
741.660453	-56.745989
741.843979	-58.103991
742.027596	-57.686819
742.211303	-57.805494
742.395102	-56.024879
742.578991	-57.352529
742.762972	-56.815971
742.947044	-56.855580
743.131207	-56.821627
743.315461	-56.369715
743.499807	-57.877815
743.684244	-56.439063
743.868773	-56.979568
744.053394	-55.954508
744.238106	-56.926147
744.422910	-56.937606
744.607805	-56.915295
744.792793	-57.208980
744.977872	-56.311361
745.163044	-56.786985
745.348307	-55.834382
745.533663	-57.035537
745.719111	-56.404954
745.904651	-56.568257
746.090283	-57.472685
746.276008	-56.124825
746.461826	-56.647389
746.647735	-55.022436
746.833738	-57.554900
747.019833	-57.064451
747.206021	-57.513681
747.392302	-56.424619
747.578676	-55.286508
747.765143	-57.000192
747.951703	-56.213876
748.138356	-57.341745
748.325102	-55.552783
748.511941	-56.135409
748.698874	-56.890207
748.885900	-56.635607
749.073019	-55.752587
749.260232	-55.701148
749.447539	-58.034748
749.634939	-56.412357
749.822433	-57.685870
750.010021	-56.005212
750.197703	-55.870029
750.385479	-55.700157
750.573348	-56.493050
750.761312	-57.332082
750.949370	-56.054837
751.137523	-57.071094
751.325769	-56.248186
751.514110	-56.057027
751.702545	-56.103865
751.891075	-57.134434
752.079700	-58.034304
752.268419	-56.247023
752.457233	-56.388789
752.646142	-56.405311
752.835145	-57.448086
753.024244	-55.887336
753.213437	-56.416077
753.402726	-57.031888
753.592110	-57.547872
753.781589	-56.902072
753.971163	-58.198852
754.160833	-56.591871
754.350598	-54.969053
754.540459	-58.132054
754.730415	-56.704310
754.920467	-58.727575
755.110615	-56.743710
755.300858	-56.363297
755.491198	-57.388596
755.681633	-56.303597
755.872164	-57.343899
756.062792	-58.093575
756.253515	-59.502539
756.444335	-57.441157
756.635252	-57.037798
756.826264	-57.100589
757.017373	-56.580449
757.208579	-57.583104
757.399881	-57.747460
757.591280	-59.672339
757.782776	-57.910162
757.974368	-59.210803
758.166058	-57.165021
758.357844	-59.095783
758.549728	-57.602268
758.741708	-56.573969
758.933786	-59.603766
759.125961	-57.950728
759.318233	-61.783497
759.510603	-58.374859
759.703071	-58.929291
759.895635	-59.295705
760.088298	-58.091488
760.281058	-59.100354
760.473916	-58.960412
760.666872	-59.317110
760.859926	-58.993874
761.053078	-59.861995
761.246328	-60.357233
761.439676	-59.936772
761.633122	-58.651869
761.826667	-61.340699
762.020310	-60.714916
762.214052	-58.651863
762.407892	-63.485636
762.601831	-59.194080
762.795868	-63.722735
762.990004	-60.841715
763.184239	-60.943687
763.378573	-61.065406
763.573006	-60.336321
763.767538	-66.792789
763.962169	-59.281663
764.156900	-66.174860
764.351729	-60.088819
764.546658	-65.175310
764.741687	-66.304544
764.936815	-58.433979
765.132042	-66.242205
765.327370	-63.543174
765.522797	-64.082466
765.718324	-64.425689
765.913950	-66.290568
766.109677	-64.876232
766.305504	-62.704927
766.501431	-63.787761
766.697458	-70.098612
766.893586	-74.130652
767.089814	-62.906425
767.286142	-68.042441
767.482571	-63.182944
767.679100	-70.681425
767.875730	-69.619181
768.072461	-72.640094
768.269293	-72.840133
768.466225	-64.405071
768.663259	-75.415053
768.860393	-72.863587
769.057629	-72.010571
769.254966	-79.107408
769.452404	-66.912409
769.649944	-63.127091
769.847585	-73.220877
770.045328	-67.124743
770.243172	-64.429336
770.441118	-68.623956
770.639166	-72.909890
770.837315	-69.758343
771.035567	-75.791597
771.233920	-66.407483
771.432376	-70.243025
771.630934	-69.866342
771.829594	-61.561329
772.028356	-70.082901
772.227220	-74.705996
772.426188	-65.055023
772.625257	-63.206567
772.824430	-67.770291
773.023705	-59.275698
773.223083	-71.564101
773.422563	-68.235196
773.622147	-62.106847
773.821834	-63.451327
774.021624	-63.064283
774.221517	-63.525838
774.421513	-66.016879
774.621613	-62.015728
774.821816	-61.327073
775.022122	-61.955173
775.222532	-62.789652
775.423046	-59.596465
775.623664	-60.546756
775.824385	-57.939846
776.025211	-65.340718
776.226140	-59.720959
776.427173	-58.093836
776.628311	-60.292338
776.829553	-59.252215
777.030899	-57.876826
777.232350	-59.100762
777.433905	-58.670727
777.635564	-56.922643
777.837328	-57.788884
778.039197	-56.358094
778.241171	-60.593155
778.443250	-54.955367
778.645433	-57.198026
778.847722	-57.085671
779.050116	-55.137998
779.252615	-57.276874
779.455219	-55.195105
779.657929	-56.140399
779.860744	-55.459695
780.063665	-55.363491
780.266691	-55.548784
780.469823	-54.696967
780.673061	-54.493354
780.876405	-55.775758
781.079855	-53.613650
781.283410	-53.977690
781.487072	-54.431297
781.690840	-53.148569
781.894715	-54.424070
782.098695	-52.154462
782.302783	-54.409742
782.506976	-52.781389
782.711277	-54.341651
782.915684	-52.091862
783.120198	-51.906592
783.324818	-53.127900
783.529546	-50.812693
783.734381	-53.770610
783.939322	-51.848959
784.144372	-53.301233
784.349528	-50.733855
784.554792	-51.373425
784.760163	-51.402493
784.965642	-51.247586
785.171228	-51.723574
785.376922	-50.370106
785.582724	-52.235615
785.788634	-50.194697
785.994651	-51.238548
786.200777	-49.337582
786.407011	-50.609084
786.613353	-50.265904
786.819804	-50.643953
787.026363	-49.694459
787.233030	-49.286049
787.439806	-49.892481
787.646691	-49.276762
787.853684	-50.093286
788.060786	-49.386234
788.267997	-49.336423
788.475317	-49.054956
788.682746	-49.230650
788.890285	-49.671826
789.097932	-48.930106
789.305689	-48.647083
789.513555	-48.229765
789.721531	-49.145902
789.929617	-49.010687
790.137812	-48.532580
790.346117	-48.229631
790.554531	-47.707055
790.763056	-48.457700
790.971691	-47.977568
791.180436	-48.101363
791.389291	-47.252596
791.598256	-49.373192
791.807332	-47.300602
792.016518	-47.625014
792.225815	-46.755985
792.435222	-47.730018
792.644740	-47.965464
792.854369	-46.813085
793.064109	-47.631951
793.273960	-46.411405
793.483922	-47.848123
793.693995	-46.073565
793.904180	-47.437071
794.114475	-46.533264
794.324882	-47.142022
794.535401	-46.277097
794.746031	-46.203380
794.956774	-46.910842
795.167627	-46.197032
795.378593	-47.121326
795.589671	-45.475402
795.800861	-46.552742
796.012162	-45.360826
796.223577	-46.401432
796.435103	-46.023722
796.646742	-46.198715
796.858493	-45.558504
797.070357	-45.495108
797.282334	-45.653514
797.494423	-45.194410
797.706626	-46.275400
797.918941	-45.084144
798.131369	-45.775865
798.343911	-44.963714
798.556566	-45.210985
798.769334	-45.083521
798.982215	-44.968325
799.195210	-45.257305
799.408319	-45.204537
799.621541	-45.006682
799.834877	-44.530864
800.048327	-45.083481
800.261890	-44.184777
800.475568	-45.734828
800.689360	-44.474411
800.903266	-44.585155
801.117287	-44.329427
801.331422	-44.120073
801.545671	-44.456687
801.760036	-44.545527
801.974514	-44.709468
802.189108	-43.923085
802.403816	-44.602411
802.618640	-43.461539
802.833578	-44.803945
803.048632	-43.776386
803.263800	-44.030990
803.479085	-44.106750
803.694484	-43.723572
803.909999	-43.800703
804.125630	-43.703175
804.341376	-43.759523
804.557239	-43.908822
804.773217	-44.116614
804.989311	-43.045019
805.205521	-43.838749
805.421847	-43.376769
805.638290	-43.371954
805.854849	-43.734266
806.071524	-43.405477
806.288316	-43.149254
806.505225	-43.399006
806.722250	-43.821399
806.939393	-43.126674
807.156652	-43.181485
807.374028	-42.778102
807.591521	-43.421488
807.809132	-42.685433
808.026859	-43.589747
808.244705	-42.988221
808.462667	-43.031070
808.680748	-43.280035
808.898946	-42.732355
809.117261	-42.736680
809.335695	-42.312644
809.554246	-43.421323
809.772916	-42.535458
809.991704	-43.489939
810.210610	-42.339958
810.429634	-42.762455
810.648777	-42.563635
810.868039	-42.824715
811.087419	-42.840583
811.306918	-42.531492
811.526535	-42.164973
811.746272	-42.787505
811.966127	-42.580455
812.186102	-41.989030
812.406196	-43.196519
812.626409	-42.403361
812.846742	-42.611481
813.067194	-41.731874
813.287766	-42.564337
813.508457	-42.285944
813.729269	-42.544093
813.950200	-42.347280
814.171251	-42.128821
814.392422	-42.163670
814.613714	-42.192044
814.835126	-42.335825
815.056658	-41.857634
815.278311	-42.760581
815.500084	-42.060842
815.721978	-41.832207
815.943993	-41.725749
816.166128	-42.499234
816.388385	-42.399468
816.610762	-42.072841
816.833261	-41.994381
817.055881	-41.544082
817.278623	-42.252186
817.501486	-42.066057
817.724471	-42.187255
817.947577	-41.785764
818.170805	-42.503578
818.394155	-41.527004
818.617627	-41.953039
818.841221	-41.662669
819.064937	-42.401383
819.288775	-42.017541
819.512736	-41.603033
819.736819	-42.055757
819.961025	-41.618218
820.185354	-41.951277
820.409805	-41.828574
820.634379	-42.379370
820.859076	-41.622052
821.083897	-41.900948
821.308840	-41.281539
821.533907	-42.012278
821.759097	-41.798068
821.984411	-42.155287
822.209848	-41.731340
822.435409	-41.732336
822.661093	-41.517855
822.886902	-42.164826
823.112834	-41.932326
823.338891	-41.912748
823.565072	-41.587540
823.791377	-41.823783
824.017807	-41.618185
824.244361	-41.617250
824.471039	-42.332349
824.697843	-41.848285
824.924771	-42.091228
825.151824	-41.297515
825.379002	-42.372967
825.606306	-41.221774
825.833734	-42.264707
826.061288	-41.722277
826.288967	-42.290834
826.516772	-41.392693
826.744703	-41.652922
826.972759	-42.092722
827.200941	-41.475854
827.429249	-42.646982
827.657683	-41.653010
827.886243	-42.217287
828.114930	-41.091316
828.343743	-42.111482
828.572682	-41.680860
828.801748	-42.469499
829.030941	-41.933751
829.260260	-41.679443
829.489706	-41.648678
829.719280	-41.960074
829.948980	-42.268959
830.178808	-41.869256
830.408763	-42.217172
830.638845	-41.800378
830.869055	-42.088000
831.099393	-41.823830
831.329858	-41.997383
831.560451	-42.389218
831.791173	-42.407479
832.022022	-41.753351
832.252999	-42.070809
832.484105	-42.051654
832.715339	-42.323715
832.946702	-42.284013
833.178193	-42.189002
833.409813	-42.220799
833.641561	-42.305855
833.873439	-42.187107
834.105445	-42.063606
834.337581	-42.734261
834.569846	-42.562957
834.802241	-42.092036
835.034764	-41.791284
835.267418	-42.697015
835.500201	-42.282464
835.733114	-42.530720
835.966157	-42.370731
836.199329	-42.942602
836.432632	-41.870919
836.666065	-42.252605
836.899629	-42.945533
837.133323	-42.795296
837.367147	-42.749340
837.601102	-42.494206
837.835188	-42.235848
838.069405	-42.271874
838.303752	-43.058685
838.538231	-42.590540
838.772841	-43.048166
839.007582	-42.630172
839.242455	-42.538805
839.477459	-42.886585
839.712595	-43.354644
839.947863	-42.712403
840.183263	-43.181098
840.418794	-42.974437
840.654458	-42.788740
840.890254	-42.644790
841.126182	-43.255146
841.362242	-43.330793
841.598435	-43.006215
841.834761	-42.958488
842.071220	-42.831975
842.307811	-43.586092
842.544536	-43.486564
842.781393	-43.009523
843.018384	-43.714365
843.255508	-43.260107
843.492765	-42.567518
843.730156	-43.792514
843.967681	-43.265702
844.205339	-43.510093
844.443132	-43.439438
844.681058	-43.142848
844.919118	-43.515888
845.157313	-43.285252
845.395642	-43.370227
845.634105	-44.268173
845.872703	-43.521402
846.111436	-43.012255
846.350303	-44.119804
846.589306	-42.974011
846.828443	-44.504832
847.067716	-43.171929
847.307124	-44.509917
847.546667	-43.551162
847.786345	-43.672650
848.026160	-43.312394
848.266110	-44.654831
848.506195	-43.591762
848.746417	-44.444132
848.986775	-43.107271
849.227269	-44.235287
849.467899	-43.653710
849.708666	-44.120741
849.949569	-43.866261
850.190609	-44.371185
850.431785	-43.858070
850.673099	-43.524487
850.914549	-44.736636
851.156137	-43.444835
851.397861	-44.825603
851.639723	-43.739017
851.881723	-44.159419
852.123860	-43.194815
852.366135	-44.494764
852.608547	-43.472891
852.851098	-44.555292
853.093786	-43.642051
853.336613	-43.656862
853.579578	-43.994412
853.822681	-44.016728
854.065923	-44.413954
854.309304	-43.947755
854.552823	-44.500641
854.796481	-43.230106
855.040278	-44.331641
855.284215	-43.786590
855.528290	-44.308595
855.772505	-43.877277
856.016859	-43.564348
856.261353	-43.530491
856.505987	-43.471526
856.750760	-43.968783
856.995673	-44.049452
857.240727	-43.573275
857.485920	-43.650097
857.731254	-43.165341
857.976729	-43.941603
858.222343	-43.430039
858.468099	-44.138391
858.713995	-43.379301
858.960032	-43.093426
859.206211	-43.428967
859.452530	-43.014647
859.698991	-43.641837
859.945593	-43.388244
860.192336	-43.439225
860.439222	-42.710080
860.686248	-42.732853
860.933417	-43.347116
861.180728	-43.373591
861.428181	-42.959272
861.675776	-42.788348
861.923514	-42.443672
862.171394	-43.031978
862.419417	-42.385414
862.667582	-43.108620
862.915890	-42.793564
863.164342	-42.177401
863.412936	-42.329336
863.661674	-42.357496
863.910555	-42.450564
864.159579	-42.579147
864.408747	-42.116484
864.658059	-42.021125
864.907515	-42.235629
865.157114	-41.633895
865.406858	-42.716890
865.656746	-41.487357
865.906778	-41.790483
866.156955	-41.088118
866.407277	-41.943315
866.657743	-41.445381
866.908354	-41.418743
867.159110	-41.265698
867.410011	-40.852263
867.661057	-41.159555
867.912249	-40.991420
868.163586	-40.958908
868.415069	-41.452971
868.666697	-40.185028
868.918472	-41.090997
869.170392	-40.333312
869.422458	-40.809705
869.674671	-40.713060
869.927030	-40.472337
870.179536	-40.326699
870.432188	-39.971626
870.684987	-40.116082
870.937933	-40.524801
871.191026	-40.014145
871.444266	-40.013007
871.697653	-39.570927
871.951188	-39.695958
872.204870	-39.744903
872.458700	-39.845484
872.712677	-39.574768
872.966803	-39.335461
873.221076	-39.416952
873.475498	-39.266535
873.730068	-39.268751
873.984787	-39.340770
874.239654	-39.130971
874.494669	-38.790512
874.749834	-38.880452
875.005147	-38.957127
875.260610	-38.727984
875.516222	-38.898878
875.771983	-38.364344
876.027894	-38.563345
876.283954	-38.346532
876.540164	-38.571289
876.796524	-38.182566
877.053033	-38.389352
877.309693	-37.838461
877.566503	-38.202585
877.823464	-38.011965
878.080575	-38.103638
878.337837	-37.729536
878.595249	-37.886561
878.852813	-37.468165
879.110528	-37.894975
879.368393	-37.629605
879.626410	-37.546101
879.884579	-37.243198
880.142899	-37.325930
880.401371	-37.297635
880.659994	-37.277569
880.918770	-37.159668
881.177698	-37.042107
881.436778	-36.684624
881.696010	-37.043636
881.955395	-36.817598
882.214933	-36.818253
882.474623	-36.642292
882.734467	-36.544913
882.994463	-36.384946
883.254613	-36.560218
883.514916	-36.501145
883.775372	-36.459115
884.035982	-36.073962
884.296746	-36.147232
884.557664	-36.090315
884.818735	-36.260736
885.079961	-36.155975
885.341341	-35.872532
885.602876	-35.700100
885.864565	-35.853000
886.126409	-35.858823
886.388407	-35.882093
886.650561	-35.579370
886.912870	-35.529430
887.175334	-35.399046
887.437953	-35.469119
887.700728	-35.612871
887.963658	-35.461268
888.226745	-35.081124
888.489987	-35.088821
888.753385	-35.230258
889.016940	-35.243178
889.280651	-35.123735
889.544518	-34.904715
889.808543	-34.855766
890.072723	-34.767739
890.337061	-35.014375
890.601556	-34.827972
890.866208	-34.722948
891.131017	-34.433864
891.395984	-34.671843
891.661109	-34.543521
891.926391	-34.639374
892.191831	-34.424473
892.457429	-34.273474
892.723186	-34.231357
892.989100	-34.415355
893.255173	-34.209969
893.521405	-34.307082
893.787796	-33.910543
894.054345	-34.099577
894.321053	-33.980710
894.587921	-34.034007
894.854948	-33.908171
895.122134	-33.895746
895.389480	-33.576976
895.656986	-33.871008
895.924651	-33.675446
896.192477	-33.683298
896.460463	-33.507723
896.728609	-33.502954
896.996915	-33.477451
897.265382	-33.457198
897.534010	-33.433909
897.802799	-33.209417
898.071749	-33.307984
898.340860	-33.264507
898.610132	-33.132089
898.879566	-33.136624
899.149162	-33.140498
899.418919	-32.937210
899.688838	-33.090464
899.958919	-32.877874
900.229162	-32.910750
900.499568	-32.832260
900.770136	-32.849687
901.040867	-32.735651
901.311761	-32.731550
901.582817	-32.617263
901.854037	-32.663551
902.125420	-32.476844
902.396966	-32.671439
902.668676	-32.376172
902.940550	-32.435399
903.212587	-32.326566
903.484788	-32.364399
903.757153	-32.313890
904.029683	-32.244328
904.302377	-32.095928
904.575236	-32.107877
904.848259	-32.135732
905.121447	-32.104287
905.394800	-31.911424
905.668319	-31.882391
905.942002	-31.917489
906.215852	-31.781763
906.489866	-31.921731
906.764047	-31.739063
907.038393	-31.531792
907.312906	-31.656797
907.587584	-31.682733
907.862429	-31.577251
908.137441	-31.454929
908.412619	-31.340643
908.687964	-31.483878
908.963476	-31.317014
909.239155	-31.490389
909.515002	-31.109487
909.791015	-31.195382
910.067197	-31.181009
910.343546	-31.288040
910.620063	-31.038650
910.896748	-31.079993
911.173601	-30.915457
911.450623	-31.048099
911.727813	-31.039361
912.005171	-30.956313
912.282699	-30.782563
912.560395	-30.747989
912.838261	-30.972716
913.116296	-30.807614
913.394500	-30.749851
913.672874	-30.587272
913.951418	-30.680546
914.230131	-30.673996
914.509015	-30.759276
914.788068	-30.449311
915.067292	-30.431230
915.346687	-30.537709
915.626252	-30.582868
915.905988	-30.401299
916.185895	-30.391582
916.465973	-30.269094
916.746223	-30.348728
917.026644	-30.495447
917.307236	-30.188864
917.588000	-30.207553
917.868937	-30.228932
918.150045	-30.279635
918.431325	-30.202344
918.712778	-30.184667
918.994404	-30.010545
919.276202	-30.180081
919.558173	-30.121893
919.840317	-30.110782
920.122634	-29.965998
920.405125	-29.949357
920.687789	-30.028114
920.970627	-29.968420
921.253639	-29.967845
921.536824	-29.744585
921.820184	-29.812947
922.103718	-29.864426
922.387427	-29.857022
922.671310	-29.592162
922.955368	-29.697188
923.239601	-29.604914
923.524009	-29.737021
923.808592	-29.532133
924.093351	-29.489058
924.378285	-29.425901
924.663396	-29.576636
924.948682	-29.490540
925.234144	-29.274037
925.519782	-29.391434
925.805597	-29.255390
926.091589	-29.436790
926.377757	-29.267075
926.664102	-29.165228
926.950624	-29.092879
927.237323	-29.293793
927.524200	-29.171980
927.811255	-29.022052
928.098487	-29.042363
928.385897	-28.971150
928.673485	-29.072909
928.961251	-29.014931
929.249196	-28.797315
929.537319	-28.756520
929.825621	-29.014691
930.114102	-28.787307
930.402762	-28.704475
930.691601	-28.722970
930.980620	-28.573934
931.269818	-28.763231
931.559196	-28.744410
931.848753	-28.374743
932.138491	-28.518626
932.428409	-28.685159
932.718508	-28.410521
933.008787	-28.579890
933.299246	-28.265335
933.589887	-28.413048
933.880709	-28.566874
934.171712	-28.354994
934.462896	-28.168163
934.754262	-28.480665
935.045810	-28.195074
935.337539	-28.387936
935.629451	-28.317077
935.921545	-27.952694
936.213822	-28.417040
936.506281	-28.171084
936.798922	-28.090571
937.091747	-28.134360
937.384755	-27.988041
937.677946	-28.095459
937.971321	-28.102200
938.264879	-27.805353
938.558621	-28.010362
938.852547	-27.841666
939.146657	-27.870622
939.440952	-27.928984
939.735431	-27.583621
940.030095	-27.821937
940.324943	-27.732142
940.619977	-27.718229
940.915196	-27.659527
941.210600	-27.426283
941.506189	-27.849110
941.801965	-27.521494
942.097926	-27.543068
942.394074	-27.469284
942.690407	-27.591333
942.986927	-27.642612
943.283634	-27.353989
943.580527	-27.488078
943.877608	-27.576044
944.174875	-27.437579
944.472330	-27.512247
944.769972	-27.333638
945.067802	-27.581775
945.365820	-27.354079
945.664026	-27.505295
945.962420	-27.357139
946.261002	-27.322717
946.559773	-27.509126
946.858733	-27.305870
947.157881	-27.370929
947.457219	-27.185028
947.756746	-27.431127
948.056462	-27.245991
948.356368	-27.207700
948.656464	-27.172634
948.956749	-27.189478
949.257225	-27.231276
949.557891	-27.030510
949.858748	-27.118837
950.159796	-26.962641
950.461034	-27.172685
950.762463	-26.917269
951.064084	-26.949156
951.365896	-26.875250
951.667900	-26.988063
951.970095	-26.904295
952.272483	-26.731621
952.575063	-26.823536
952.877835	-26.841743
953.180799	-26.834464
953.483956	-26.609338
953.787307	-26.767076
954.090850	-26.664785
954.394586	-26.823194
954.698516	-26.522135
955.002640	-26.651270
955.306957	-26.584611
955.611469	-26.797276
955.916174	-26.377760
956.221074	-26.629987
956.526169	-26.475861
956.831458	-26.727483
957.136942	-26.316308
957.442622	-26.520287
957.748496	-26.447657
958.054567	-26.550870
958.360833	-26.325687
958.667294	-26.393562
958.973952	-26.332213
959.280806	-26.480405
959.587857	-26.245260
959.895104	-26.243592
960.202548	-26.281527
960.510189	-26.351149
960.818027	-26.129828
961.126062	-26.184805
961.434295	-26.128431
961.742726	-26.256921
962.051355	-26.039290
962.360182	-26.064925
962.669207	-26.028205
962.978431	-26.130886
963.287854	-25.998712
963.597475	-25.888546
963.907296	-25.987217
964.217315	-26.029187
964.527535	-25.867627
964.837954	-25.827187
965.148573	-25.904560
965.459392	-25.942608
965.770411	-25.727895
966.081630	-25.847367
966.393051	-25.780611
966.704672	-25.821381
967.016494	-25.744601
967.328517	-25.725127
967.640742	-25.734664
967.953169	-25.756174
968.265797	-25.721411
968.578627	-25.638818
968.891660	-25.701811
969.204895	-25.731653
969.518332	-25.646420
969.831972	-25.633304
970.145816	-25.627758
970.459862	-25.731494
970.774112	-25.584172
971.088565	-25.591736
971.403223	-25.590313
971.718084	-25.700324
972.033149	-25.525311
972.348419	-25.520909
972.663893	-25.614579
972.979572	-25.555739
973.295456	-25.542783
973.611546	-25.433805
973.927840	-25.560511
974.244340	-25.537265
974.561046	-25.423917
974.877958	-25.412062
975.195076	-25.519291
975.512401	-25.453913
975.829932	-25.354645
976.147670	-25.372451
976.465615	-25.472580
976.783767	-25.345502
977.102126	-25.323749
977.420693	-25.301179
977.739468	-25.409039
978.058451	-25.281737
978.377642	-25.227139
978.697041	-25.287461
979.016649	-25.303150
979.336466	-25.228864
979.656492	-25.161275
979.976727	-25.246336
980.297171	-25.243651
980.617825	-25.139493
980.938689	-25.131030
981.259763	-25.194408
981.581048	-25.161707
981.902542	-25.076440
982.224248	-25.069952
982.546164	-25.144605
982.868291	-25.053774
983.190630	-25.023792
983.513180	-24.980097
983.835942	-25.089747
984.158916	-24.948818
984.482101	-24.929278
984.805500	-24.948411
985.129110	-24.967455
985.452934	-24.871440
985.776970	-24.841212
986.101220	-24.886521
986.425683	-24.878876
986.750359	-24.756186
987.075250	-24.796420
987.400354	-24.795957
987.725673	-24.790416
988.051206	-24.666994
988.376954	-24.722284
988.702916	-24.765537
989.029094	-24.639753
989.355487	-24.642695
989.682095	-24.661465
990.008919	-24.700649
990.335959	-24.547202
990.663216	-24.604909
990.990688	-24.637068
991.318377	-24.590614
991.646283	-24.506237
991.974406	-24.574763
992.302746	-24.582210
992.631304	-24.516659
992.960079	-24.465873
993.289072	-24.570856
993.618283	-24.521618
993.947713	-24.444116
994.277361	-24.502498
994.607227	-24.487983
994.937313	-24.510061
995.267618	-24.387126
995.598142	-24.472057
995.928886	-24.482362
996.259849	-24.407989
996.591033	-24.357645
996.922437	-24.462076
997.254061	-24.420501
997.585906	-24.305202
997.917972	-24.367365
998.250260	-24.417672
998.582768	-24.311871
998.915498	-24.278962
999.248450	-24.339098
999.581624	-24.331420
999.915020	-24.255642
1000.248639	-24.196611
1000.582480	-24.354290
1000.916545	-24.218629
1001.250832	-24.156312
1001.585343	-24.251789
1001.920077	-24.232157
1002.255035	-24.173072
1002.590218	-24.122089
1002.925624	-24.225168
1003.261255	-24.185300
1003.597111	-24.068391
1003.933192	-24.131576
1004.269497	-24.185045
1004.606029	-24.066022
1004.942785	-24.025493
1005.279768	-24.122915
1005.616977	-24.087225
1005.954412	-23.964271
1006.292074	-24.016174
1006.629962	-24.062634
1006.968077	-23.945518
1007.306420	-23.923024
1007.644990	-23.945778
1007.983787	-23.984635
1008.322813	-23.813050
1008.662067	-23.853977
1009.001549	-23.946688
1009.341259	-23.776595
1009.681199	-23.778433
1010.021367	-23.842237
1010.361765	-23.788585
1010.702392	-23.737555
1011.043250	-23.710444
1011.384337	-23.807940
1011.725654	-23.720066
1012.067202	-23.629250
1012.408980	-23.797499
1012.750989	-23.717857
1013.093230	-23.648170
1013.435702	-23.735656
1013.778405	-23.745052
1014.121341	-23.720483
1014.464508	-23.665420
1014.807908	-23.783030
1015.151540	-23.770912
1015.495405	-23.664254
1015.839503	-23.779634
1016.183835	-23.799639
1016.528400	-23.715566
1016.873198	-23.738186
1017.218231	-23.790722
1017.563498	-23.761668
1017.908999	-23.672347
1018.254735	-23.737527
1018.600707	-23.738781
1018.946913	-23.615852
1019.293354	-23.624313
1019.640032	-23.664811
1019.986945	-23.541584
1020.334094	-23.503846
1020.681480	-23.512692
1021.029102	-23.473153
1021.376961	-23.347616
1021.725058	-23.337231
1022.073391	-23.362385
1022.421962	-23.202062
1022.770772	-23.172481
1023.119819	-23.208243
1023.469104	-23.098957
1023.818628	-23.022058
1024.168391	-23.056760
1024.518393	-23.008689
1024.868634	-22.914690
1025.219115	-22.899671
1025.569836	-22.956364
1025.920796	-22.822133
1026.271997	-22.811919
1026.623438	-22.886083
1026.975121	-22.795414
1027.327044	-22.767219
1027.679208	-22.822513
1028.031614	-22.814841
1028.384262	-22.752062
1028.737152	-22.780437
1029.090284	-22.842798
1029.443659	-22.778173
1029.797276	-22.759030
1030.151137	-22.886534
1030.505240	-22.810095
1030.859587	-22.789984
1031.214178	-22.888075
1031.569013	-22.866779
1031.924093	-22.827253
1032.279417	-22.868315
1032.634985	-22.924362
1032.990799	-22.849632
1033.346858	-22.854094
1033.703162	-22.944346
1034.059712	-22.865164
1034.416509	-22.822170
1034.773551	-22.918614
1035.130841	-22.843421
1035.488377	-22.790111
1035.846160	-22.824348
1036.204190	-22.803544
1036.562468	-22.720500
1036.920994	-22.695811
1037.279768	-22.731257
1037.638790	-22.601850
1037.998061	-22.556153
1038.357581	-22.597235
1038.717350	-22.477939
1039.077368	-22.395970
1039.437636	-22.442078
1039.798154	-22.326783
1040.158922	-22.256302
1040.519940	-22.247581
1040.881209	-22.204766
1041.242729	-22.100908
1041.604501	-22.078081
1041.966524	-22.087399
1042.328798	-21.971616
1042.691325	-21.940952
1043.054103	-21.976728
1043.417135	-21.872506
1043.780419	-21.836495
1044.143956	-21.882468
1044.507746	-21.803711
1044.871791	-21.758738
1045.236088	-21.812879
1045.600641	-21.758159
1045.965447	-21.716527
1046.330508	-21.742813
1046.695824	-21.745095
1047.061395	-21.679336
1047.427222	-21.700449
1047.793304	-21.731283
1048.159642	-21.657987
1048.526237	-21.667549
1048.893088	-21.719175
1049.260196	-21.642204
1049.627561	-21.639090
1049.995183	-21.701736
1050.363063	-21.626305
1050.731201	-21.621679
1051.099597	-21.669947
1051.468251	-21.616816
1051.837164	-21.599290
1052.206336	-21.628793
1052.575767	-21.617589
1052.945458	-21.561143
1053.315409	-21.594564
1053.685619	-21.602589
1054.056090	-21.525130
1054.426821	-21.556075
1054.797814	-21.579085
1055.169067	-21.477500
1055.540582	-21.515600
1055.912359	-21.536128
1056.284398	-21.433059
1056.656698	-21.455258
1057.029262	-21.477982
1057.402088	-21.380188
1057.775177	-21.383126
1058.148530	-21.403455
1058.522146	-21.311444
1058.896027	-21.296007
1059.270171	-21.315151
1059.644580	-21.237336
1060.019254	-21.186958
1060.394193	-21.216501
1060.769397	-21.148119
1061.144867	-21.072056
1061.520602	-21.115461
1061.896604	-21.042514
1062.272872	-20.954109
1062.649407	-21.011123
1063.026210	-20.927062
1063.403279	-20.846348
1063.780616	-20.886693
1064.158221	-20.822854
1064.536094	-20.734028
1064.914235	-20.769081
1065.292645	-20.712893
1065.671325	-20.621132
1066.050273	-20.660029
1066.429491	-20.606601
1066.808979	-20.525483
1067.188738	-20.544603
1067.568766	-20.513827
1067.949066	-20.431357
1068.329636	-20.446937
1068.710478	-20.431924
1069.091592	-20.347858
1069.472977	-20.363015
1069.854635	-20.373306
1070.236565	-20.271915
1070.618768	-20.300692
1071.001243	-20.314533
1071.383993	-20.215821
1071.767016	-20.255773
1072.150313	-20.266829
1072.533884	-20.177196
1072.917730	-20.211463
1073.301850	-20.239639
1073.686246	-20.138013
1074.070917	-20.183988
1074.455864	-20.206002
1074.841087	-20.108945
1075.226586	-20.174704
1075.612362	-20.171141
1075.998415	-20.091070
1076.384745	-20.151137
1076.771353	-20.151868
1077.158238	-20.081299
1077.545401	-20.126773
1077.932843	-20.138670
1078.320564	-20.059701
1078.708564	-20.120222
1079.096842	-20.113313
1079.485401	-20.044186
1079.874240	-20.093440
1080.263358	-20.090218
1080.652757	-20.017690
1081.042438	-20.058439
1081.432399	-20.050311
1081.822641	-19.969477
1082.213166	-20.015025
1082.603972	-19.992424
1082.995061	-19.905684
1083.386433	-19.946427
1083.778087	-19.915710
1084.170025	-19.825193
1084.562246	-19.868216
1084.954751	-19.821220
1085.347541	-19.731243
1085.740615	-19.782230
1086.133973	-19.715421
1086.527617	-19.634678
1086.921546	-19.682879
1087.315761	-19.610745
1087.710262	-19.532269
1088.105050	-19.594954
1088.500124	-19.487516
1088.895485	-19.446326
1089.291134	-19.486373
1089.687070	-19.379642
1090.083294	-19.349457
1090.479806	-19.379963
1090.876607	-19.271709
1091.273696	-19.250325
1091.671075	-19.278408
1092.068744	-19.149636
1092.466702	-19.166771
1092.864950	-19.160581
1093.263489	-19.053148
1093.662319	-19.071297
1094.061440	-19.061957
1094.460852	-18.955739
1094.860555	-19.002220
1095.260551	-18.963192
1095.660840	-18.885196
1096.061421	-18.938348
1096.462295	-18.891835
1096.863462	-18.837367
1097.264923	-18.887976
1097.666678	-18.840997
1098.068727	-18.799248
1098.471071	-18.866295
1098.873710	-18.791426
1099.276644	-18.788010
1099.679874	-18.830086
1100.083400	-18.763581
1100.487222	-18.764279
1100.891340	-18.800006
1101.295756	-18.720452
1101.700468	-18.737417
1102.105478	-18.752796
1102.510787	-18.663344
1102.916393	-18.698930
1103.322298	-18.679495
1103.728502	-18.601831
1104.135005	-18.638627
1104.541807	-18.592746
1104.948909	-18.532526
1105.356312	-18.565009
1105.764015	-18.505165
1106.172019	-18.458277
1106.580324	-18.489758
1106.988931	-18.419363
1107.397840	-18.395023
1107.807051	-18.417823
1108.216564	-18.340189
1108.626380	-18.343752
1109.036500	-18.348059
1109.446923	-18.280865
1109.857649	-18.287167
1110.268680	-18.290231
1110.680016	-18.214139
1111.091657	-18.242507
1111.503602	-18.213882
1111.915854	-18.149525
1112.328411	-18.179612
1112.741275	-18.126103
1113.154445	-18.070123
1113.567922	-18.094441
1113.981706	-18.017712
1114.395798	-17.974934
1114.810198	-17.988594
1115.224906	-17.884118
1115.639923	-17.875739
1116.055249	-17.853704
1116.470884	-17.757085
1116.886829	-17.763213
1117.303084	-17.716231
1117.719650	-17.642545
1118.136526	-17.657530
1118.553713	-17.593718
1118.971212	-17.551607
1119.389022	-17.572189
1119.807145	-17.499429
1120.225580	-17.501972
1120.644328	-17.505164
1121.063389	-17.453929
1121.482763	-17.482565
1121.902452	-17.472248
1122.322454	-17.449228
1122.742771	-17.489478
1123.163404	-17.471255
1123.584351	-17.471145
1124.005614	-17.512083
1124.427193	-17.485330
1124.849089	-17.506795
1125.271301	-17.530241
1125.693830	-17.497120
1126.116677	-17.530063
1126.539842	-17.527186
1126.963324	-17.489119
1127.387126	-17.521387
1127.811246	-17.483208
1128.235685	-17.449284
1128.660444	-17.466897
1129.085522	-17.392836
1129.510922	-17.370682
1129.936641	-17.362669
1130.362682	-17.261656
1130.789044	-17.262662
1131.215728	-17.205902
1131.642734	-17.119577
1132.070063	-17.120456
1132.497714	-17.028505
1132.925689	-16.977987
1133.353987	-16.956933
1133.782610	-16.863787
1134.211556	-16.838235
1134.640827	-16.799757
1135.070424	-16.724478
1135.500345	-16.714138
1135.930593	-16.665834
1136.361166	-16.614872
1136.792067	-16.621219
1137.223294	-16.554511
1137.654848	-16.551552
1138.086730	-16.541127
1138.518940	-16.491444
1138.951479	-16.513413
1139.384346	-16.481783
1139.817543	-16.469337
1140.251069	-16.485279
1140.684925	-16.455135
1141.119111	-16.457336
1141.553628	-16.477996
1141.988475	-16.432829
1142.423655	-16.462993
1142.859166	-16.458821
1143.295009	-16.422615
1143.731185	-16.469687
1144.167694	-16.414662
1144.604536	-16.432756
1145.041711	-16.431271
1145.479221	-16.388925
1145.917065	-16.409498
1146.355245	-16.379079
1146.793759	-16.353642
1147.232609	-16.359058
1147.671795	-16.310310
1148.111317	-16.307703
1148.551177	-16.285681
1148.991373	-16.230297
1149.431907	-16.252112
1149.872779	-16.182866
1150.313989	-16.173114
1150.755538	-16.153096
1151.197426	-16.099302
1151.639653	-16.098305
1152.082220	-16.054422
1152.525128	-16.017762
1152.968376	-16.021342
1153.411966	-15.959546
1153.855897	-15.949586
1154.300169	-15.938976
1154.744784	-15.879112
1155.189742	-15.901377
1155.635042	-15.841831
1156.080687	-15.843097
1156.526674	-15.829926
1156.973007	-15.783800
1157.419683	-15.803883
1157.866705	-15.770648
1158.314072	-15.748745
1158.761786	-15.762967
1159.209845	-15.727313
1159.658251	-15.731640
1160.107004	-15.721833
1160.556104	-15.699196
1161.005553	-15.722234
1161.455349	-15.680168
1161.905494	-15.693800
1162.355989	-15.693092
1162.806832	-15.658282
1163.258026	-15.689732
1163.709570	-15.645920
1164.161464	-15.664373
1164.613710	-15.654017
1165.066307	-15.620460
1165.519256	-15.649089
1165.972558	-15.619184
1166.426212	-15.590217
1166.880219	-15.628122
1167.334580	-15.563903
1167.789295	-15.572650
1168.244364	-15.573094
1168.699788	-15.516921
1169.155567	-15.542371
1169.611702	-15.496860
1170.068193	-15.478270
1170.525041	-15.483691
1170.982245	-15.427479
1171.439807	-15.419660
1171.897726	-15.424332
1172.356004	-15.340947
1172.814640	-15.369365
1173.273635	-15.336296
1173.732989	-15.269508
1174.192703	-15.302044
1174.652778	-15.243146
1175.113213	-15.196870
1175.574009	-15.234543
1176.035167	-15.131131
1176.496687	-15.147393
1176.958569	-15.136549
1177.420814	-15.033258
1177.883422	-15.101187
1178.346394	-15.013443
1178.809730	-14.966938
1179.273430	-15.029647
1179.737496	-14.890546
1180.201927	-14.927845
1180.666723	-14.916586
1181.131886	-14.801939
1181.597416	-14.879028
1182.063312	-14.786594
1182.529576	-14.749996
1182.996209	-14.797943
1183.463209	-14.668773
1183.930579	-14.719554
1184.398317	-14.676018
1184.866426	-14.599689
1185.334904	-14.662363
1185.803754	-14.556311
1186.272974	-14.562281
1186.742566	-14.566847
1187.212529	-14.474830
1187.682865	-14.518141
1188.153574	-14.457699
1188.624656	-14.435753
1189.096112	-14.438207
1189.567942	-14.381488
1190.040147	-14.396389
1190.512726	-14.348359
1190.985681	-14.338356
1191.459012	-14.336458
1191.932720	-14.277355
1192.406804	-14.307684
1192.881265	-14.255854
1193.356104	-14.246940
1193.831322	-14.249397
1194.306918	-14.198283
1194.782893	-14.221712
1195.259248	-14.175983
1195.735982	-14.173088
1196.213097	-14.172631
1196.690593	-14.120225
1197.168471	-14.154750
1197.646730	-14.103161
1198.125371	-14.098498
1198.604395	-14.108237
1199.083803	-14.051654
1199.563594	-14.077308
1200.043769	-14.048156
1200.524329	-14.019359
1201.005273	-14.041701
1201.486604	-13.989946
1201.968320	-13.997213
1202.450422	-13.985212
1202.932912	-13.952009
1203.415789	-13.959836
1203.899054	-13.931892
1204.382707	-13.916553
1204.866748	-13.914976
1205.351179	-13.880306
1205.836000	-13.884372
1206.321211	-13.856933
1206.806812	-13.840812
1207.292805	-13.840979
1207.779189	-13.799732
1208.265965	-13.805275
1208.753134	-13.785614
1209.240696	-13.748565
1209.728651	-13.769710
1210.217000	-13.715052
1210.705744	-13.718774
1211.194883	-13.706193
1211.684417	-13.663371
1212.174347	-13.678893
1212.664673	-13.636112
1213.155396	-13.624242
1213.646516	-13.620982
1214.138034	-13.574593
1214.629951	-13.585867
1215.122266	-13.546031
1215.614980	-13.536975
1216.108095	-13.518691
1216.601609	-13.493534
1217.095524	-13.485646
1217.589841	-13.452691
1218.084559	-13.449486
1218.579679	-13.421222
1219.075202	-13.400998
1219.571128	-13.398780
1220.067458	-13.356830
1220.564191	-13.363240
1221.061330	-13.331046
1221.558874	-13.316335
1222.056823	-13.312338
1222.555178	-13.273800
1223.053940	-13.284746
1223.553109	-13.251560
1224.052686	-13.240027
1224.552671	-13.241974
1225.053065	-13.204456
1225.553867	-13.215136
1226.055079	-13.192456
1226.556702	-13.180996
1227.058735	-13.180505
1227.561179	-13.159532
1228.064035	-13.162424
1228.567303	-13.146487
1229.070983	-13.144294
1229.575077	-13.137269
1230.079585	-13.131190
1230.584506	-13.125447
1231.089842	-13.124523
1231.595594	-13.118201
1232.101761	-13.113546
1232.608345	-13.117450
1233.115345	-13.107259
1233.622762	-13.110273
1234.130597	-13.110063
1234.638851	-13.102124
1235.147523	-13.112006
1235.656615	-13.098577
1236.166126	-13.110269
1236.676058	-13.102821
1237.186411	-13.100147
1237.697185	-13.112307
1238.208381	-13.093757
1238.719999	-13.110582
1239.232040	-13.099162
1239.744505	-13.101036
1240.257394	-13.105456
1240.770708	-13.092344
1241.284446	-13.107514
1241.798610	-13.089027
1242.313201	-13.098237
1242.828218	-13.094304
1243.343662	-13.083643
1243.859534	-13.094151
1244.375834	-13.075518
1244.892563	-13.084963
1245.409721	-13.070869
1245.927309	-13.068993
1246.445327	-13.068592
1246.963777	-13.050230
1247.482657	-13.058775
1248.001970	-13.038862
1248.521716	-13.038169
1249.041894	-13.028856
1249.562506	-13.015053
1250.083553	-13.015711
1250.605034	-12.990697
1251.126950	-12.995855
1251.649302	-12.970998
1252.172091	-12.965775
1252.695316	-12.952733
1253.218979	-12.933404
1253.743079	-12.929114
1254.267619	-12.900472
1254.792597	-12.900054
1255.318015	-12.870787
1255.843874	-12.860617
1256.370173	-12.843750
1256.896913	-12.818164
1257.424095	-12.811325
1257.951720	-12.777808
1258.479787	-12.772452
1259.008298	-12.740569
1259.537254	-12.724823
1260.066654	-12.707261
1260.596499	-12.675122
1261.126790	-12.668377
1261.657527	-12.630445
1262.188711	-12.622870
1262.720342	-12.590171
1263.252422	-12.571930
1263.784950	-12.553814
1264.317928	-12.520810
1264.851355	-12.513000
1265.385232	-12.477409
1265.919560	-12.466489
1266.454340	-12.439170
1266.989572	-12.418582
1267.525256	-12.403796
1268.061394	-12.373228
1268.597985	-12.364923
1269.135031	-12.337238
1269.672531	-12.321834
1270.210487	-12.306596
1270.748899	-12.280766
1271.287768	-12.276979
1271.827094	-12.245170
1272.366877	-12.244263
1272.907119	-12.220107
1273.447820	-12.207575
1273.988981	-12.200882
1274.530601	-12.174330
1275.072683	-12.181508
1275.615226	-12.148345
1276.158230	-12.158411
1276.701697	-12.133769
1277.245627	-12.130153
1277.790021	-12.126254
1278.334879	-12.104646
1278.880202	-12.118474
1279.425991	-12.086890
1279.972245	-12.106284
1280.518966	-12.080637
1281.066155	-12.088049
1281.613811	-12.082614
1282.161936	-12.071644
1282.710529	-12.084247
1283.259593	-12.062322
1283.809126	-12.082517
1284.359131	-12.062784
1284.909607	-12.076103
1285.460555	-12.070782
1286.011976	-12.070949
1286.563870	-12.078843
1287.116237	-12.071412
1287.669080	-12.085576
1288.222397	-12.079344
1288.776191	-12.088740
1289.330460	-12.094111
1289.885207	-12.092350
1290.440431	-12.109049
1290.996133	-12.100939
1291.552314	-12.122975
1292.108975	-12.115883
1292.666115	-12.132182
1293.223737	-12.138147
1293.781839	-12.139746
1294.340424	-12.161413
1294.899491	-12.150561
1295.459041	-12.183130
1296.019075	-12.165827
1296.579593	-12.199579
1297.140597	-12.188481
1297.702086	-12.210583
1298.264061	-12.214188
1298.826524	-12.221159
1299.389474	-12.239703
1299.952912	-12.232347
1300.516839	-12.260537
1301.081255	-12.249638
1301.646162	-12.273718
1302.211559	-12.270344
1302.777448	-12.283389
1303.343829	-12.291648
1303.910702	-12.290738
1304.478069	-12.310012
1305.045930	-12.301081
1305.614285	-12.320269
1306.183136	-12.314687
1306.752483	-12.325263
1307.322326	-12.329651
1307.892666	-12.325482
1308.463504	-12.343482
1309.034841	-12.326107
1309.606677	-12.350022
1310.179012	-12.329852
1310.751849	-12.350856
1311.325186	-12.335141
1311.899025	-12.345590
1312.473366	-12.341739
1313.048211	-12.338138
1313.623559	-12.343315
1314.199412	-12.332161
1314.775770	-12.340022
1315.352634	-12.327782
1315.930004	-12.330061
1316.507881	-12.325974
1317.086266	-12.316199
1317.665159	-12.321353
1318.244562	-12.301790
1318.824474	-12.313236
1319.404897	-12.287425
1319.985831	-12.298865
1320.567276	-12.275984
1321.149234	-12.278968
1321.731706	-12.263520
1322.314691	-12.257089
1322.898190	-12.249041
1323.482205	-12.233729
1324.066736	-12.229950
1324.651783	-12.212974
1325.237347	-12.205336
1325.823430	-12.192788
1326.410031	-12.177940
1326.997151	-12.173323
1327.584791	-12.148061
1328.172952	-12.152202
1328.761634	-12.120122
1329.350839	-12.127338
1329.940566	-12.093501
1330.530817	-12.100135
1331.121592	-12.069068
1331.712891	-12.069801
1332.304716	-12.045880
1332.897068	-12.039917
1333.489946	-12.021478
1334.083352	-12.010989
1334.677287	-11.996205
1335.271750	-11.984456
1335.866744	-11.968045
1336.462268	-11.960396
1337.058323	-11.939426
1337.654910	-11.936427
1338.252029	-11.910508
1338.849682	-11.912929
1339.447869	-11.883161
1340.046591	-11.886680
1340.645848	-11.859154
1341.245641	-11.858786
1341.845972	-11.836961
1342.446840	-11.829483
1343.048246	-11.817179
1343.650191	-11.799732
1344.252677	-11.797461
1344.855702	-11.772208
1345.459269	-11.776410
1346.063379	-11.747064
1346.668030	-11.754173
1347.273226	-11.725183
1347.878965	-11.729765
1348.485250	-11.706017
1349.092080	-11.705270
1349.699456	-11.687718
1350.307380	-11.681097
1350.915851	-11.670745
1351.524871	-11.657713
1352.134441	-11.653333
1352.744560	-11.636655
1353.355231	-11.635866
1353.966453	-11.616451
1354.578227	-11.618468
1355.190555	-11.598901
1355.803436	-11.599518
1356.416872	-11.583077
1357.030863	-11.581463
1357.645411	-11.568143
1358.260515	-11.562961
1358.876177	-11.554907
1359.492397	-11.545855
1360.109176	-11.540696
1360.726516	-11.530355
1361.344416	-11.527409
1361.962877	-11.515343
1362.581901	-11.513702
1363.201487	-11.502073
1363.821637	-11.500066
1364.442352	-11.489097
1365.063632	-11.486643
1365.685478	-11.477405
1366.307891	-11.472696
1366.930871	-11.466319
1367.554420	-11.459201
1368.178538	-11.455429
1368.803226	-11.445998
1369.428485	-11.444272
1370.054315	-11.433793
1370.680717	-11.432263
1371.307693	-11.422375
1371.935242	-11.419515
1372.563366	-11.411754
1373.192065	-11.406024
1373.821341	-11.401384
1374.451193	-11.392474
1375.081623	-11.390741
1375.712632	-11.379267
1376.344221	-11.378994
1376.976389	-11.367455
1377.609139	-11.365873
1378.242470	-11.356952
1378.876384	-11.351792
1379.510881	-11.347683
1380.145963	-11.337315
1380.781629	-11.338082
1381.417881	-11.324108
1382.054720	-11.327172
1382.692147	-11.312578
1383.330161	-11.314385
1383.968765	-11.303477
1384.607959	-11.299398
1385.247743	-11.295370
1385.888119	-11.283944
1386.529087	-11.286632
1387.170648	-11.269321
1387.812804	-11.275661
1388.455554	-11.257449
1389.098899	-11.261209
1389.742842	-11.247998
1390.387381	-11.244388
1391.032519	-11.239679
1391.678256	-11.226923
1392.324592	-11.230490
1392.971529	-11.211584
1393.619068	-11.218499
1394.267208	-11.199710
1394.915952	-11.203501
1395.565300	-11.191129
1396.215253	-11.186999
1396.865812	-11.183556
1397.516977	-11.171761
1398.168749	-11.174563
1398.821130	-11.159686
1399.474120	-11.163134
1400.127719	-11.151188
1400.781930	-11.150307
1401.436752	-11.144220
1402.092186	-11.138355
1402.748234	-11.136448
1403.404897	-11.128470
1404.062174	-11.126736
1404.720067	-11.120911
1405.378577	-11.115885
1406.037705	-11.114421
1406.697451	-11.106663
1407.357817	-11.107201
1408.018803	-11.100419
1408.680410	-11.098108
1409.342639	-11.096575
1410.005492	-11.088402
1410.668968	-11.092970
1411.333068	-11.081265
1411.997795	-11.087716
1412.663147	-11.078056
1413.329127	-11.080127
1413.995736	-11.077825
1414.662973	-11.072717
1415.330840	-11.078005
1415.999339	-11.068986
1416.668469	-11.076955
1417.338232	-11.069787
1418.008628	-11.074195
1418.679659	-11.073336
1419.351325	-11.072482
1420.023628	-11.076170
1420.696568	-11.074596
1421.370145	-11.077901
1422.044362	-11.080068
1422.719219	-11.080358
1423.394717	-11.086919
1424.070856	-11.086620
1424.747638	-11.092888
1425.425064	-11.097678
1426.103134	-11.099332
1426.781850	-11.110559
1427.461212	-11.108272
1428.141221	-11.121972
1428.821878	-11.121267
1429.503185	-11.131066
1430.185141	-11.137298
1430.867749	-11.141270
1431.551008	-11.153025
1432.234920	-11.155569
1432.919486	-11.167909
1433.604707	-11.174544
1434.290583	-11.184132
1434.977116	-11.195364
1435.664307	-11.204246
1436.352156	-11.214926
1437.040664	-11.227025
1437.729833	-11.233833
1438.419663	-11.249172
1439.110156	-11.253702
1439.801312	-11.267691
1440.493132	-11.275470
1441.185617	-11.284037
1441.878768	-11.297487
1442.572586	-11.302877
1443.267072	-11.318974
1443.962228	-11.326303
1444.658053	-11.341038
1445.354549	-11.353105
1446.051717	-11.365413
1446.749558	-11.379008
1447.448073	-11.392035
1448.147263	-11.401728
1448.847128	-11.415529
1449.547671	-11.421192
1450.248891	-11.431709
1450.950789	-11.436795
1451.653368	-11.440372
1452.356627	-11.447679
1453.060568	-11.446007
1453.765192	-11.453461
1454.470500	-11.453118
1455.176492	-11.458521
1455.883170	-11.462465
1456.590534	-11.467450
1457.298586	-11.473629
1458.007327	-11.480803
1458.716758	-11.485008
1459.426880	-11.493444
1460.137693	-11.494761
1460.849199	-11.497600
1461.561398	-11.497087
1462.274293	-11.489526
1462.987883	-11.485083
1463.702170	-11.468980
1464.417155	-11.457533
1465.132838	-11.438510
1465.849222	-11.420678
1466.566306	-11.402697
1467.284093	-11.385767
1468.002582	-11.369910
1468.721775	-11.361008
1469.441674	-11.351312
1470.162278	-11.351185
1470.883590	-11.352258
1471.605609	-11.358018
1472.328338	-11.370829
1473.051777	-11.380013
1473.775928	-11.397628
1474.500790	-11.409622
1475.226367	-11.423789
1475.952657	-11.434069
1476.679663	-11.441514
1477.407386	-11.443998
1478.135826	-11.445484
1478.864985	-11.439283
1479.594863	-11.436559
1480.325463	-11.428412
1481.056784	-11.424164
1481.788828	-11.424444
1482.521597	-11.426727
1483.255090	-11.442293
1483.989309	-11.463078
1484.724256	-11.499512
1485.459931	-11.547597
1486.196336	-11.611064
1486.933471	-11.688449
1487.671337	-11.783409
1488.409937	-11.886996
1489.149270	-12.009419
1489.889337	-12.134863
1490.630141	-12.269726
1491.371682	-12.405064
1492.113961	-12.533576
1492.856979	-12.655038
1493.600738	-12.755537
1494.345238	-12.835336
1495.090481	-12.886776
1495.836467	-12.908311
1496.583198	-12.898283
1497.330675	-12.866046
1498.078899	-12.805569
1498.827872	-12.738786
1499.577593	-12.660413
1500.328065	-12.587352
1501.079289	-12.524743
1501.831265	-12.475988
1502.583995	-12.451152
1503.337480	-12.450159
1504.091721	-12.474836
1504.846719	-12.528106
1505.602475	-12.606992
1506.358991	-12.704168
1507.116268	-12.823584
1507.874306	-12.941721
1508.633108	-13.061115
1509.392673	-13.157207
1510.153004	-13.217882
1510.914101	-13.229939
1511.675965	-13.180037
1512.438599	-13.063189
1513.202002	-12.887279
1513.966176	-12.656772
1514.731122	-12.390055
1515.496842	-12.107860
1516.263336	-11.817257
1517.030607	-11.545560
1517.798654	-11.292297
1518.567479	-11.072076
1519.337083	-10.887989
1520.107468	-10.741038
1520.878634	-10.631592
1521.650584	-10.561396
1522.423317	-10.520511
1523.196836	-10.514508
1523.971141	-10.530829
1524.746233	-10.567563
1525.522115	-10.620387
1526.298786	-10.674976
1527.076249	-10.729336
1527.854504	-10.767352
1528.633553	-10.776831
1529.413397	-10.747878
1530.194037	-10.663494
1530.975474	-10.517167
1531.757709	-10.306589
1532.540745	-10.028233
1533.324581	-9.700768
1534.109220	-9.328880
1534.894662	-8.937617
1535.680909	-8.541353
1536.467961	-8.157193
1537.255821	-7.801996
1538.044489	-7.486857
1538.833967	-7.220718
1539.624256	-7.016036
1540.415357	-6.872258
1541.207271	-6.801749
1542.000000	-6.803141
1542.793545	-6.882140
1543.587907	-7.043017
1544.383087	-7.286505
1545.179088	-7.617531
1545.975909	-8.041960
1546.773552	-8.560110
1547.572019	-9.185188
1548.371311	-9.921390
1549.171428	-10.782222
1549.972373	-11.789202
1550.774147	-12.960105
1551.576751	-14.339191
1552.380185	-15.978466
1553.184453	-17.962067
1553.989554	-20.432198
1554.795490	-23.552605
1555.602263	-27.133756
1556.409873	-28.389805
1557.218322	-25.610921
1558.027612	-22.519508
1558.837743	-20.105790
1559.648717	-18.251236
1560.460536	-16.786445
1561.273200	-15.606156
1562.086710	-14.645578
1562.901069	-13.848859
1563.716278	-13.193549
1564.532337	-12.652321
1565.349249	-12.207215
1566.167014	-11.851901
1566.985634	-11.569711
1567.805111	-11.357853
1568.625444	-11.209381
1569.446637	-11.117903
1570.268690	-11.079923
1571.091605	-11.094662
1571.915382	-11.152073
1572.740024	-11.257892
1573.565532	-11.401875
1574.391907	-11.584717
1575.219150	-11.803539
1576.047262	-12.053674
1576.876246	-12.331410
1577.706103	-12.636687
1578.536833	-12.959732
1579.368439	-13.300416
1580.200922	-13.654509
1581.034282	-14.010985
1581.868522	-14.373111
1582.703643	-14.727978
1583.539646	-15.073081
1584.376532	-15.402072
1585.214304	-15.710614
1586.052962	-15.987022
1586.892508	-16.237439
1587.732943	-16.444769
1588.574269	-16.614588
1589.416487	-16.742851
1590.259599	-16.824679
1591.103605	-16.865641
1591.948508	-16.865776
1592.794309	-16.825892
1593.641009	-16.751892
1594.488609	-16.651424
1595.337112	-16.518945
1596.186518	-16.373205
1597.036829	-16.206644
1597.888047	-16.029089
1598.740172	-15.843704
1599.593207	-15.652788
1600.447153	-15.456730
1601.302010	-15.263908
1602.157782	-15.069884
1603.014469	-14.879219
1603.872072	-14.697162
1604.730593	-14.517489
1605.590034	-14.350096
1606.450397	-14.191056
1607.311681	-14.042998
1608.173890	-13.906420
1609.037024	-13.784303
1609.901085	-13.670343
1610.766075	-13.572956
1611.631995	-13.484205
1612.498846	-13.406045
1613.366630	-13.339111
1614.235349	-13.278291
1615.105004	-13.224483
1615.975596	-13.176786
1616.847128	-13.131651
1617.719600	-13.088405
1618.593014	-13.049108
1619.467372	-13.005867
1620.342675	-12.965921
1621.218924	-12.922707
1622.096122	-12.878063
1622.974270	-12.832456
1623.853369	-12.785623
1624.733420	-12.735492
1625.614427	-12.687783
1626.496389	-12.637574
1627.379308	-12.588198
1628.263187	-12.542080
1629.148026	-12.495144
1630.033828	-12.452810
1630.920593	-12.413230
1631.808324	-12.376362
1632.697022	-12.343330
1633.586688	-12.315248
1634.477324	-12.287169
1635.368932	-12.265561
1636.261514	-12.243877
1637.155070	-12.224186
1638.049602	-12.206691
1638.945113	-12.188550
1639.841603	-12.169880
1640.739075	-12.152263
1641.637529	-12.131795
1642.536968	-12.110443
1643.437393	-12.089485
1644.338806	-12.064380
1645.241209	-12.040945
1646.144602	-12.015692
1647.048988	-11.990115
1647.954368	-11.965300
1648.860744	-11.941807
1649.768118	-11.917357
1650.676491	-11.897009
1651.585865	-11.876206
1652.496241	-11.857081
1653.407621	-11.840822
1654.320008	-11.824091
1655.233401	-11.809411
1656.147804	-11.795929
1657.063218	-11.782578
1657.979645	-11.769763
1658.897085	-11.759064
1659.815542	-11.746125
1660.735016	-11.736082
1661.655509	-11.724930
1662.577023	-11.714130
1663.499560	-11.704088
1664.423121	-11.694571
1665.347709	-11.684571
1666.273324	-11.676872
1667.199969	-11.669209
1668.127645	-11.662113
1669.056353	-11.657669
1669.986097	-11.652314
1670.916877	-11.649270
1671.848695	-11.646540
1672.781553	-11.644782
1673.715452	-11.642815
1674.650395	-11.642880
1675.586383	-11.641307
1676.523418	-11.641617
1677.461501	-11.641647
1678.400635	-11.641537
1679.340821	-11.642768
1680.282061	-11.643832
1681.224357	-11.645587
1682.167710	-11.648075
1683.112122	-11.652006
1684.057595	-11.655212
1685.004132	-11.661355
1685.951732	-11.666419
1686.900400	-11.673262
1687.850135	-11.680352
1688.800940	-11.688079
1689.752818	-11.695770
1690.705768	-11.704632
1691.659795	-11.713379
1692.614898	-11.722588
1693.571081	-11.733739
1694.528345	-11.744016
1695.486691	-11.756821
1696.446122	-11.769494
1697.406640	-11.783501
1698.368245	-11.797452
1699.330941	-11.812872
1700.294729	-11.827317
1701.259611	-11.843438
1702.225588	-11.859725
1703.192664	-11.875879
1704.160838	-11.893910
1705.130114	-11.911452
1706.100493	-11.930423
1707.071977	-11.949390
1708.044568	-11.969475
1709.018268	-11.988680
1709.993079	-12.009968
1710.969003	-12.030103
1711.946041	-12.051317
1712.924196	-12.072956
1713.903469	-12.094297
1714.883862	-12.116292
1715.865378	-12.138215
1716.848017	-12.160514
1717.831783	-12.182485
1718.816677	-12.205981
1719.802701	-12.228062
1720.789857	-12.251904
1721.778147	-12.275211
1722.767573	-12.298701
1723.758136	-12.322496
1724.749840	-12.346311
1725.742685	-12.369931
1726.736673	-12.393798
1727.731808	-12.418079
1728.728090	-12.441387
1729.725521	-12.466463
1730.724105	-12.490255
1731.723842	-12.515000
1732.724735	-12.539625
1733.726785	-12.564288
1734.729995	-12.588922
1735.734366	-12.614021
1736.739902	-12.638683
1737.746603	-12.663425
1738.754472	-12.688770
1739.763510	-12.712746
1740.773721	-12.737993
1741.785105	-12.762261
1742.797665	-12.786894
1743.811403	-12.811655
1744.826321	-12.836627
1745.842422	-12.861179
1746.859706	-12.886436
1747.878177	-12.911206
1748.897835	-12.935657
1749.918685	-12.961007
1750.940726	-12.985175
1751.963963	-13.010588
1752.988395	-13.035894
1754.014027	-13.061458
1755.040860	-13.087595
1756.068895	-13.114224
1757.098135	-13.140521
1758.128583	-13.167992
1759.160240	-13.195577
1760.193109	-13.223030
1761.227191	-13.252251
1762.262488	-13.280788
1763.299004	-13.310321
1764.336740	-13.340444
1765.375697	-13.370427
1766.415880	-13.400295
1767.457288	-13.431090
1768.499926	-13.461048
1769.543794	-13.491390
1770.588895	-13.522518
1771.635231	-13.552596
1772.682805	-13.583075
1773.731619	-13.613206
1774.781674	-13.642926
1775.832973	-13.671917
1776.885519	-13.701757
1777.939312	-13.730565
1778.994357	-13.759307
1780.050654	-13.788230
1781.108207	-13.815909
1782.167017	-13.843047
1783.227087	-13.869998
1784.288418	-13.896545
1785.351013	-13.922422
1786.414875	-13.949792
1787.480006	-13.975965
1788.546407	-14.002486
1789.614082	-14.028921
1790.683032	-14.054055
1791.753259	-14.079144
1792.824767	-14.103948
1793.897557	-14.128918
1794.971632	-14.154083
1796.046994	-14.180277
1797.123645	-14.205828
1798.201588	-14.231918
1799.280824	-14.257171
1800.361357	-14.282073
1801.443188	-14.306880
1802.526320	-14.330998
1803.610756	-14.356004
1804.696497	-14.380316
1805.783546	-14.405101
1806.871906	-14.429415
1807.961578	-14.453567
1809.052565	-14.477310
1810.144870	-14.500999
1811.238494	-14.524270
1812.333441	-14.546773
1813.429713	-14.569376
1814.527311	-14.590404
1815.626239	-14.611947
1816.726499	-14.632902
1817.828094	-14.654010
1818.931025	-14.675378
1820.035295	-14.696286
1821.140906	-14.716878
1822.247862	-14.736468
1823.356165	-14.755628
1824.465816	-14.773530
1825.576819	-14.791753
1826.689175	-14.809326
1827.802888	-14.827092
1828.917960	-14.844665
1830.034394	-14.861217
1831.152191	-14.877458
1832.271354	-14.892379
1833.391887	-14.907025
1834.513790	-14.920853
1835.637068	-14.934682
1836.761722	-14.948137
1837.887755	-14.961515
1839.015169	-14.974982
1840.143968	-14.987961
1841.274153	-15.001152
1842.405727	-15.013317
1843.538693	-15.025232
1844.673053	-15.036351
1845.808810	-15.047159
1846.945966	-15.057788
1848.084525	-15.068280
1849.224488	-15.078791
1850.365858	-15.088644
1851.508638	-15.098268
1852.652831	-15.106448
1853.798438	-15.113880
1854.945463	-15.120309
1856.093909	-15.125882
1857.243777	-15.131237
1858.395071	-15.135708
1859.547794	-15.139569
1860.701947	-15.142441
1861.857533	-15.144300
1863.014556	-15.144958
1864.173018	-15.144815
1865.332922	-15.143710
1866.494270	-15.141830
1867.657065	-15.139666
1868.821309	-15.136564
1869.987006	-15.133269
1871.154158	-15.129433
1872.322768	-15.124898
1873.492839	-15.119962
1874.664373	-15.114012
1875.837373	-15.107348
1877.011841	-15.100367
1878.187782	-15.093057
1879.365197	-15.085594
1880.544089	-15.078101
1881.724460	-15.069776
1882.906315	-15.060870
1884.089655	-15.051335
1885.274483	-15.041010
1886.460803	-15.030797
1887.648616	-15.020479
1888.837927	-15.010258
1890.028736	-15.000131
1891.221049	-14.989431
1892.414866	-14.978069
1893.610192	-14.966349
1894.807028	-14.954096
1896.005379	-14.941783
1897.205246	-14.929475
1898.406633	-14.916600
1899.609542	-14.903767
1900.813977	-14.890442
1902.019940	-14.876618
1903.227434	-14.862711
1904.436462	-14.848264
1905.647028	-14.833826
1906.859133	-14.819387
1908.072781	-14.804968
1909.287976	-14.790910
1910.504719	-14.777027
1911.723013	-14.762937
1912.942863	-14.748419
1914.164270	-14.733215
1915.387238	-14.717246
1916.611770	-14.701422
1917.837868	-14.685378
1919.065536	-14.669395
1920.294777	-14.652958
1921.525594	-14.635013
1922.757989	-14.615829
1923.991967	-14.595183
1925.227529	-14.573941
1926.464679	-14.552906
1927.703420	-14.531911
1928.943755	-14.510967
1930.185688	-14.489870
1931.429221	-14.468230
1932.674356	-14.446307
1933.921099	-14.424198
1935.169451	-14.401912
1936.419415	-14.380098
1937.670996	-14.358778
1938.924195	-14.337937
1940.179017	-14.317311
1941.435463	-14.295762
1942.693538	-14.273186
1943.953245	-14.249897
1945.214586	-14.226493
1946.477566	-14.204151
1947.742186	-14.182861
1949.008451	-14.162305
1950.276363	-14.141713
1951.545926	-14.120180
1952.817143	-14.098207
1954.090017	-14.076552
1955.364551	-14.055971
1956.640749	-14.036846
1957.918615	-14.018443
1959.198150	-14.000160
1960.479359	-13.981783
1961.762244	-13.963237
1963.046810	-13.944806
1964.333059	-13.926427
1965.620995	-13.908155
1966.910621	-13.890602
1968.201940	-13.873742
1969.494956	-13.857148
1970.789672	-13.840086
1972.086091	-13.821939
1973.384217	-13.803324
1974.684053	-13.785116
1975.985602	-13.767770
1977.288869	-13.751120
1978.593855	-13.734355
1979.900566	-13.716842
1981.209003	-13.698388
1982.519171	-13.679551
1983.831073	-13.661270
1985.144712	-13.643783
1986.460093	-13.626517
1987.777217	-13.608796
1989.096089	-13.590464
1990.416713	-13.571870
1991.739092	-13.553229
1993.063228	-13.534531
1994.389127	-13.515663
1995.716791	-13.496860
1997.046223	-13.478232
1998.377428	-13.459591
1999.710409	-13.440687
2001.045169	-13.421427
2002.381713	-13.402258
2003.720043	-13.383680
2005.060163	-13.365995
2006.402077	-13.349123
2007.745788	-13.332522
2009.091301	-13.316142
2010.438618	-13.300485
2011.787743	-13.286166
2013.138680	-13.273115
2014.491433	-13.260576
2015.846005	-13.248326
2017.202399	-13.236521
2018.560621	-13.225378
2019.920673	-13.214970
2021.282558	-13.205027
2022.646281	-13.195582
2024.011846	-13.186570
2025.379256	-13.177744
2026.748515	-13.169002
2028.119626	-13.160111
2029.492594	-13.151472
2030.867422	-13.143363
2032.244114	-13.135564
2033.622673	-13.127871
2035.003104	-13.119934
2036.385411	-13.112056
2037.769597	-13.104618
2039.155665	-13.097629
2040.543621	-13.090964
2041.933467	-13.083831
2043.325208	-13.076051
2044.718847	-13.067888
2046.114389	-13.059674
2047.511837	-13.051780
2048.911195	-13.043785
2050.312467	-13.035630
2051.715657	-13.027205
2053.120769	-13.018743
2054.527807	-13.010673
2055.936775	-13.002804
2057.347677	-12.995308
2058.760516	-12.987985
2060.175297	-12.980625
2061.592025	-12.973026
2063.010701	-12.964982
2064.431332	-12.957344
2065.853921	-12.950633
2067.278472	-12.945092
2068.704988	-12.940019
2070.133475	-12.934764
2071.563936	-12.929823
2072.996375	-12.925870
2074.430796	-12.923803
2075.867204	-12.923133
2077.305603	-12.923270
2078.745996	-12.923872
2080.188389	-12.924924
2081.632784	-12.926840
2083.079187	-12.929859
2084.527601	-12.934553
2085.978030	-12.940192
2087.430480	-12.946005
2088.884954	-12.951516
2090.341455	-12.957344
2091.799990	-12.964585
2093.260561	-12.972911
2094.723173	-12.981282
2096.187831	-12.988149
2097.654538	-12.994063
2099.123300	-13.000036
2100.594119	-13.007272
2102.067001	-13.015261
2103.541950	-13.022342
2105.018971	-13.028073
2106.498067	-13.032576
2107.979243	-13.036981
2109.462503	-13.041146
2110.947853	-13.045556
2112.435295	-13.049999
2113.924836	-13.054812
2115.416478	-13.059655
2116.910227	-13.064326
2118.406087	-13.069531
2119.904063	-13.075231
2121.404158	-13.081249
2122.906378	-13.086537
2124.410727	-13.091899
2125.917210	-13.098045
2127.425831	-13.106396
2128.936594	-13.115856
2130.449505	-13.125840
2131.964567	-13.136373
2133.481786	-13.148169
2135.001166	-13.161642
2136.522711	-13.177023
2138.046427	-13.194248
2139.572317	-13.212295
2141.100388	-13.231107
2142.630642	-13.250433
2144.163085	-13.270926
2145.697722	-13.291365
2147.234558	-13.312185
2148.773596	-13.333644
2150.314842	-13.356538
2151.858301	-13.379335
2153.403977	-13.401564
2154.951875	-13.423727
2156.502000	-13.448965
2158.054357	-13.477821
2159.608950	-13.509141
2161.165785	-13.542254
2162.724866	-13.578814
2164.286198	-13.617861
2165.849786	-13.655040
2167.415635	-13.685207
2168.983749	-13.706980
2170.554134	-13.721092
2172.126795	-13.728112
2173.701737	-13.728941
2175.278964	-13.726068
2176.858481	-13.723231
2178.440294	-13.723826
2180.024408	-13.729980
2181.610827	-13.744323
2183.199557	-13.767335
2184.790602	-13.795979
2186.383968	-13.827966
2187.979660	-13.865264
2189.577683	-13.908561
2191.178041	-13.953092
2192.780741	-13.994399
2194.385787	-14.034573
2195.993185	-14.075886
2197.602939	-14.118150
2199.215054	-14.158781
2200.829537	-14.198548
2202.446392	-14.239399
2204.065624	-14.283356
2205.687239	-14.329414
2207.311242	-14.376742
2208.937638	-14.425186
2210.566433	-14.475954
2212.197631	-14.529110
2213.831239	-14.584187
2215.467261	-14.637935
2217.105703	-14.688768
2218.746570	-14.736833
2220.389867	-14.783351
2222.035601	-14.827609
2223.683776	-14.868170
2225.334398	-14.905002
2226.987472	-14.939912
2228.643004	-14.975754
2230.300999	-15.012481
2231.961463	-15.051081
2233.624402	-15.093374
2235.289820	-15.141941
2236.957723	-15.195985
2238.628118	-15.253546
2240.301009	-15.312755
2241.976402	-15.372510
2243.654303	-15.431893
2245.334717	-15.488339
2247.017650	-15.539464
2248.703108	-15.583064
2250.391096	-15.619352
2252.081620	-15.650366
2253.774686	-15.680342
2255.470300	-15.712269
2257.168467	-15.748377
2258.869193	-15.791983
2260.572484	-15.846718
2262.278345	-15.912294
2263.986783	-15.986397
2265.697804	-16.067636
2267.411412	-16.153225
2269.127615	-16.238867
2270.846417	-16.321896
2272.567826	-16.401862
2274.291846	-16.478646
2276.018484	-16.553045
2277.747745	-16.626507
2279.479637	-16.701759
2281.214164	-16.780623
2282.951333	-16.864457
2284.691149	-16.951714
2286.433619	-17.041003
2288.178750	-17.130321
2289.926546	-17.216211
2291.677014	-17.297264
2293.430161	-17.376112
2295.185992	-17.455019
2296.944513	-17.534317
2298.705732	-17.613110
2300.469653	-17.691776
2302.236283	-17.768958
2304.005629	-17.843661
2305.777696	-17.916280
2307.552492	-17.988274
2309.330022	-18.061515
2311.110292	-18.136250
2312.893310	-18.212141
2314.679080	-18.288997
2316.467611	-18.368118
2318.258907	-18.449779
2320.052976	-18.533105
2321.849824	-18.616495
2323.649457	-18.702799
2325.451883	-18.793775
2327.257106	-18.885892
2329.065135	-18.977839
2330.875975	-19.072281
2332.689633	-19.169166
2334.506116	-19.266677
2336.325430	-19.364835
2338.147581	-19.465836
2339.972578	-19.572344
2341.800425	-19.684195
2343.631130	-19.797007
2345.464700	-19.912753
2347.301141	-20.037301
2349.140461	-20.164392
2350.982665	-20.288802
2352.827760	-20.417671
2354.675754	-20.549887
2356.526653	-20.676493
2358.380464	-20.799281
2360.237195	-20.920165
2362.096851	-21.037250
2363.959440	-21.152890
2365.824968	-21.266521
2367.693444	-21.373380
2369.564873	-21.480267
2371.439263	-21.592479
2373.316620	-21.695441
2375.196953	-21.791097
2377.080267	-21.900877
2378.966570	-22.011718
2380.855869	-22.106524
2382.748171	-22.206761
2384.643484	-22.319054
2386.541815	-22.425320
2388.443170	-22.530579
2390.347557	-22.646837
2392.254984	-22.765550
2394.165457	-22.879589
2396.078984	-22.995677
2397.995572	-23.118084
2399.915229	-23.245424
2401.837961	-23.372584
2403.763777	-23.496874
2405.692684	-23.631687
2407.624689	-23.776977
2409.559800	-23.914067
2411.498023	-24.058797
2413.439368	-24.223991
2415.383840	-24.385609
2417.331449	-24.545277
2419.282201	-24.720708
2421.236104	-24.901315
2423.193165	-25.075463
2425.153393	-25.248524
2427.116795	-25.417781
2429.083378	-25.584507
2431.053151	-25.748479
2433.026121	-25.898197
2435.002297	-26.043988
2436.981685	-26.189313
2438.964293	-26.319217
2440.950131	-26.447846
2442.939204	-26.577862
2444.931522	-26.690777
2446.927092	-26.806218
2448.925923	-26.931211
2450.928022	-27.041034
2452.933397	-27.151773
2454.942056	-27.275732
2456.954008	-27.398558
2458.969260	-27.527116
2460.987821	-27.656286
2463.009699	-27.781429
2465.034902	-27.921226
2467.063437	-28.069842
2469.095315	-28.209003
2471.130542	-28.357162
2473.169127	-28.516313
2475.211078	-28.669322
2477.256404	-28.836865
2479.305112	-29.010832
2481.357212	-29.178955
2483.412713	-29.372863
2485.471621	-29.586642
2487.533946	-29.795472
2489.599696	-30.022287
2491.668880	-30.264148
2493.741507	-30.498541
2495.817585	-30.752030
2497.897122	-30.993348
2499.980127	-31.215604
2502.066609	-31.442478
2504.156578	-31.641046
2506.250040	-31.827018
2508.347006	-32.002775
2510.447483	-32.151799
2512.551482	-32.291272
2514.659010	-32.419361
2516.770076	-32.537903
2518.884690	-32.645679
2521.002861	-32.745872
2523.124597	-32.850246
2525.249907	-32.953385
2527.378801	-33.049212
2529.511287	-33.153690
2531.647375	-33.278124
2533.787074	-33.393048
2535.930393	-33.508558
2538.077340	-33.631129
2540.227927	-33.759326
2542.382160	-33.910931
2544.540051	-34.049217
2546.701608	-34.197742
2548.866840	-34.357169
2551.035757	-34.523226
2553.208369	-34.719665
2555.384684	-34.916645
2557.564713	-35.133618
2559.748465	-35.402380
2561.935948	-35.682069
2564.127174	-35.986299
2566.322152	-36.346047
2568.520890	-36.695837
2570.723399	-37.084793
2572.929689	-37.467322
2575.139769	-37.798327
2577.353649	-38.155097
2579.571340	-38.460532
2581.792849	-38.732361
2584.018189	-38.995814
2586.247368	-39.152770
2588.480396	-39.351856
2590.717284	-39.505374
2592.958041	-39.614621
2595.202678	-39.725143
2597.451204	-39.752112
2599.703630	-39.818665
2601.959966	-39.850784
2604.220222	-39.873092
2606.484408	-39.928083
2608.752535	-39.869053
2611.024612	-39.947791
2613.300651	-40.017321
2615.580661	-39.995529
2617.864653	-40.053958
2620.152638	-40.079977
2622.444625	-40.161677
2624.740626	-40.249163
2627.040651	-40.294369
2629.344710	-40.387483
2631.652814	-40.508832
2633.964974	-40.731478
2636.281200	-40.906848
2638.601504	-41.135004
2640.925896	-41.512917
2643.254386	-41.929002
2645.586987	-42.422700
2647.923707	-42.918125
2650.264559	-43.443507
2652.609554	-44.049105
2654.958702	-44.644827
2657.312015	-45.215135
2659.669503	-45.685745
2662.031178	-46.325510
2664.397051	-46.947048
2666.767132	-47.285535
2669.141434	-47.828896
2671.519968	-48.260832
2673.902745	-48.627106
2676.289776	-48.771878
2678.681072	-48.775926
2681.076646	-48.982746
2683.476508	-48.951505
2685.880671	-48.734307
2688.289145	-48.719266
2690.701942	-48.676854
2693.119075	-48.359508
2695.540554	-48.097503
2697.966391	-47.779833
2700.396599	-47.699568
2702.831189	-47.337362
2705.270172	-47.009983
2707.713561	-46.885749
2710.161368	-46.582361
2712.613605	-46.526949
2715.070283	-46.412073
2717.531416	-46.431120
2719.997014	-46.743116
2722.467090	-46.812974
2724.941657	-47.091099
2727.420726	-47.729888
2729.904310	-47.996453
2732.392421	-48.666050
2734.885072	-49.257006
2737.382275	-49.582201
2739.884042	-50.207468
2742.390387	-50.689645
2744.901321	-51.548138
2747.416857	-52.231785
2749.937008	-52.503267
2752.461787	-53.764378
2754.991206	-54.574481
2757.525279	-55.169606
2760.064017	-56.444423
2762.607434	-57.250468
2765.155544	-58.311245
2767.708358	-59.520959
2770.265890	-60.996367
2772.828153	-62.656903
2775.395160	-63.621172
2777.966924	-64.185632
2780.543459	-62.217458
2783.124778	-60.730999
2785.710894	-59.560721
2788.301821	-57.550300
2790.897572	-56.333269
2793.498160	-55.664135
2796.103599	-54.675366
2798.713903	-53.997675
2801.329085	-53.960328
2803.949159	-53.778890
2806.574139	-53.718975
2809.204038	-53.933309
2811.838871	-54.465652
2814.478650	-54.512654
2817.123391	-54.709681
2819.773107	-55.578419
2822.427812	-55.295507
2825.087521	-55.549221
2827.752247	-56.040482
2830.422005	-56.132161
2833.096808	-56.492302
2835.776672	-57.017120
2838.461611	-57.078809
2841.151638	-57.146542
2843.846769	-57.862293
2846.547019	-57.728321
2849.252401	-58.199836
2851.962930	-58.688402
2854.678621	-58.678023
2857.399489	-59.922470
2860.125549	-60.759233
2862.856815	-61.969456
2865.593302	-63.659641
2868.335026	-65.292278
2871.082002	-68.187668
2873.834244	-70.937559
2876.591767	-72.517823
2879.354588	-74.336877
2882.122721	-70.408592
2884.896181	-66.819806
2887.674984	-66.135286
2890.459146	-64.618344
2893.248681	-64.898744
2896.043606	-64.401939
2898.843937	-64.676045
2901.649687	-64.763273
2904.460875	-64.993244
2907.277515	-65.290068
2910.099623	-65.023667
2912.927215	-65.970167
2915.760308	-65.495571
2918.598916	-65.990057
2921.443057	-66.928703
2924.292747	-66.605373
2927.148002	-66.228234
2930.008837	-65.841681
2932.875270	-65.080060
2935.747318	-64.636470
2938.624995	-63.404596
2941.508320	-62.978521
2944.397308	-62.439043
2947.291977	-62.186612
2950.192343	-62.499669
2953.098423	-62.346024
2956.010234	-62.806783
2958.927792	-63.005929
2961.851116	-64.234555
2964.780221	-64.403591
2967.715126	-66.437401
2970.655847	-67.826631
2973.602402	-70.839423
2976.554808	-75.046751
2979.513083	-77.787774
2982.477243	-81.593184
2985.447308	-90.421071
2988.423293	-88.848408
2991.405218	-82.320971
2994.393099	-83.284307
2997.386955	-77.154432
