# 2022-03-22_00.24.23
# shape = sech2
# FWHM_ps = 0.1
# carrier_nm = 1542
# frep_MHz = 12126
# pow_mW = 8000
# GDD = 0.0
# propa_len = 0.13933333333333334
# untap_len = 0.01
# taper_len = 0.07933333333333334
# waist_len = 0.02
# uptap_len = 0.02
# untap_scale = 1.0
# waist_scale = 0.19473684210526318
# workingDir = NL_20110305_12 (Spirou)
# axis = slow
# window_ps = 10.0
# steps = 200
# points = 21700
# 
# wavelength [nm]	 power spectral density [dB]
600.043425	-88.066311
600.163550	-86.193541
600.283723	-85.135759
600.403943	-84.586888
600.524212	-84.281586
600.644529	-84.274403
600.764895	-84.781453
600.885308	-86.002073
601.005770	-88.025976
601.126280	-90.983240
601.246839	-94.809137
601.367446	-96.738739
601.488101	-93.436699
601.608804	-90.134567
601.729557	-88.102578
601.850357	-87.016030
601.971206	-86.635966
602.092104	-86.843783
602.213050	-87.736535
602.334045	-89.622453
602.455089	-92.952820
602.576181	-98.633189
602.697322	-105.756406
602.818511	-98.771794
602.939749	-93.955858
603.061036	-91.221056
603.182372	-89.675342
603.303757	-89.050516
603.425191	-89.227217
603.546673	-90.015484
603.668204	-91.156031
603.789785	-92.545648
603.911414	-94.321639
604.033092	-96.057076
604.154820	-96.377374
604.276596	-94.894193
604.398422	-92.677439
604.520297	-90.695130
604.642220	-89.398563
604.764193	-88.807200
604.886216	-88.761051
605.008287	-89.046143
605.130408	-89.569042
605.252578	-90.444960
605.374798	-91.821488
605.497066	-93.414345
605.619385	-94.285301
605.741752	-93.762789
605.864169	-92.256516
605.986636	-90.482672
606.109152	-88.728171
606.231718	-87.237938
606.354333	-86.102813
606.476998	-85.240494
606.599712	-84.567288
606.722476	-84.361083
606.845290	-84.927786
606.968154	-86.427123
607.091067	-89.093748
607.214030	-94.001925
607.337043	-101.650973
607.460106	-92.741838
607.583219	-87.490335
607.706381	-84.439372
607.829594	-82.518027
607.952856	-81.471622
608.076169	-81.243988
608.199531	-81.614497
608.322944	-82.454688
608.446407	-84.058066
608.569920	-86.946035
608.693483	-90.718410
608.817096	-91.628947
608.940759	-88.836276
609.064473	-85.708926
609.188237	-83.601713
609.312051	-82.650570
609.435916	-82.453363
609.559831	-82.577154
609.683796	-83.039462
609.807812	-84.156095
609.931878	-86.014026
610.055995	-88.736167
610.180162	-92.990059
610.304380	-98.742510
610.428648	-94.295174
610.552967	-89.531155
610.677337	-86.770871
610.801757	-85.032927
610.926228	-84.038507
611.050750	-83.696735
611.175323	-83.909652
611.299946	-84.717997
611.424620	-86.517576
611.549345	-90.187647
611.674121	-97.541597
611.798948	-98.687248
611.923826	-91.725745
612.048755	-88.120323
612.173734	-86.210759
612.298765	-85.357872
612.423847	-85.327315
612.548980	-85.912138
612.674165	-86.980963
612.799400	-88.261699
612.924687	-89.323712
613.050025	-89.649556
613.175414	-89.386785
613.300854	-88.935441
613.426346	-88.516409
613.551889	-88.306631
613.677484	-88.324076
613.803130	-88.550332
613.928827	-88.945490
614.054576	-89.398930
614.180377	-89.780667
614.306229	-89.933604
614.432132	-89.694210
614.558087	-89.068087
614.684094	-88.194295
614.810153	-87.433139
614.936263	-87.081346
615.062425	-87.293374
615.188639	-88.134244
615.314904	-89.954846
615.441222	-93.488562
615.567591	-99.825765
615.694012	-99.229620
615.820486	-92.708770
615.947011	-89.110953
616.073588	-87.361476
616.200217	-86.929311
616.326898	-87.540920
616.453632	-89.196788
616.580417	-92.226254
616.707255	-96.766323
616.834144	-97.454325
616.961086	-93.581726
617.088081	-90.863877
617.215127	-89.408676
617.342226	-89.161945
617.469378	-89.964876
617.596581	-91.222094
617.723837	-91.675662
617.851146	-90.637211
617.978507	-88.809883
618.105920	-87.254120
618.233386	-86.799085
618.360905	-87.971494
618.488476	-91.357729
618.616100	-98.524391
618.743777	-95.660026
618.871506	-89.100588
618.999288	-85.397048
619.127123	-83.208734
619.255011	-82.183469
619.382951	-82.190585
619.510945	-83.140996
619.638991	-85.131163
619.767090	-88.284855
619.895243	-92.012151
620.023448	-90.312218
620.151706	-85.785953
620.280017	-82.777612
620.408382	-81.009216
620.536799	-80.278501
620.665270	-80.363815
620.793794	-81.040187
620.922371	-82.340665
621.051002	-84.669892
621.179686	-88.228905
621.308423	-90.342597
621.437213	-87.570040
621.566057	-84.710893
621.694954	-82.920329
621.823905	-81.869184
621.952909	-81.553024
622.081967	-82.069367
622.211079	-83.532011
622.340244	-86.242285
622.469462	-90.583939
622.598735	-95.026564
622.728061	-91.499411
622.857441	-87.503787
622.986874	-85.526091
623.116361	-84.843823
623.245903	-85.058504
623.375498	-86.113689
623.505147	-87.870792
623.634850	-89.544717
623.764606	-89.802756
623.894417	-88.733921
624.024282	-87.766731
624.154201	-87.676154
624.284174	-89.101520
624.414202	-92.951100
624.544283	-97.937911
624.674419	-91.920190
624.804609	-87.158036
624.934853	-84.517924
625.065151	-83.122651
625.195504	-82.789239
625.325911	-83.497309
625.456373	-85.385294
625.586889	-89.445415
625.717460	-100.332894
625.848085	-95.443472
625.978764	-88.294648
626.109498	-85.166933
626.240287	-83.695342
626.371131	-83.419267
626.502029	-84.267518
626.632982	-86.259842
626.763989	-89.582525
626.895052	-95.295357
627.026169	-108.110627
627.157341	-96.687442
627.288568	-91.536869
627.419850	-89.093402
627.551187	-87.902294
627.682579	-87.370826
627.814026	-87.223267
627.945528	-87.746317
628.077085	-89.439671
628.208697	-92.877963
628.340364	-98.327693
628.472087	-94.900364
628.603865	-88.692516
628.735698	-84.879365
628.867586	-82.608033
628.999530	-81.409524
629.131529	-81.043877
629.263584	-81.576416
629.395694	-83.346239
629.527859	-87.004133
629.660080	-94.408263
629.792357	-95.000415
629.924689	-87.983408
630.057077	-84.744280
630.189520	-83.092232
630.322019	-82.362775
630.454574	-82.293629
630.587184	-82.649503
630.719851	-83.367734
630.852573	-84.566936
630.985351	-86.505501
631.118185	-89.884890
631.251075	-97.337546
631.384021	-103.043498
631.517023	-90.748384
631.650081	-86.114349
631.783195	-83.954101
631.916365	-83.167534
632.049592	-83.386525
632.182874	-84.572860
632.316213	-86.781994
632.449608	-90.052401
632.583059	-93.454336
632.716567	-94.511665
632.850131	-94.550378
632.983751	-96.975045
633.117428	-105.091717
633.251161	-95.768529
633.384951	-88.802841
633.518797	-85.021896
633.652700	-82.941862
633.786660	-82.080003
633.920676	-82.412564
634.054749	-84.131732
634.188879	-87.712030
634.323065	-95.667600
634.457308	-97.077601
634.591608	-88.481873
634.725965	-85.064835
634.860379	-83.798316
634.994850	-83.929240
635.129377	-84.930048
635.263962	-86.008625
635.398604	-86.001146
635.533303	-84.910528
635.668058	-83.939056
635.802872	-83.816371
635.937742	-84.778713
636.072669	-87.103768
636.207654	-90.145621
636.342696	-88.899434
636.477796	-85.436018
636.612953	-83.116158
636.748167	-81.970691
636.883439	-81.827404
637.018768	-82.439684
637.154155	-83.578781
637.289599	-84.825680
637.425101	-85.912855
637.560660	-87.120142
637.696277	-88.766789
637.831952	-91.475609
637.967685	-94.893595
638.103475	-94.304721
638.239324	-91.285076
638.375230	-89.826984
638.511194	-90.277688
638.647215	-93.047768
638.783295	-94.593404
638.919433	-88.713619
639.055629	-84.162527
639.191883	-81.517204
639.328195	-80.286554
639.464565	-80.231757
639.600994	-81.348456
639.737481	-83.555654
639.874025	-85.651709
640.010629	-84.640750
640.147290	-82.152985
640.284010	-80.493860
640.420789	-79.989785
640.557625	-80.684662
640.694521	-82.545424
640.831474	-85.036226
640.968487	-85.251657
641.105558	-82.930085
641.242687	-81.055019
641.379876	-80.456637
641.517123	-81.132591
641.654429	-82.963509
641.791793	-85.229062
641.929216	-85.210421
642.066699	-83.146677
642.204240	-81.811672
642.341840	-81.978693
642.479499	-83.832075
642.617217	-88.321888
642.754994	-97.171681
642.892830	-88.983405
643.030726	-84.104987
643.168680	-82.246685
643.306694	-82.244327
643.444767	-84.032378
643.582899	-88.717934
643.721091	-99.223663
643.859342	-90.984970
643.997652	-86.778873
644.136022	-86.252951
644.274451	-89.166945
644.412940	-103.046520
644.551488	-89.401909
644.690096	-82.744432
644.828763	-79.587388
644.967490	-78.200928
645.106277	-78.298465
645.245124	-79.907903
645.384030	-83.187168
645.522997	-85.926123
645.662023	-82.765755
645.801109	-79.296792
645.940255	-77.462928
646.079460	-77.041374
646.218726	-77.830133
646.358052	-80.026750
646.497438	-84.424188
646.636884	-93.372396
646.776391	-91.925962
646.915957	-86.897517
647.055584	-85.735730
647.195271	-86.600550
647.335019	-87.640965
647.474826	-86.052030
647.614695	-83.645142
647.754623	-82.516588
647.894612	-83.102229
648.034662	-85.830444
648.174772	-90.500896
648.314943	-87.640253
648.455174	-82.819571
648.595466	-80.217667
648.735819	-79.329508
648.876233	-80.010845
649.016707	-82.530436
649.157242	-85.974354
649.297838	-84.955426
649.438495	-81.310946
649.579213	-79.152434
649.719992	-78.744940
649.860832	-80.142949
650.001733	-83.790734
650.142695	-87.996235
650.283718	-83.651267
650.424803	-79.776971
650.565949	-78.177532
650.707156	-78.325859
650.848424	-80.369424
650.989754	-84.568851
651.131145	-86.093764
651.272597	-81.791133
651.414111	-79.166642
651.555687	-78.373089
651.697324	-79.252964
651.839022	-82.074536
651.980782	-85.626070
652.122604	-82.943994
652.264488	-79.478766
652.406433	-78.011158
652.548441	-78.296300
652.690510	-80.685123
652.832640	-86.775035
652.974833	-91.583530
653.117088	-83.125022
653.259405	-79.981958
653.401784	-79.676576
653.544224	-82.043331
653.686727	-89.628444
653.829293	-92.763998
653.971920	-82.520971
654.114609	-79.227500
654.257361	-78.604362
654.400175	-80.268292
654.543052	-85.330142
654.685991	-90.216692
654.828992	-81.905444
654.972056	-78.072805
655.115183	-76.804294
655.258372	-77.489349
655.401623	-80.601850
655.544937	-89.179946
655.688314	-87.619043
655.831754	-80.243216
655.975256	-77.644741
656.118822	-77.450363
656.262450	-79.651455
656.406141	-86.053062
656.549894	-96.970531
656.693711	-83.199292
656.837591	-79.698990
656.981534	-79.282865
657.125540	-81.375201
657.269610	-86.743789
657.413742	-88.591499
657.557938	-82.876643
657.702196	-80.610219
657.846519	-81.221287
657.990904	-85.220211
658.135353	-90.103304
658.279866	-82.291861
658.424441	-78.054012
658.569081	-76.493991
658.713784	-76.978865
658.858550	-79.702114
659.003381	-83.046869
659.148274	-78.875280
659.293232	-74.802661
659.438253	-72.903193
659.583339	-72.709909
659.728488	-74.061600
659.873701	-76.928343
660.018978	-79.305108
660.164318	-77.086296
660.309723	-74.561632
660.455192	-73.662914
660.600725	-74.432340
660.746323	-77.144448
660.891984	-82.997440
661.037710	-99.245099
661.183500	-86.428232
661.329354	-83.906616
661.475272	-86.877988
661.621255	-95.281771
661.767303	-82.982436
661.913415	-77.673767
662.059591	-75.394402
662.205833	-75.089486
662.352138	-76.700122
662.498509	-80.851653
662.644944	-85.216415
662.791443	-80.039945
662.938008	-76.605533
663.084638	-75.616038
663.231332	-76.658971
663.378091	-80.082137
663.524915	-86.521711
663.671804	-85.715431
663.818759	-81.985831
663.965778	-82.014206
664.112863	-86.816114
664.260012	-96.794741
664.407227	-81.841144
664.554507	-77.153720
664.701853	-75.353902
664.849264	-75.521289
664.996740	-77.725783
665.144282	-83.052707
665.291889	-88.102873
665.439561	-81.392398
665.587300	-78.408248
665.735103	-78.200105
665.882973	-80.671239
666.030908	-88.080752
666.178909	-90.802130
666.326976	-82.096820
666.475109	-79.653894
666.623307	-80.410589
666.771571	-84.891844
666.919902	-99.865127
667.068298	-84.600381
667.216761	-79.846135
667.365289	-78.747126
667.513884	-80.442084
667.662545	-86.008806
667.811272	-89.482729
667.960065	-82.029611
668.108925	-79.210000
668.257851	-79.289906
668.406843	-82.198600
668.555902	-86.830432
668.705027	-81.578857
668.854219	-77.073777
669.003478	-75.169060
669.152803	-75.190164
669.302195	-77.182211
669.451653	-81.711966
669.601179	-84.280767
669.750771	-79.712657
669.900430	-77.111684
670.050156	-76.798759
670.199949	-78.866372
670.349808	-84.864194
670.499735	-92.219164
670.649729	-82.564895
670.799790	-79.795726
670.949918	-80.466771
671.100114	-85.126155
671.250377	-108.562358
671.400707	-84.037538
671.551104	-79.658982
671.701569	-78.995082
671.852101	-81.264453
672.002700	-87.466550
672.153368	-86.255800
672.304102	-80.837395
672.454905	-79.265064
672.605775	-80.757963
672.756713	-87.407646
672.907718	-92.332988
673.058791	-81.022890
673.209933	-77.589737
673.361142	-77.094470
673.512419	-79.283644
673.663764	-86.456886
673.815177	-92.164902
673.966658	-81.487427
674.118207	-78.912191
674.269825	-79.837751
674.421510	-85.595064
674.573264	-86.625735
674.725086	-77.992640
674.876977	-74.582675
675.028936	-73.849953
675.180963	-75.477432
675.333059	-80.039511
675.485224	-81.974979
675.637457	-76.297923
675.789758	-73.441941
675.942129	-72.966434
676.094568	-74.589670
676.247075	-78.865130
676.399652	-89.766025
676.552298	-89.498203
676.705012	-83.166283
676.857795	-81.193591
677.010648	-78.681285
677.163569	-75.890243
677.316560	-74.257121
677.469619	-74.243361
677.622748	-76.277115
677.775946	-80.791852
677.929214	-80.842972
678.082551	-76.279014
678.235957	-74.286503
678.389432	-74.821171
678.542977	-78.455278
678.696592	-89.738727
678.850276	-80.877411
679.004030	-75.585002
679.157853	-74.446893
679.311746	-76.255337
679.465709	-79.938175
679.619742	-75.941184
679.773844	-71.313898
679.928017	-69.061269
680.082259	-68.568451
680.236571	-69.586625
680.390954	-71.917792
680.545406	-73.980529
680.699929	-73.048577
680.854522	-71.217591
681.009185	-70.238773
681.163918	-70.140512
681.318722	-70.713816
681.473596	-71.941889
681.628540	-73.806958
681.783555	-74.721027
681.938641	-72.438847
682.093797	-69.691273
682.249023	-68.108555
682.404321	-67.819515
682.559689	-68.800723
682.715128	-70.852814
682.870637	-72.777205
683.026218	-72.951751
683.181869	-72.398587
683.337591	-72.736169
683.493385	-74.575203
683.649249	-77.336067
683.805185	-77.981381
683.961191	-76.590207
684.117269	-76.193731
684.273418	-76.696398
684.429639	-75.635527
684.585930	-72.609757
684.742294	-70.161034
684.898728	-69.146556
685.055234	-69.496963
685.211812	-70.868932
685.368461	-71.940481
685.525182	-70.959287
685.681975	-69.535558
685.838839	-69.244729
685.995775	-70.511744
686.152783	-73.650520
686.309863	-77.679280
686.467014	-77.004108
686.624238	-74.848206
686.781534	-74.384080
686.938902	-75.271094
687.096342	-76.587526
687.253854	-77.696151
687.411438	-78.787291
687.569095	-77.528838
687.726824	-73.424110
687.884626	-70.206692
688.042499	-68.533155
688.200446	-68.182641
688.358465	-68.872745
688.516556	-69.859484
688.674720	-69.793122
688.832957	-68.760748
688.991266	-68.003057
689.149649	-68.204529
689.308104	-69.583802
689.466632	-71.951580
689.625233	-74.316913
689.783906	-75.148349
689.942653	-75.431200
690.101473	-76.699226
690.260367	-77.675808
690.419333	-76.265276
690.578372	-74.860380
690.737485	-75.151928
690.896672	-76.047503
691.055931	-73.663153
691.215264	-69.948357
691.374671	-67.702929
691.534151	-67.068845
691.693704	-67.763219
691.853332	-68.978823
692.013033	-68.740550
692.172807	-67.317715
692.332656	-66.652762
692.492578	-67.475633
692.652575	-70.198196
692.812645	-75.261340
692.972789	-78.795728
693.133007	-76.987160
693.293300	-76.508525
693.453666	-75.649478
693.614107	-72.774895
693.774622	-70.765917
693.935211	-70.587391
694.095875	-71.808742
694.256613	-71.275794
694.417426	-68.332811
694.578313	-66.315046
694.739274	-65.977437
694.900311	-67.548792
695.061421	-71.209685
695.222607	-74.200782
695.383868	-72.058960
695.545203	-70.917389
695.706613	-72.695058
695.868098	-78.482236
696.029658	-81.783392
696.191293	-76.778440
696.353003	-77.092008
696.514789	-81.803456
696.676649	-75.353918
696.838585	-70.147223
697.000596	-68.206616
697.162682	-68.759524
697.324844	-71.875047
697.487081	-76.157331
697.649394	-73.612461
697.811782	-71.125562
697.974246	-71.779574
698.136786	-76.462785
698.299401	-89.148312
698.462092	-77.616068
698.624859	-75.040090
698.787702	-78.109835
698.950621	-85.043741
699.113616	-74.730160
699.276686	-70.403977
699.439833	-69.379993
699.603056	-70.611301
699.766355	-72.400801
699.929731	-71.195512
700.093183	-69.025163
700.256711	-68.386759
700.420315	-69.481850
700.583996	-71.792655
700.747754	-72.902361
700.911588	-71.855052
701.075499	-71.719911
701.239486	-73.934750
701.403550	-80.186950
701.567691	-84.780266
701.731909	-77.792604
701.896203	-75.990135
702.060575	-75.816978
702.225024	-74.024974
702.389549	-71.076243
702.554152	-69.435454
702.718832	-69.365439
702.883589	-70.558088
703.048424	-72.005424
703.213335	-72.131475
703.378324	-71.870253
703.543391	-72.883486
703.708535	-76.564639
703.873757	-83.608041
704.039056	-79.437336
704.204433	-75.626433
704.369887	-74.786836
704.535420	-74.263330
704.701030	-72.221064
704.866718	-70.467533
705.032484	-69.984752
705.198328	-71.222517
705.364250	-73.718414
705.530250	-74.315630
705.696328	-72.522164
705.862485	-72.024253
706.028720	-73.765452
706.195033	-76.062824
706.361424	-73.326006
706.527894	-70.137043
706.694442	-69.143331
706.861069	-69.928177
707.027775	-71.550410
707.194559	-72.233200
707.361422	-71.862501
707.528363	-72.711582
707.695384	-75.651258
707.862483	-77.901769
708.029661	-75.610278
708.196918	-74.442125
708.364254	-74.464016
708.531670	-72.357875
708.699164	-69.120048
708.866738	-67.307328
709.034391	-67.192550
709.202123	-68.347527
709.369935	-69.644515
709.537826	-69.487062
709.705796	-69.299272
709.873847	-70.843908
710.041976	-75.155867
710.210186	-81.762111
710.378475	-78.859978
710.546844	-77.490970
710.715292	-76.984438
710.883821	-73.007006
711.052429	-69.717674
711.221118	-68.551948
711.389887	-69.006692
711.558735	-69.747411
711.727664	-68.909187
711.896673	-67.786315
712.065763	-68.071551
712.234932	-70.336031
712.404183	-74.792620
712.573513	-76.034941
712.742924	-74.104310
712.912416	-74.563996
713.081988	-76.317526
713.251641	-74.559087
713.421375	-71.979657
713.591190	-71.551070
713.761085	-72.953341
713.931061	-74.046259
714.101119	-72.651750
714.271257	-71.954434
714.441476	-73.632227
714.611777	-79.898375
714.782159	-86.007040
714.952622	-77.152790
715.123166	-73.877596
715.293792	-71.656587
715.464499	-68.928796
715.635288	-66.926516
715.806158	-66.159591
715.977110	-66.407571
716.148143	-66.957060
716.319259	-66.928090
716.490456	-66.683519
716.661735	-67.174779
716.833096	-69.107754
717.004538	-72.481882
717.176063	-77.782865
717.347670	-84.697985
717.519359	-79.316221
717.691130	-72.655304
717.862984	-68.878972
718.034920	-66.919169
718.206938	-66.278134
718.379039	-66.301701
718.551222	-66.143663
718.723488	-65.650431
718.895836	-65.484907
719.068267	-66.215033
719.240781	-67.892826
719.413377	-70.183098
719.586057	-72.151528
719.758819	-73.535212
719.931664	-72.533758
720.104593	-69.382621
720.277604	-66.688833
720.450699	-65.324478
720.623876	-65.289442
720.797137	-66.075033
720.970482	-66.782191
721.143910	-67.070454
721.317421	-68.105038
721.491016	-70.989237
721.664694	-74.878156
721.838456	-72.785177
722.012302	-70.048357
722.186231	-68.210872
722.360244	-65.823257
722.534342	-63.464694
722.708523	-62.268220
722.882788	-62.388102
723.057137	-63.533992
723.231570	-65.010297
723.406088	-66.284617
723.580689	-68.465178
723.755375	-73.063342
723.930146	-73.189637
724.105000	-68.216739
724.279940	-65.892677
724.454963	-64.776460
724.630072	-63.373928
724.805265	-61.710892
724.980543	-60.819603
725.155905	-60.991600
725.331353	-62.024258
725.506885	-63.300140
725.682503	-64.691131
725.858205	-67.007349
726.033993	-70.519211
726.209865	-70.449346
726.385823	-67.200935
726.561866	-65.514773
726.737995	-64.763398
726.914209	-63.682405
727.090508	-62.206705
727.266893	-61.104823
727.443364	-60.636989
727.619920	-60.691887
727.796562	-60.974243
727.973290	-61.652303
728.150103	-62.963450
728.327003	-65.180566
728.503988	-68.103301
728.681060	-70.385260
728.858218	-70.425359
729.035461	-68.858061
729.212791	-66.106113
729.390208	-63.065103
729.567710	-60.733455
729.745299	-59.396572
729.922975	-58.903371
730.100737	-58.976295
730.278586	-59.472510
730.456521	-60.638705
730.634543	-63.034389
730.812652	-67.017735
730.990848	-69.829899
731.169130	-67.416547
731.347500	-64.889255
731.525957	-62.560315
731.704500	-60.286166
731.883131	-58.641644
732.061850	-57.922486
732.240655	-57.944126
732.419548	-58.380397
732.598528	-59.152237
732.777596	-60.813908
732.956751	-64.117802
733.135994	-67.863430
733.315325	-65.691991
733.494744	-62.915276
733.674250	-61.324793
733.853844	-60.004211
734.033526	-58.829051
734.213296	-58.310562
734.393154	-58.561044
734.573101	-59.120156
734.753135	-59.653253
734.933258	-60.654640
735.113469	-63.038924
735.293769	-66.790577
735.474157	-66.917200
735.654633	-64.135769
735.835198	-62.213904
736.015852	-60.557913
736.196594	-59.123023
736.377426	-58.422707
736.558346	-58.396375
736.739355	-58.321942
736.920453	-57.944434
737.101640	-57.957668
737.282916	-58.886660
737.464282	-60.569025
737.645736	-62.432409
737.827280	-64.348513
738.008914	-65.882939
738.190637	-64.301353
738.372449	-61.753441
738.554351	-60.450182
738.736342	-59.921975
738.918424	-59.141912
739.100595	-58.186547
739.282855	-57.865331
739.465206	-58.380347
739.647647	-59.250697
739.830178	-60.175332
740.012799	-61.788688
740.195510	-63.642960
740.378311	-62.312162
740.561203	-59.887380
740.744185	-58.747233
740.927258	-58.428284
741.110421	-57.949630
741.293674	-57.435158
741.477018	-57.573956
741.660453	-58.288530
741.843979	-58.897769
742.027596	-59.452217
742.211303	-60.977242
742.395102	-63.537652
742.578991	-63.362380
742.762972	-60.900980
742.947044	-59.581871
743.131207	-59.029090
743.315461	-58.328352
743.499807	-57.760443
743.684244	-57.983455
743.868773	-58.636362
744.053394	-58.752329
744.238106	-58.723108
744.422910	-59.710348
744.607805	-61.752796
744.792793	-62.503461
744.977872	-61.149719
745.163044	-60.109080
745.348307	-59.406024
745.533663	-58.551404
745.719111	-58.049361
745.904651	-58.495355
746.090283	-59.502231
746.276008	-59.715905
746.461826	-59.334036
746.647735	-59.833239
746.833738	-60.974829
747.019833	-60.700407
747.206021	-59.408710
747.392302	-58.711891
747.578676	-58.267799
747.765143	-57.547087
747.951703	-57.294809
748.138356	-58.292794
748.325102	-60.055887
748.511941	-60.579103
748.698874	-60.115050
748.885900	-60.614929
749.073019	-61.530975
749.260232	-61.170722
749.447539	-60.737150
749.634939	-60.980202
749.822433	-60.105071
750.010021	-58.403143
750.197703	-57.880319
750.385479	-58.578957
750.573348	-58.849577
750.761312	-58.048816
750.949370	-57.855866
751.137523	-58.622720
751.325769	-59.362775
751.514110	-60.061271
751.702545	-62.349731
751.891075	-65.172461
752.079700	-62.298354
752.268419	-59.697168
752.457233	-59.049948
752.646142	-58.768073
752.835145	-58.062324
753.024244	-57.963597
753.213437	-58.751667
753.402726	-59.165402
753.592110	-59.060302
753.781589	-60.067361
753.971163	-62.274502
754.160833	-62.084909
754.350598	-60.138711
754.540459	-59.491472
754.730415	-59.601644
754.920467	-59.660234
755.110615	-60.430468
755.300858	-62.560506
755.491198	-63.160481
755.681633	-61.169292
755.872164	-60.442249
756.062792	-61.011805
756.253515	-60.708898
756.444335	-59.649971
756.635252	-59.391291
756.826264	-59.386278
757.017373	-58.938774
757.208579	-59.126467
757.399881	-60.714530
757.591280	-61.908144
757.782776	-60.680976
757.974368	-59.922066
758.166058	-60.696835
758.357844	-61.650500
758.549728	-61.847521
758.741708	-62.315489
758.933786	-62.079437
759.125961	-60.110178
759.318233	-58.967687
759.510603	-59.767442
759.703071	-61.481586
759.895635	-61.639243
760.088298	-61.734808
760.281058	-63.600532
760.473916	-64.668772
760.666872	-63.563458
760.859926	-63.510989
761.053078	-62.087330
761.246328	-59.012387
761.439676	-57.649684
761.633122	-58.384253
761.826667	-60.004106
762.020310	-60.752996
762.214052	-62.044797
762.407892	-64.987749
762.601831	-64.144383
762.795868	-62.233739
762.990004	-63.081467
763.184239	-62.597965
763.378573	-59.424855
763.573006	-58.310247
763.767538	-59.270714
763.962169	-60.202959
764.156900	-60.497313
764.351729	-62.925199
764.546658	-66.766903
764.741687	-63.239693
764.936815	-61.938980
765.132042	-64.066863
765.327370	-63.351037
765.522797	-60.697545
765.718324	-60.691313
765.913950	-61.329468
766.109677	-60.215966
766.305504	-60.529312
766.501431	-63.931077
766.697458	-63.314597
766.893586	-60.027073
767.089814	-60.033435
767.286142	-61.329577
767.482571	-60.326118
767.679100	-59.956754
767.875730	-61.537464
768.072461	-60.819429
768.269293	-59.087832
768.466225	-60.255802
768.663259	-63.730432
768.860393	-62.476169
769.057629	-61.202568
769.254966	-62.930228
769.452404	-62.864536
769.649944	-61.139118
769.847585	-61.822926
770.045328	-60.849367
770.243172	-57.555343
770.441118	-56.564983
770.639166	-58.045599
770.837315	-59.647154
771.035567	-59.555565
771.233920	-60.956336
771.432376	-62.620217
771.630934	-60.084676
771.829594	-59.162345
772.028356	-60.312507
772.227220	-58.738656
772.426188	-56.566044
772.625257	-56.930889
772.824430	-59.140311
773.023705	-59.801339
773.223083	-59.968720
773.422563	-61.029202
773.622147	-58.478135
773.821834	-56.270492
774.021624	-56.912022
774.221517	-58.808682
774.421513	-57.955688
774.621613	-57.463076
774.821816	-59.240681
775.022122	-59.471367
775.222532	-58.142783
775.423046	-58.812052
775.623664	-58.128199
775.824385	-55.528255
776.025211	-55.194578
776.226140	-57.108266
776.427173	-57.154492
776.628311	-55.616778
776.829553	-55.690780
777.030899	-55.431958
777.232350	-54.310355
777.433905	-55.076394
777.635564	-58.041230
777.837328	-57.988598
778.039197	-56.741958
778.241171	-57.935307
778.443250	-57.411321
778.645433	-55.224410
778.847722	-54.914581
779.050116	-54.744661
779.252615	-53.565275
779.455219	-53.987774
779.657929	-56.881964
779.860744	-57.498075
780.063665	-55.453290
780.266691	-55.029033
780.469823	-54.063416
780.673061	-52.767492
780.876405	-53.127712
781.079855	-54.003257
781.283410	-53.209390
781.487072	-53.181042
781.690840	-55.110922
781.894715	-55.897269
782.098695	-54.989582
782.302783	-55.013801
782.506976	-54.141180
782.711277	-53.034080
782.915684	-53.733013
783.120198	-54.511231
783.324818	-53.031080
783.529546	-52.332491
783.734381	-52.787047
783.939322	-52.686396
784.144372	-52.824247
784.349528	-53.899632
784.554792	-53.407011
784.760163	-52.325097
784.965642	-52.916958
785.171228	-53.397314
785.376922	-52.335461
785.582724	-52.098147
785.788634	-52.251658
785.994651	-51.718168
786.200777	-52.201840
786.407011	-53.634242
786.613353	-52.766016
786.819804	-51.672838
787.026363	-52.101881
787.233030	-52.078427
787.439806	-51.507047
787.646691	-51.880849
787.853684	-51.557286
788.060786	-50.458581
788.267997	-50.908532
788.475317	-52.248293
788.682746	-51.730381
788.890285	-51.346587
789.097932	-51.935740
789.305689	-51.375633
789.513555	-51.006718
789.721531	-51.794157
789.929617	-50.989552
790.137812	-49.693800
790.346117	-50.270892
790.554531	-51.206645
790.763056	-50.676893
790.971691	-50.876612
791.180436	-51.108866
791.389291	-49.924180
791.598256	-49.955016
791.807332	-51.288214
792.016518	-50.560129
792.225815	-49.687170
792.435222	-50.495733
792.644740	-50.560408
792.854369	-50.043469
793.064109	-50.914819
793.273960	-50.593864
793.483922	-49.231738
793.693995	-49.856412
793.904180	-50.730362
794.114475	-49.424319
794.324882	-49.079387
794.535401	-49.348703
794.746031	-48.593252
794.956774	-48.910324
795.167627	-50.480015
795.378593	-49.806292
795.589671	-49.078483
795.800861	-50.040901
796.012162	-49.827420
796.223577	-49.090097
796.435103	-49.590664
796.646742	-49.092336
796.858493	-48.378742
797.070357	-49.486166
797.282334	-49.902801
797.494423	-48.532805
797.706626	-48.400953
797.918941	-48.489857
798.131369	-48.052304
798.343911	-48.781445
798.556566	-49.476081
798.769334	-48.480687
798.982215	-48.428473
799.195210	-49.057483
799.408319	-48.413735
799.621541	-48.073631
799.834877	-48.271092
800.048327	-47.925494
800.261890	-48.307653
800.475568	-49.488135
800.689360	-48.954071
800.903266	-48.144197
801.117287	-48.305115
801.331422	-48.162593
801.545671	-48.129556
801.760036	-48.465400
801.974514	-47.756930
802.189108	-47.180381
802.403816	-47.640764
802.618640	-47.683610
802.833578	-47.298806
803.048632	-47.545359
803.263800	-47.635973
803.479085	-47.759701
803.694484	-48.537097
803.909999	-48.164883
804.125630	-47.139997
804.341376	-47.227973
804.557239	-47.475133
804.773217	-47.452858
804.989311	-47.942178
805.205521	-47.614758
805.421847	-46.939279
805.638290	-47.404425
805.854849	-47.439518
806.071524	-46.711373
806.288316	-46.924939
806.505225	-47.086319
806.722250	-46.987681
806.939393	-47.772556
807.156652	-47.393883
807.374028	-46.279712
807.591521	-46.630787
807.809132	-47.009717
808.026859	-46.790015
808.244705	-47.420065
808.462667	-47.138706
808.680748	-46.425300
808.898946	-47.153767
809.117261	-46.965672
809.335695	-45.972603
809.554246	-46.342338
809.772916	-46.469516
809.991704	-46.340525
810.210610	-47.297664
810.429634	-46.741143
810.648777	-45.784215
810.868039	-46.458216
811.087419	-46.534877
811.306918	-46.117058
811.526535	-46.683588
811.746272	-46.275140
811.966127	-45.984886
812.186102	-46.972945
812.406196	-46.424079
812.626409	-45.656948
812.846742	-46.243356
813.067194	-46.226726
813.287766	-46.268203
813.508457	-46.865898
813.729269	-45.809261
813.950200	-45.304201
814.171251	-46.010757
814.392422	-45.652468
814.613714	-45.434451
814.835126	-46.023530
815.056658	-45.859384
815.278311	-46.369744
815.500084	-47.239375
815.721978	-45.985450
815.943993	-45.513289
816.166128	-45.881669
816.388385	-45.452802
816.610762	-45.684107
816.833261	-45.849409
817.055881	-45.091204
817.278623	-45.636259
817.501486	-46.243301
817.724471	-45.415657
817.947577	-45.533526
818.170805	-45.613620
818.394155	-45.335448
818.617627	-46.119078
818.841221	-45.714294
819.064937	-44.885745
819.288775	-45.627167
819.512736	-45.901463
819.736819	-45.860600
819.961025	-46.323180
820.185354	-45.405521
820.409805	-45.213443
820.634379	-45.733234
820.859076	-44.819348
821.083897	-44.652666
821.308840	-45.208955
821.533907	-45.207618
821.759097	-46.043891
821.984411	-46.000735
822.209848	-44.865687
822.435409	-45.213631
822.661093	-45.436623
822.886902	-45.185802
823.112834	-45.706743
823.338891	-45.352780
823.565072	-45.323810
823.791377	-46.011196
824.017807	-45.074564
824.244361	-44.603035
824.471039	-44.982663
824.697843	-44.930070
824.924771	-45.524731
825.151824	-45.586974
825.379002	-44.726616
825.606306	-45.181242
825.833734	-45.453357
826.061288	-44.978034
826.288967	-45.202230
826.516772	-44.939414
826.744703	-45.069865
826.972759	-45.915769
827.200941	-45.155928
827.429249	-44.829691
827.657683	-45.331317
827.886243	-45.158462
828.114930	-45.471027
828.343743	-45.126676
828.572682	-44.289322
828.801748	-44.884935
829.030941	-45.009555
829.260260	-44.590744
829.489706	-45.045685
829.719280	-44.964715
829.948980	-45.502737
830.178808	-46.202479
830.408763	-44.971953
830.638845	-44.804099
830.869055	-44.956527
831.099393	-44.571174
831.329858	-44.989521
831.560451	-44.579150
831.791173	-44.480719
832.022022	-45.553862
832.252999	-45.055966
832.484105	-44.635991
832.715339	-44.620925
832.946702	-44.265242
833.178193	-44.985304
833.409813	-44.902480
833.641561	-44.254111
833.873439	-44.920974
834.105445	-45.042428
834.337581	-44.971842
834.569846	-44.874998
834.802241	-44.070180
835.034764	-44.421631
835.267418	-44.664231
835.500201	-43.961972
835.733114	-44.089139
835.966157	-44.254521
836.199329	-44.657561
836.432632	-45.236549
836.666065	-44.473838
836.899629	-44.425974
837.133323	-44.919270
837.367147	-44.561588
837.601102	-44.377141
837.835188	-43.881817
838.069405	-43.763199
838.303752	-44.403887
838.538231	-44.033057
838.772841	-43.853758
839.007582	-44.308954
839.242455	-44.410530
839.477459	-44.589687
839.712595	-43.803368
839.947863	-43.213881
840.183263	-43.775490
840.418794	-43.917088
840.654458	-43.995406
840.890254	-44.001395
841.126182	-43.794836
841.362242	-44.199002
841.598435	-43.602982
841.834761	-42.950640
842.071220	-43.122376
842.307811	-43.261517
842.544536	-43.658669
842.781393	-43.404245
843.018384	-43.118089
843.255508	-43.787637
843.492765	-43.895392
843.730156	-43.613418
843.967681	-43.093083
844.205339	-42.703712
844.443132	-42.943595
844.681058	-42.622963
844.919118	-42.436938
845.157313	-42.834566
845.395642	-43.185806
845.634105	-43.341867
845.872703	-42.630633
846.111436	-42.224635
846.350303	-42.587928
846.589306	-42.697923
846.828443	-42.587142
847.067716	-42.271661
847.307124	-42.175039
847.546667	-42.330808
847.786345	-41.951187
848.026160	-41.769605
848.266110	-42.102967
848.506195	-42.390638
848.746417	-42.313477
848.986775	-41.678550
849.227269	-41.452884
849.467899	-41.852177
849.708666	-41.931639
849.949569	-41.795406
850.190609	-41.600327
850.431785	-41.538473
850.673099	-41.590138
850.914549	-41.169655
851.156137	-41.122220
851.397861	-41.500632
851.639723	-41.567148
851.881723	-41.257266
852.123860	-40.605240
852.366135	-40.571711
852.608547	-40.994119
852.851098	-41.082759
853.093786	-41.147898
853.336613	-41.027612
853.579578	-40.943083
853.822681	-40.555511
854.065923	-39.959285
854.309304	-40.006845
854.552823	-40.352156
854.796481	-40.582774
855.040278	-40.342672
855.284215	-40.025828
855.528290	-40.176695
855.772505	-40.289690
856.016859	-40.210847
856.261353	-40.112971
856.505987	-40.161104
856.750760	-40.035380
856.995673	-39.504674
857.240727	-39.159702
857.485920	-39.302053
857.731254	-39.743520
857.976729	-39.805314
858.222343	-39.610440
858.468099	-39.576372
858.713995	-39.557509
858.960032	-39.357127
859.206211	-38.997738
859.452530	-39.044963
859.698991	-39.263819
859.945593	-39.130059
860.192336	-38.881671
860.439222	-38.822708
860.686248	-39.116417
860.933417	-39.144112
861.180728	-38.794915
861.428181	-38.667891
861.675776	-38.691193
861.923514	-38.676317
862.171394	-38.523610
862.419417	-38.536528
862.667582	-38.843313
862.915890	-38.721855
863.164342	-38.247771
863.412936	-37.999215
863.661674	-38.080136
863.910555	-38.354350
864.159579	-38.292420
864.408747	-38.277646
864.658059	-38.405261
864.907515	-38.191623
865.157114	-37.942011
865.406858	-37.760930
865.656746	-38.043287
865.906778	-38.190804
866.156955	-37.787380
866.407277	-37.584841
866.657743	-37.524473
866.908354	-37.737019
867.159110	-37.694264
867.410011	-37.590424
867.661057	-37.741814
867.912249	-37.528715
868.163586	-37.343164
868.415069	-37.255035
868.666697	-37.576084
868.918472	-37.857058
869.170392	-37.409098
869.422458	-37.088030
869.674671	-36.947943
869.927030	-37.116645
870.179536	-37.226165
870.432188	-37.203714
870.684987	-37.406131
870.937933	-37.148543
871.191026	-36.834584
871.444266	-36.715887
871.697653	-36.992459
871.951188	-37.337010
872.204870	-36.932054
872.458700	-36.643784
872.712677	-36.530744
872.966803	-36.690399
873.221076	-36.841625
873.475498	-36.887212
873.730068	-37.166904
873.984787	-36.863219
874.239654	-36.468323
874.494669	-36.238357
874.749834	-36.467288
875.005147	-36.750946
875.260610	-36.486262
875.516222	-36.407605
875.771983	-36.366158
876.027894	-36.424864
876.283954	-36.282438
876.540164	-36.299714
876.796524	-36.592077
877.053033	-36.458346
877.309693	-36.202550
877.566503	-35.995753
877.823464	-36.112160
878.080575	-36.021435
878.337837	-35.771346
878.595249	-35.888444
878.852813	-36.115859
879.110528	-36.217959
879.368393	-35.979756
879.626410	-35.999893
879.884579	-36.050648
880.142899	-35.781179
880.401371	-35.511001
880.659994	-35.491411
880.918770	-35.721821
881.177698	-35.635591
881.436778	-35.597284
881.696010	-35.716113
881.955395	-35.764747
882.214933	-35.493215
882.474623	-35.306981
882.734467	-35.545609
882.994463	-35.647867
883.254613	-35.453141
883.514916	-35.185922
883.775372	-35.235438
884.035982	-35.201109
884.296746	-35.127124
884.557664	-35.266456
884.818735	-35.506368
885.079961	-35.424089
885.341341	-35.040163
885.602876	-35.024798
885.864565	-35.100012
886.126409	-35.035769
886.388407	-34.808512
886.650561	-34.912473
886.912870	-35.089528
887.175334	-34.970606
887.437953	-34.867375
887.700728	-34.849468
887.963658	-34.886525
888.226745	-34.604883
888.489987	-34.642320
888.753385	-34.801986
889.016940	-34.775974
889.280651	-34.461683
889.544518	-34.353055
889.808543	-34.635341
890.072723	-34.629143
890.337061	-34.620567
890.601556	-34.523920
890.866208	-34.589465
891.131017	-34.248494
891.395984	-34.126123
891.661109	-34.276328
891.926391	-34.379321
892.191831	-34.276238
892.457429	-34.154276
892.723186	-34.454859
892.989100	-34.315374
893.255173	-34.123308
893.521405	-33.909543
893.787796	-34.101950
894.054345	-33.997443
894.321053	-33.916959
894.587921	-34.007028
894.854948	-34.021258
895.122134	-33.863427
895.389480	-33.712836
895.656986	-34.053085
895.924651	-34.021856
896.192477	-33.814899
896.460463	-33.538122
896.728609	-33.659844
896.996915	-33.544493
897.265382	-33.482723
897.534010	-33.634881
897.802799	-33.784351
898.071749	-33.627303
898.340860	-33.391389
898.610132	-33.506533
898.879566	-33.375634
899.149162	-33.185548
899.418919	-33.081784
899.688838	-33.339935
899.958919	-33.241931
900.229162	-33.117741
900.499568	-33.144895
900.770136	-33.259588
901.040867	-33.064312
901.311761	-32.919147
901.582817	-33.007735
901.854037	-32.895427
902.125420	-32.693402
902.396966	-32.658964
902.668676	-32.902407
902.940550	-32.779642
903.212587	-32.730025
903.484788	-32.774087
903.757153	-32.834071
904.029683	-32.432821
904.302377	-32.307651
904.575236	-32.355250
904.848259	-32.426812
905.121447	-32.324865
905.394800	-32.491571
905.668319	-32.535299
905.942002	-32.269506
906.215852	-32.064226
906.489866	-32.160244
906.764047	-32.176320
907.038393	-31.956299
907.312906	-31.996560
907.587584	-32.090711
907.862429	-32.030060
908.137441	-31.851158
908.412619	-32.013514
908.687964	-31.964604
908.963476	-31.773182
909.239155	-31.612878
909.515002	-31.708456
909.791015	-31.544762
910.067197	-31.494671
910.343546	-31.649510
910.620063	-31.770360
910.896748	-31.491557
911.173601	-31.336828
911.450623	-31.380833
911.727813	-31.300507
912.005171	-31.166805
912.282699	-31.214952
912.560395	-31.305192
912.838261	-31.156885
913.116296	-31.194247
913.394500	-31.250789
913.672874	-31.114108
913.951418	-30.799431
914.230131	-30.914620
914.509015	-31.000894
914.788068	-30.941224
915.067292	-30.767500
915.346687	-30.865197
915.626252	-30.757134
915.905988	-30.747702
916.185895	-30.771272
916.465973	-30.754962
916.746223	-30.391003
917.026644	-30.364772
917.307236	-30.527674
917.588000	-30.603578
917.868937	-30.411729
918.150045	-30.452746
918.431325	-30.415617
918.712778	-30.290771
918.994404	-30.205308
919.276202	-30.266858
919.558173	-30.114691
919.840317	-30.068968
920.122634	-30.246922
920.405125	-30.328924
920.687789	-30.066365
920.970627	-29.960898
921.253639	-29.993493
921.536824	-29.925917
921.820184	-29.843898
922.103718	-29.961475
922.387427	-29.935139
922.671310	-29.801187
922.955368	-29.815642
923.239601	-29.883910
923.524009	-29.687663
923.808592	-29.613322
924.093351	-29.690936
924.378285	-29.649951
924.663396	-29.476671
924.948682	-29.610813
925.234144	-29.704797
925.519782	-29.585227
925.805597	-29.447877
926.091589	-29.502795
926.377757	-29.386725
926.664102	-29.378993
926.950624	-29.496420
927.237323	-29.501241
927.524200	-29.283336
927.811255	-29.378966
928.098487	-29.487386
928.385897	-29.311934
928.673485	-29.078723
928.961251	-29.151832
929.249196	-29.163809
929.537319	-29.183056
929.825621	-29.246452
930.114102	-29.173804
930.402762	-28.879726
930.691601	-28.911291
930.980620	-29.007457
931.269818	-28.878486
931.559196	-28.699931
931.848753	-28.865972
932.138491	-28.872133
932.428409	-28.797582
932.718508	-28.747629
933.008787	-28.727214
933.299246	-28.507924
933.589887	-28.581473
933.880709	-28.656427
934.171712	-28.566948
934.462896	-28.484124
934.754262	-28.675121
935.045810	-28.572754
935.337539	-28.339396
935.629451	-28.329998
935.921545	-28.418920
936.213822	-28.362329
936.506281	-28.392497
936.798922	-28.415796
937.091747	-28.241077
937.384755	-28.239906
937.677946	-28.351991
937.971321	-28.196210
938.264879	-27.973602
938.558621	-28.150664
938.852547	-28.286787
939.146657	-28.190575
939.440952	-28.084836
939.735431	-28.049172
940.030095	-27.916950
940.324943	-28.030650
940.619977	-28.120573
940.915196	-27.964810
941.210600	-27.868887
941.506189	-28.111049
941.801965	-28.092262
942.097926	-27.877403
942.394074	-27.840400
942.690407	-27.884153
942.986927	-27.876777
943.283634	-27.979759
943.580527	-27.993153
943.877608	-27.761577
944.174875	-27.797756
944.472330	-27.903944
944.769972	-27.757500
945.067802	-27.613450
945.365820	-27.800406
945.664026	-27.829200
945.962420	-27.746363
946.261002	-27.744387
946.559773	-27.650627
946.858733	-27.540473
947.157881	-27.686405
947.457219	-27.749130
947.756746	-27.560065
948.056462	-27.622735
948.356368	-27.762319
948.656464	-27.635802
948.956749	-27.533978
949.257225	-27.625697
949.557891	-27.557917
949.858748	-27.599028
950.159796	-27.771133
950.461034	-27.693559
950.762463	-27.529416
951.064084	-27.629197
951.365896	-27.621085
951.667900	-27.496891
951.970095	-27.649249
952.272483	-27.690030
952.575063	-27.530327
952.877835	-27.546635
953.180799	-27.623510
953.483956	-27.420974
953.787307	-27.395580
954.090850	-27.507719
954.394586	-27.446263
954.698516	-27.480777
955.002640	-27.520864
955.306957	-27.266460
955.611469	-27.149047
955.916174	-27.400263
956.221074	-27.393853
956.526169	-27.228633
956.831458	-27.270222
957.136942	-27.257877
957.442622	-27.188438
957.748496	-27.261579
958.054567	-27.158173
958.360833	-27.025216
958.667294	-27.290247
958.973952	-27.396834
959.280806	-27.103891
959.587857	-27.042165
959.895104	-27.184318
960.202548	-27.164462
960.510189	-27.207113
960.818027	-27.209182
961.126062	-27.038242
961.434295	-27.159480
961.742726	-27.296601
962.051355	-27.027782
962.360182	-26.937483
962.669207	-27.183176
962.978431	-27.186275
963.287854	-27.077970
963.597475	-27.092982
963.907296	-26.953947
964.217315	-26.966815
964.527535	-27.139381
964.837954	-26.987292
965.148573	-26.878581
965.459392	-27.080080
965.770411	-27.030806
966.081630	-26.824867
966.393051	-26.906842
966.704672	-26.915422
967.016494	-26.893845
967.328517	-27.046213
967.640742	-26.944759
967.953169	-26.777760
968.265797	-26.919996
968.578627	-26.939360
968.891660	-26.820615
969.204895	-26.998504
969.518332	-27.016634
969.831972	-26.834187
970.145816	-26.926860
970.459862	-26.933620
970.774112	-26.835478
971.088565	-27.007785
971.403223	-27.061636
971.718084	-26.892446
972.033149	-26.974733
972.348419	-26.970377
972.663893	-26.805141
972.979572	-26.996012
973.295456	-27.085331
973.611546	-26.894367
973.927840	-26.955948
974.244340	-26.962236
974.561046	-26.788132
974.877958	-26.894099
975.195076	-26.983392
975.512401	-26.873984
975.829932	-26.971198
976.147670	-26.894069
976.465615	-26.645916
976.783767	-26.827578
977.102126	-26.961572
977.420693	-26.774041
977.739468	-26.803685
978.058451	-26.820070
978.377642	-26.688315
978.697041	-26.751982
979.016649	-26.725982
979.336466	-26.642765
979.656492	-26.876735
979.976727	-26.831568
980.297171	-26.499097
980.617825	-26.602227
980.938689	-26.757758
981.259763	-26.687419
981.581048	-26.709275
981.902542	-26.591692
982.224248	-26.508551
982.546164	-26.678730
982.868291	-26.579258
983.190630	-26.445167
983.513180	-26.682931
983.835942	-26.646547
984.158916	-26.376820
984.482101	-26.425422
984.805500	-26.466368
985.129110	-26.483716
985.452934	-26.550944
985.776970	-26.330509
986.101220	-26.279784
986.425683	-26.466750
986.750359	-26.286695
987.075250	-26.186336
987.400354	-26.403684
987.725673	-26.352463
988.051206	-26.195954
988.376954	-26.159175
988.702916	-26.100559
989.029094	-26.260831
989.355487	-26.337733
989.682095	-26.034397
990.008919	-26.028774
990.335959	-26.185084
990.663216	-26.042019
990.990688	-26.064598
991.318377	-26.143597
991.646283	-26.028907
991.974406	-26.051673
992.302746	-25.983112
992.631304	-25.891154
992.960079	-26.099419
993.289072	-26.066469
993.618283	-25.858607
993.947713	-25.949313
994.277361	-25.914723
994.607227	-25.820113
994.937313	-25.967106
995.267618	-25.933704
995.598142	-25.831304
995.928886	-25.831170
996.259849	-25.705571
996.591033	-25.800130
996.922437	-25.954889
997.254061	-25.696301
997.585906	-25.625800
997.917972	-25.761934
998.250260	-25.645805
998.582768	-25.636479
998.915498	-25.676456
999.248450	-25.598132
999.581624	-25.637107
999.915020	-25.488395
1000.248639	-25.368815
1000.582480	-25.628716
1000.916545	-25.579390
1001.250832	-25.301861
1001.585343	-25.335999
1001.920077	-25.349892
1002.255035	-25.348911
1002.590218	-25.342104
1002.925624	-25.165206
1003.261255	-25.222224
1003.597111	-25.254174
1003.933192	-24.993409
1004.269497	-25.051789
1004.606029	-25.185758
1004.942785	-25.004789
1005.279768	-24.910427
1005.616977	-24.839091
1005.954412	-24.845881
1006.292074	-24.981922
1006.629962	-24.798635
1006.968077	-24.662922
1007.306420	-24.768853
1007.644990	-24.656067
1007.983787	-24.622349
1008.322813	-24.702811
1008.662067	-24.563207
1009.001549	-24.516928
1009.341259	-24.484415
1009.681199	-24.422103
1010.021367	-24.556628
1010.361765	-24.467149
1010.702392	-24.299093
1011.043250	-24.387475
1011.384337	-24.326345
1011.725654	-24.286966
1012.067202	-24.367310
1012.408980	-24.229721
1012.750989	-24.183513
1013.093230	-24.182467
1013.435702	-24.109651
1013.778405	-24.233095
1014.121341	-24.158459
1014.464508	-23.966250
1014.807908	-24.056339
1015.151540	-24.032596
1015.495405	-23.982495
1015.839503	-24.018687
1016.183835	-23.870412
1016.528400	-23.863595
1016.873198	-23.880901
1017.218231	-23.774748
1017.563498	-23.878408
1017.908999	-23.814445
1018.254735	-23.636476
1018.600707	-23.719481
1018.946913	-23.695484
1019.293354	-23.672836
1019.640032	-23.681048
1019.986945	-23.499506
1020.334094	-23.536130
1020.681480	-23.591590
1021.029102	-23.480285
1021.376961	-23.527596
1021.725058	-23.429600
1022.073391	-23.329360
1022.421962	-23.428148
1022.770772	-23.346739
1023.119819	-23.317693
1023.469104	-23.294914
1023.818628	-23.136511
1024.168391	-23.210267
1024.518393	-23.207568
1024.868634	-23.095808
1025.219115	-23.118407
1025.569836	-22.983974
1025.920796	-22.960512
1026.271997	-23.033039
1026.623438	-22.899355
1026.975121	-22.884972
1027.327044	-22.823082
1027.679208	-22.726682
1028.031614	-22.824178
1028.384262	-22.737644
1028.737152	-22.651299
1029.090284	-22.649426
1029.443659	-22.536077
1029.797276	-22.593483
1030.151137	-22.565189
1030.505240	-22.419312
1030.859587	-22.445830
1031.214178	-22.368168
1031.569013	-22.356718
1031.924093	-22.393728
1032.279417	-22.246086
1032.634985	-22.237824
1032.990799	-22.202788
1033.346858	-22.147633
1033.703162	-22.219234
1034.059712	-22.081580
1034.416509	-22.018137
1034.773551	-22.066849
1035.130841	-21.998620
1035.488377	-22.030629
1035.846160	-21.944904
1036.204190	-21.857505
1036.562468	-21.933049
1036.920994	-21.859333
1037.279768	-21.856922
1037.638790	-21.837427
1037.998061	-21.716460
1038.357581	-21.789569
1038.717350	-21.772800
1039.077368	-21.727070
1039.437636	-21.724258
1039.798154	-21.607182
1040.158922	-21.670862
1040.519940	-21.683935
1040.881209	-21.582762
1041.242729	-21.603007
1041.604501	-21.525400
1041.966524	-21.545198
1042.328798	-21.581764
1042.691325	-21.469043
1043.054103	-21.476518
1043.417135	-21.423318
1043.780419	-21.419940
1044.143956	-21.467798
1044.507746	-21.330443
1044.871791	-21.329816
1045.236088	-21.329238
1045.600641	-21.290963
1045.965447	-21.328740
1046.330508	-21.196981
1046.695824	-21.175460
1047.061395	-21.202198
1047.427222	-21.133608
1047.793304	-21.154415
1048.159642	-21.043939
1048.526237	-21.011308
1048.893088	-21.065325
1049.260196	-20.973715
1049.627561	-20.963958
1049.995183	-20.883285
1050.363063	-20.841052
1050.731201	-20.896796
1051.099597	-20.794796
1051.468251	-20.773165
1051.837164	-20.731468
1052.206336	-20.686035
1052.575767	-20.733021
1052.945458	-20.621253
1053.315409	-20.586583
1053.685619	-20.579599
1054.056090	-20.528515
1054.426821	-20.556996
1054.797814	-20.459269
1055.169067	-20.432715
1055.540582	-20.446041
1055.912359	-20.391386
1056.284398	-20.401576
1056.656698	-20.309070
1057.029262	-20.299095
1057.402088	-20.327430
1057.775177	-20.260259
1058.148530	-20.271095
1058.522146	-20.203507
1058.896027	-20.206047
1059.270171	-20.231325
1059.644580	-20.145580
1060.019254	-20.161980
1060.394193	-20.111592
1060.769397	-20.114398
1061.144867	-20.142500
1061.520602	-20.049038
1061.896604	-20.071881
1062.272872	-20.047074
1062.649407	-20.041309
1063.026210	-20.042600
1063.403279	-19.952368
1063.780616	-19.997454
1064.158221	-19.979453
1064.536094	-19.963586
1064.914235	-19.955226
1065.292645	-19.879775
1065.671325	-19.938852
1066.050273	-19.897875
1066.429491	-19.860368
1066.808979	-19.853281
1067.188738	-19.796159
1067.568766	-19.853439
1067.949066	-19.784763
1068.329636	-19.746542
1068.710478	-19.748103
1069.091592	-19.692488
1069.472977	-19.725176
1069.854635	-19.630332
1070.236565	-19.614344
1070.618768	-19.632818
1071.001243	-19.573109
1071.383993	-19.579714
1071.767016	-19.485264
1072.150313	-19.507896
1072.533884	-19.501943
1072.917730	-19.412090
1073.301850	-19.426985
1073.686246	-19.356893
1074.070917	-19.388740
1074.455864	-19.347317
1074.841087	-19.258447
1075.226586	-19.285484
1075.612362	-19.219750
1075.998415	-19.232822
1076.384745	-19.163578
1076.771353	-19.119093
1077.158238	-19.158815
1077.545401	-19.081616
1077.932843	-19.087347
1078.320564	-19.024011
1078.708564	-19.019637
1079.096842	-19.030245
1079.485401	-18.957320
1079.874240	-18.984631
1080.263358	-18.928420
1080.652757	-18.958356
1081.042438	-18.931497
1081.432399	-18.859802
1081.822641	-18.906136
1082.213166	-18.854028
1082.603972	-18.871516
1082.995061	-18.813117
1083.386433	-18.806021
1083.778087	-18.842667
1084.170025	-18.751477
1084.562246	-18.774490
1084.954751	-18.729032
1085.347541	-18.748664
1085.740615	-18.733045
1086.133973	-18.674737
1086.527617	-18.726046
1086.921546	-18.667076
1087.315761	-18.693974
1087.710262	-18.646114
1088.105050	-18.630405
1088.500124	-18.665568
1088.895485	-18.603189
1089.291134	-18.630817
1089.687070	-18.564356
1090.083294	-18.589849
1090.479806	-18.557101
1090.876607	-18.486686
1091.273696	-18.516307
1091.671075	-18.450195
1092.068744	-18.459444
1092.466702	-18.384071
1092.864950	-18.375779
1093.263489	-18.346948
1093.662319	-18.281448
1094.061440	-18.301128
1094.460852	-18.204129
1094.860555	-18.240791
1095.260551	-18.194925
1095.660840	-18.150701
1096.061421	-18.143700
1096.462295	-18.104117
1096.863462	-18.125374
1097.264923	-18.028001
1097.666678	-18.076550
1098.068727	-18.038637
1098.471071	-17.993572
1098.873710	-17.998054
1099.276644	-17.933691
1099.679874	-17.953436
1100.083400	-17.872369
1100.487222	-17.885977
1100.891340	-17.828687
1101.295756	-17.806803
1101.700468	-17.792683
1102.105478	-17.700905
1102.510787	-17.736499
1102.916393	-17.661837
1103.322298	-17.665236
1103.728502	-17.620059
1104.135005	-17.618644
1104.541807	-17.613053
1104.948909	-17.554019
1105.356312	-17.596283
1105.764015	-17.545474
1106.172019	-17.597936
1106.580324	-17.549675
1106.988931	-17.573637
1107.397840	-17.595421
1107.807051	-17.553072
1108.216564	-17.592957
1108.626380	-17.548182
1109.036500	-17.608774
1109.446923	-17.546539
1109.857649	-17.561897
1110.268680	-17.548521
1110.680016	-17.511290
1111.091657	-17.507939
1111.503602	-17.437344
1111.915854	-17.474801
1112.328411	-17.383092
1112.741275	-17.384208
1113.154445	-17.323286
1113.567922	-17.297968
1113.981706	-17.266639
1114.395798	-17.197613
1114.810198	-17.221387
1115.224906	-17.148028
1115.639923	-17.155235
1116.055249	-17.086674
1116.470884	-17.111578
1116.886829	-17.066102
1117.303084	-17.044683
1117.719650	-17.067206
1118.136526	-17.023103
1118.553713	-17.047765
1118.971212	-16.985372
1119.389022	-17.028001
1119.807145	-16.978983
1120.225580	-16.986303
1120.644328	-16.960220
1121.063389	-16.952738
1121.482763	-16.936237
1121.902452	-16.866169
1122.322454	-16.893916
1122.742771	-16.816703
1123.163404	-16.818267
1123.584351	-16.746862
1124.005614	-16.744890
1124.427193	-16.677984
1124.849089	-16.633285
1125.271301	-16.610809
1125.693830	-16.560673
1126.116677	-16.546734
1126.539842	-16.472858
1126.963324	-16.497671
1127.387126	-16.418906
1127.811246	-16.424627
1128.235685	-16.390887
1128.660444	-16.403720
1129.085522	-16.376925
1129.510922	-16.365096
1129.936641	-16.391506
1130.362682	-16.354206
1130.789044	-16.392348
1131.215728	-16.368468
1131.642734	-16.425302
1132.070063	-16.382023
1132.497714	-16.420443
1132.925689	-16.413414
1133.353987	-16.422462
1133.782610	-16.421715
1134.211556	-16.424405
1134.640827	-16.436944
1135.070424	-16.390823
1135.500345	-16.410001
1135.930593	-16.362784
1136.361166	-16.373208
1136.792067	-16.308246
1137.223294	-16.322848
1137.654848	-16.252855
1138.086730	-16.226381
1138.518940	-16.179389
1138.951479	-16.146191
1139.384346	-16.102700
1139.817543	-16.046460
1140.251069	-16.029458
1140.684925	-15.951242
1141.119111	-15.933602
1141.553628	-15.869115
1141.988475	-15.869474
1142.423655	-15.791508
1142.859166	-15.792582
1143.295009	-15.737557
1143.731185	-15.721842
1144.167694	-15.687401
1144.604536	-15.681814
1145.041711	-15.665139
1145.479221	-15.631133
1145.917065	-15.641886
1146.355245	-15.609781
1146.793759	-15.623154
1147.232609	-15.597527
1147.671795	-15.631610
1148.111317	-15.588719
1148.551177	-15.614010
1148.991373	-15.595983
1149.431907	-15.615679
1149.872779	-15.596474
1150.313989	-15.618833
1150.755538	-15.604946
1151.197426	-15.596224
1151.639653	-15.601335
1152.082220	-15.596593
1152.525128	-15.592712
1152.968376	-15.575154
1153.411966	-15.582471
1153.855897	-15.540484
1154.300169	-15.544782
1154.744784	-15.517367
1155.189742	-15.516158
1155.635042	-15.465033
1156.080687	-15.471299
1156.526674	-15.414460
1156.973007	-15.406997
1157.419683	-15.364492
1157.866705	-15.357811
1158.314072	-15.296529
1158.761786	-15.282770
1159.209845	-15.239516
1159.658251	-15.210211
1160.107004	-15.179649
1160.556104	-15.153856
1161.005553	-15.116494
1161.455349	-15.076045
1161.905494	-15.064945
1162.355989	-15.021667
1162.806832	-15.011613
1163.258026	-14.976348
1163.709570	-14.965159
1164.161464	-14.919406
1164.613710	-14.930351
1165.066307	-14.893494
1165.519256	-14.898434
1165.972558	-14.865510
1166.426212	-14.873962
1166.880219	-14.835291
1167.334580	-14.858499
1167.789295	-14.832170
1168.244364	-14.841363
1168.699788	-14.815438
1169.155567	-14.831307
1169.611702	-14.802128
1170.068193	-14.823184
1170.525041	-14.805662
1170.982245	-14.807769
1171.439807	-14.787670
1171.897726	-14.796993
1172.356004	-14.776788
1172.814640	-14.783169
1173.273635	-14.768734
1173.732989	-14.756444
1174.192703	-14.740463
1174.652778	-14.738501
1175.113213	-14.722139
1175.574009	-14.709762
1176.035167	-14.696937
1176.496687	-14.672450
1176.958569	-14.660583
1177.420814	-14.646806
1177.883422	-14.630940
1178.346394	-14.604193
1178.809730	-14.592664
1179.273430	-14.560549
1179.737496	-14.549765
1180.201927	-14.527959
1180.666723	-14.509221
1181.131886	-14.474315
1181.597416	-14.462826
1182.063312	-14.430212
1182.529576	-14.418193
1182.996209	-14.390309
1183.463209	-14.367814
1183.930579	-14.332784
1184.398317	-14.323794
1184.866426	-14.291124
1185.334904	-14.277267
1185.803754	-14.244460
1186.272974	-14.226295
1186.742566	-14.194242
1187.212529	-14.190720
1187.682865	-14.153896
1188.153574	-14.146114
1188.624656	-14.110944
1189.096112	-14.104432
1189.567942	-14.074916
1190.040147	-14.078271
1190.512726	-14.038006
1190.985681	-14.040810
1191.459012	-14.007869
1191.932720	-14.013003
1192.406804	-13.986662
1192.881265	-13.990874
1193.356104	-13.955270
1193.831322	-13.965219
1194.306918	-13.941722
1194.782893	-13.946887
1195.259248	-13.926392
1195.735982	-13.924944
1196.213097	-13.905729
1196.690593	-13.913254
1197.168471	-13.899593
1197.646730	-13.895951
1198.125371	-13.884423
1198.604395	-13.878664
1199.083803	-13.875264
1199.563594	-13.874654
1200.043769	-13.861182
1200.524329	-13.855536
1201.005273	-13.850424
1201.486604	-13.843682
1201.968320	-13.844656
1202.450422	-13.829349
1202.932912	-13.825860
1203.415789	-13.808890
1203.899054	-13.822070
1204.382707	-13.789969
1204.866748	-13.809219
1205.351179	-13.760184
1205.836000	-13.791922
1206.321211	-13.743008
1206.806812	-13.774584
1207.292805	-13.714434
1207.779189	-13.743935
1208.265965	-13.689280
1208.753134	-13.717534
1209.240696	-13.667985
1209.728651	-13.673442
1210.217000	-13.636189
1210.705744	-13.636452
1211.194883	-13.607382
1211.684417	-13.599599
1212.174347	-13.561684
1212.664673	-13.554919
1213.155396	-13.524996
1213.646516	-13.517820
1214.138034	-13.479335
1214.629951	-13.466795
1215.122266	-13.434617
1215.614980	-13.423021
1216.108095	-13.401184
1216.601609	-13.362074
1217.095524	-13.362595
1217.589841	-13.305768
1218.084559	-13.334784
1218.579679	-13.256435
1219.075202	-13.288510
1219.571128	-13.210690
1220.067458	-13.246187
1220.564191	-13.186648
1221.061330	-13.189924
1221.558874	-13.161162
1222.056823	-13.132004
1222.555178	-13.153733
1223.053940	-13.084278
1223.553109	-13.128555
1224.052686	-13.044799
1224.552671	-13.097817
1225.053065	-13.038839
1225.553867	-13.048028
1226.055079	-13.035138
1226.556702	-12.993202
1227.058735	-13.049278
1227.561179	-12.950682
1228.064035	-13.043054
1228.567303	-12.916687
1229.070983	-13.026583
1229.575077	-12.920488
1230.079585	-12.983084
1230.584506	-12.930918
1231.089842	-12.927666
1231.595594	-12.962938
1232.101761	-12.880555
1232.608345	-12.971385
1233.115345	-12.843838
1233.622762	-12.967893
1234.130597	-12.843368
1234.638851	-12.934541
1235.147523	-12.846678
1235.656615	-12.892165
1236.166126	-12.872745
1236.676058	-12.849190
1237.186411	-12.878808
1237.697185	-12.810547
1238.208381	-12.886893
1238.719999	-12.795439
1239.232040	-12.863852
1239.744505	-12.784996
1240.257394	-12.837030
1240.770708	-12.796912
1241.284446	-12.798308
1241.798610	-12.791142
1242.313201	-12.767299
1242.828218	-12.794494
1243.343662	-12.743502
1243.859534	-12.770493
1244.375834	-12.723088
1244.892563	-12.754960
1245.409721	-12.714369
1245.927309	-12.717585
1246.445327	-12.696383
1246.963777	-12.693478
1247.482657	-12.687697
1248.001970	-12.658542
1248.521716	-12.659014
1249.041894	-12.636129
1249.562506	-12.642482
1250.083553	-12.607954
1250.605034	-12.603691
1251.126950	-12.586158
1251.649302	-12.582294
1252.172091	-12.560283
1252.695316	-12.542292
1253.218979	-12.531989
1253.743079	-12.523456
1254.267619	-12.505683
1254.792597	-12.483692
1255.318015	-12.476999
1255.843874	-12.462379
1256.370173	-12.455559
1256.896913	-12.423959
1257.424095	-12.424479
1257.951720	-12.408570
1258.479787	-12.400326
1259.008298	-12.379566
1259.537254	-12.364849
1260.066654	-12.370141
1260.596499	-12.343723
1261.126790	-12.342061
1261.657527	-12.316560
1262.188711	-12.326569
1262.720342	-12.309361
1263.252422	-12.291789
1263.784950	-12.292738
1264.317928	-12.275394
1264.851355	-12.286785
1265.385232	-12.250987
1265.919560	-12.260520
1266.454340	-12.250771
1266.989572	-12.244049
1267.525256	-12.237200
1268.061394	-12.215793
1268.597985	-12.237479
1269.135031	-12.207708
1269.672531	-12.212814
1270.210487	-12.195499
1270.748899	-12.201011
1271.287768	-12.198126
1271.827094	-12.171344
1272.366877	-12.187021
1272.907119	-12.167480
1273.447820	-12.178042
1273.988981	-12.151139
1274.530601	-12.155443
1275.072683	-12.159622
1275.615226	-12.139274
1276.158230	-12.143184
1276.701697	-12.124917
1277.245627	-12.142525
1277.790021	-12.119217
1278.334879	-12.114199
1278.880202	-12.117089
1279.425991	-12.108833
1279.972245	-12.108670
1280.518966	-12.085778
1281.066155	-12.100776
1281.613811	-12.089996
1282.161936	-12.079159
1282.710529	-12.074790
1283.259593	-12.070685
1283.809126	-12.074931
1284.359131	-12.050324
1284.909607	-12.053476
1285.460555	-12.051958
1286.011976	-12.041865
1286.563870	-12.032388
1287.116237	-12.021786
1287.669080	-12.031382
1288.222397	-12.010055
1288.776191	-12.002077
1289.330460	-12.000431
1289.885207	-11.994127
1290.440431	-11.984761
1290.996133	-11.965151
1291.552314	-11.975068
1292.108975	-11.959942
1292.666115	-11.946760
1293.223737	-11.939906
1293.781839	-11.936373
1294.340424	-11.930662
1294.899491	-11.906774
1295.459041	-11.911667
1296.019075	-11.904344
1296.579593	-11.890112
1297.140597	-11.879923
1297.702086	-11.875981
1298.264061	-11.875880
1298.826524	-11.851978
1299.389474	-11.850780
1299.952912	-11.851014
1300.516839	-11.836412
1301.081255	-11.827209
1301.646162	-11.820081
1302.211559	-11.825383
1302.777448	-11.804811
1303.343829	-11.797003
1303.910702	-11.803840
1304.478069	-11.789397
1305.045930	-11.781765
1305.614285	-11.773557
1306.183136	-11.779751
1306.752483	-11.766454
1307.322326	-11.751220
1307.892666	-11.763640
1308.463504	-11.751190
1309.034841	-11.741730
1309.606677	-11.738461
1310.179012	-11.739716
1310.751849	-11.735479
1311.325186	-11.715868
1311.899025	-11.728872
1312.473366	-11.724517
1313.048211	-11.706905
1313.623559	-11.713432
1314.199412	-11.710856
1314.775770	-11.708659
1315.352634	-11.695658
1315.930004	-11.700680
1316.507881	-11.708761
1317.086266	-11.684923
1317.665159	-11.695253
1318.244562	-11.700085
1318.824474	-11.687994
1319.404897	-11.689310
1319.985831	-11.689196
1320.567276	-11.697334
1321.149234	-11.683482
1321.731706	-11.683916
1322.314691	-11.702302
1322.898190	-11.681662
1323.482205	-11.685678
1324.066736	-11.697550
1324.651783	-11.687654
1325.237347	-11.689579
1325.823430	-11.687838
1326.410031	-11.698280
1326.997151	-11.690237
1327.584791	-11.682247
1328.172952	-11.705129
1328.761634	-11.689813
1329.350839	-11.683841
1329.940566	-11.703677
1330.530817	-11.690830
1331.121592	-11.691256
1331.712891	-11.694863
1332.304716	-11.697031
1332.897068	-11.697780
1333.489946	-11.686767
1334.083352	-11.704742
1334.677287	-11.701423
1335.271750	-11.685046
1335.866744	-11.710534
1336.462268	-11.702212
1337.058323	-11.691524
1337.654910	-11.710725
1338.252029	-11.703584
1338.849682	-11.702530
1339.447869	-11.706262
1340.046591	-11.707338
1340.645848	-11.712583
1341.245641	-11.700270
1341.845972	-11.712995
1342.446840	-11.718180
1343.048246	-11.696989
1343.650191	-11.718079
1344.252677	-11.718537
1344.855702	-11.698328
1345.459269	-11.719967
1346.063379	-11.715992
1346.668030	-11.704065
1347.273226	-11.717637
1347.878965	-11.712743
1348.485250	-11.711585
1349.092080	-11.712022
1349.699456	-11.711340
1350.307380	-11.718029
1350.915851	-11.705346
1351.524871	-11.711921
1352.134441	-11.721794
1352.744560	-11.700091
1353.355231	-11.714439
1353.966453	-11.722160
1354.578227	-11.698208
1355.190555	-11.717238
1355.803436	-11.720529
1356.416872	-11.699935
1357.030863	-11.719828
1357.645411	-11.718266
1358.260515	-11.705406
1358.876177	-11.721187
1359.492397	-11.717309
1360.109176	-11.713008
1360.726516	-11.721926
1361.344416	-11.718588
1361.962877	-11.721925
1362.581901	-11.722375
1363.201487	-11.722871
1363.821637	-11.731090
1364.442352	-11.723843
1365.063632	-11.729766
1365.685478	-11.740198
1366.307891	-11.726778
1366.930871	-11.739115
1367.554420	-11.748852
1368.178538	-11.732003
1368.803226	-11.750138
1369.428485	-11.757640
1370.054315	-11.739545
1370.680717	-11.762512
1371.307693	-11.766583
1371.935242	-11.749633
1372.563366	-11.775896
1373.192065	-11.776415
1373.821341	-11.762303
1374.451193	-11.790425
1375.081623	-11.787948
1375.712632	-11.777496
1376.344221	-11.806626
1376.976389	-11.801491
1377.609139	-11.795505
1378.242470	-11.824454
1378.876384	-11.817559
1379.510881	-11.815731
1380.145963	-11.844231
1380.781629	-11.835628
1381.417881	-11.838064
1382.054720	-11.865274
1382.692147	-11.855834
1383.330161	-11.862104
1383.968765	-11.888373
1384.607959	-11.878470
1385.247743	-11.888728
1385.888119	-11.914229
1386.529087	-11.904065
1387.170648	-11.918234
1387.812804	-11.942531
1388.455554	-11.932248
1389.098899	-11.949851
1389.742842	-11.972793
1390.387381	-11.962304
1391.032519	-11.983315
1391.678256	-12.004477
1392.324592	-11.994157
1392.971529	-12.018198
1393.619068	-12.037216
1394.267208	-12.027442
1394.915952	-12.054059
1395.565300	-12.070799
1396.215253	-12.062530
1396.865812	-12.091893
1397.516977	-12.106582
1398.168749	-12.101527
1398.821130	-12.132573
1399.474120	-12.145539
1400.127719	-12.144192
1400.781930	-12.175434
1401.436752	-12.186649
1402.092186	-12.189739
1402.748234	-12.219107
1403.404897	-12.229923
1404.062174	-12.237835
1404.720067	-12.263947
1405.378577	-12.275761
1406.037705	-12.288246
1406.697451	-12.309069
1407.357817	-12.323360
1408.018803	-12.338947
1408.680410	-12.353306
1409.342639	-12.371965
1410.005492	-12.389274
1410.668968	-12.398246
1411.333068	-12.423217
1411.997795	-12.440853
1412.663147	-12.446460
1413.329127	-12.477589
1413.995736	-12.493240
1414.662973	-12.497865
1415.330840	-12.532294
1415.999339	-12.544852
1416.668469	-12.551561
1417.338232	-12.586174
1418.008628	-12.597312
1418.679659	-12.609895
1419.351325	-12.640814
1420.023628	-12.653944
1420.696568	-12.672909
1421.370145	-12.695536
1422.044362	-12.713335
1422.719219	-12.735171
1423.394717	-12.747659
1424.070856	-12.772197
1424.747638	-12.793717
1425.425064	-12.800036
1426.103134	-12.833143
1426.781850	-12.852284
1427.461212	-12.860629
1428.141221	-12.898054
1428.821878	-12.914039
1429.503185	-12.928819
1430.185141	-12.960692
1430.867749	-12.974363
1431.551008	-12.995596
1432.234920	-13.014479
1432.919486	-13.032199
1433.604707	-13.058083
1434.290583	-13.067219
1434.977116	-13.096802
1435.664307	-13.124461
1436.352156	-13.134243
1437.040664	-13.174210
1437.729833	-13.198045
1438.419663	-13.215752
1439.110156	-13.251467
1439.801312	-13.268683
1440.493132	-13.293821
1441.185617	-13.312722
1441.878768	-13.330470
1442.572586	-13.359949
1443.267072	-13.367690
1443.962228	-13.398436
1444.658053	-13.430117
1445.354549	-13.445402
1446.051717	-13.489327
1446.749558	-13.520147
1447.448073	-13.552754
1448.147263	-13.591462
1448.847128	-13.618026
1449.547671	-13.657756
1450.248891	-13.673867
1450.950789	-13.697735
1451.653368	-13.727806
1452.356627	-13.731167
1453.060568	-13.758751
1453.765192	-13.779219
1454.470500	-13.800057
1455.176492	-13.834899
1455.883170	-13.863028
1456.590534	-13.915918
1457.298586	-13.953612
1458.007327	-14.000348
1458.716758	-14.062022
1459.426880	-14.095815
1460.137693	-14.144998
1460.849199	-14.178801
1461.561398	-14.206147
1462.274293	-14.229745
1462.987883	-14.232370
1463.702170	-14.256322
1464.417155	-14.256568
1465.132838	-14.266032
1465.849222	-14.294175
1466.566306	-14.314232
1467.284093	-14.363410
1468.002582	-14.409546
1468.721775	-14.485532
1469.441674	-14.567366
1470.162278	-14.644907
1470.883590	-14.754314
1471.605609	-14.839618
1472.328338	-14.934427
1473.051777	-15.012835
1473.775928	-15.080401
1474.500790	-15.144686
1475.226367	-15.167106
1475.952657	-15.208138
1476.679663	-15.222073
1477.407386	-15.236360
1478.135826	-15.257668
1478.864985	-15.277702
1479.594863	-15.335443
1480.325463	-15.381088
1481.056784	-15.477574
1481.788828	-15.590516
1482.521597	-15.726675
1483.255090	-15.897919
1483.989309	-16.072386
1484.724256	-16.292527
1485.459931	-16.481599
1486.196336	-16.686201
1486.933471	-16.863673
1487.671337	-16.996273
1488.409937	-17.091442
1489.149270	-17.096328
1489.889337	-17.075160
1490.630141	-16.957178
1491.371682	-16.802662
1492.113961	-16.606797
1492.856979	-16.381018
1493.600738	-16.162134
1494.345238	-15.914613
1495.090481	-15.714779
1495.836467	-15.506263
1496.583198	-15.338025
1497.330675	-15.184138
1498.078899	-15.061844
1498.827872	-14.976942
1499.577593	-14.895620
1500.328065	-14.867011
1501.079289	-14.837005
1501.831265	-14.852437
1502.583995	-14.857536
1503.337480	-14.887558
1504.091721	-14.913978
1504.846719	-14.919084
1505.602475	-14.909452
1506.358991	-14.837190
1507.116268	-14.738180
1507.874306	-14.542629
1508.633108	-14.299878
1509.392673	-13.975187
1510.153004	-13.606118
1510.914101	-13.193185
1511.675965	-12.749752
1512.438599	-12.316831
1513.202002	-11.880057
1513.966176	-11.486335
1514.731122	-11.109876
1515.496842	-10.800319
1516.263336	-10.530244
1517.030607	-10.331882
1517.798654	-10.190485
1518.567479	-10.127796
1519.337083	-10.141725
1520.107468	-10.235272
1520.878634	-10.425634
1521.650584	-10.708489
1522.423317	-11.116366
1523.196836	-11.634939
1523.971141	-12.320966
1524.746233	-13.168789
1525.522115	-14.266536
1526.298786	-15.636553
1527.076249	-17.460277
1527.854504	-19.926891
1528.633553	-23.683689
1529.413397	-30.646760
1530.194037	-37.166111
1530.975474	-25.861973
1531.757709	-20.850067
1532.540745	-17.650237
1533.324581	-15.325747
1534.109220	-13.495555
1534.894662	-12.021918
1535.680909	-10.784680
1536.467961	-9.752775
1537.255821	-8.861847
1538.044489	-8.112892
1538.833967	-7.464997
1539.624256	-6.926489
1540.415357	-6.466005
1541.207271	-6.096035
1542.000000	-5.793580
1542.793545	-5.569876
1543.587907	-5.405227
1544.383087	-5.310435
1545.179088	-5.270980
1545.975909	-5.294917
1546.773552	-5.369303
1547.572019	-5.500332
1548.371311	-5.679112
1549.171428	-5.909337
1549.972373	-6.182941
1550.774147	-6.501202
1551.576751	-6.860133
1552.380185	-7.259166
1553.184453	-7.695524
1553.989554	-8.166010
1554.795490	-8.672631
1555.602263	-9.211110
1556.409873	-9.785642
1557.218322	-10.387320
1558.027612	-11.025021
1558.837743	-11.685984
1559.648717	-12.380350
1560.460536	-13.082836
1561.273200	-13.802758
1562.086710	-14.500038
1562.901069	-15.180723
1563.716278	-15.781250
1564.532337	-16.306723
1565.349249	-16.686886
1566.167014	-16.951457
1566.985634	-17.050839
1567.805111	-17.048089
1568.625444	-16.920806
1569.446637	-16.747086
1570.268690	-16.512549
1571.091605	-16.280428
1571.915382	-16.027030
1572.740024	-15.799980
1573.565532	-15.572024
1574.391907	-15.380297
1575.219150	-15.192369
1576.047262	-15.037724
1576.876246	-14.885057
1577.706103	-14.762847
1578.536833	-14.638810
1579.368439	-14.538537
1580.200922	-14.430350
1581.034282	-14.342913
1581.868522	-14.246657
1582.703643	-14.169356
1583.539646	-14.082101
1584.376532	-14.014285
1585.214304	-13.941220
1586.052962	-13.891627
1586.892508	-13.840130
1587.732943	-13.813607
1588.574269	-13.789880
1589.416487	-13.794864
1590.259599	-13.807085
1591.103605	-13.847437
1591.948508	-13.896486
1592.794309	-13.973897
1593.641009	-14.063133
1594.488609	-14.178913
1595.337112	-14.305784
1596.186518	-14.454689
1597.036829	-14.615548
1597.888047	-14.795158
1598.740172	-14.986290
1599.593207	-15.188844
1600.447153	-15.401223
1601.302010	-15.619142
1602.157782	-15.847086
1603.014469	-16.071834
1603.872072	-16.303390
1604.730593	-16.521818
1605.590034	-16.745952
1606.450397	-16.948981
1607.311681	-17.154969
1608.173890	-17.329575
1609.037024	-17.503499
1609.901085	-17.640748
1610.766075	-17.775891
1611.631995	-17.871763
1612.498846	-17.961677
1613.366630	-18.014189
1614.235349	-18.059570
1615.105004	-18.075567
1615.975596	-18.081766
1616.847128	-18.067293
1617.719600	-18.039683
1618.593014	-18.003707
1619.467372	-17.952736
1620.342675	-17.903941
1621.218924	-17.836585
1622.096122	-17.778967
1622.974270	-17.701900
1623.853369	-17.640550
1624.733420	-17.560549
1625.614427	-17.495764
1626.496389	-17.413944
1627.379308	-17.343369
1628.263187	-17.261086
1629.148026	-17.182569
1630.033828	-17.097025
1630.920593	-17.004481
1631.808324	-16.910335
1632.697022	-16.801401
1633.586688	-16.696928
1634.477324	-16.573176
1635.368932	-16.455828
1636.261514	-16.319191
1637.155070	-16.189226
1638.049602	-16.046515
1638.945113	-15.908247
1639.841603	-15.766438
1640.739075	-15.625131
1641.637529	-15.490608
1642.536968	-15.353800
1643.437393	-15.231602
1644.338806	-15.105454
1645.241209	-14.995773
1646.144602	-14.882997
1647.048988	-14.783512
1647.954368	-14.685061
1648.860744	-14.592468
1649.768118	-14.505760
1650.676491	-14.416671
1651.585865	-14.337495
1652.496241	-14.251069
1653.407621	-14.174845
1654.320008	-14.091617
1655.233401	-14.014528
1656.147804	-13.936422
1657.063218	-13.859194
1657.979645	-13.789396
1658.897085	-13.715894
1659.815542	-13.654135
1660.735016	-13.587577
1661.655509	-13.531158
1662.577023	-13.474426
1663.499560	-13.421583
1664.423121	-13.374923
1665.347709	-13.325377
1666.273324	-13.285996
1667.199969	-13.241204
1668.127645	-13.204445
1669.056353	-13.165089
1669.986097	-13.126760
1670.916877	-13.092039
1671.848695	-13.052517
1672.781553	-13.021324
1673.715452	-12.984925
1674.650395	-12.955235
1675.586383	-12.925060
1676.523418	-12.895338
1677.461501	-12.871357
1678.400635	-12.842736
1679.340821	-12.821926
1680.282061	-12.797046
1681.224357	-12.776167
1682.167710	-12.757112
1683.112122	-12.735866
1684.057595	-12.721383
1685.004132	-12.701460
1685.951732	-12.686939
1686.900400	-12.670561
1687.850135	-12.653850
1688.800940	-12.642149
1689.752818	-12.625884
1690.705768	-12.616675
1691.659795	-12.605034
1692.614898	-12.595577
1693.571081	-12.590026
1694.528345	-12.580396
1695.486691	-12.577208
1696.446122	-12.569771
1697.406640	-12.564247
1698.368245	-12.560935
1699.330941	-12.553734
1700.294729	-12.552973
1701.259611	-12.548494
1702.225588	-12.546572
1703.192664	-12.546946
1704.160838	-12.543719
1705.130114	-12.546376
1706.100493	-12.545388
1707.071977	-12.546143
1708.044568	-12.549115
1709.018268	-12.548094
1709.993079	-12.552234
1710.969003	-12.553552
1711.946041	-12.555692
1712.924196	-12.560898
1713.903469	-12.562136
1714.883862	-12.567877
1715.865378	-12.571923
1716.848017	-12.575354
1717.831783	-12.582432
1718.816677	-12.585266
1719.802701	-12.591206
1720.789857	-12.596686
1721.778147	-12.599947
1722.767573	-12.607343
1723.758136	-12.611258
1724.749840	-12.616661
1725.742685	-12.623410
1726.736673	-12.626798
1727.731808	-12.634232
1728.728090	-12.639954
1729.725521	-12.645207
1730.724105	-12.653539
1731.723842	-12.658040
1732.724735	-12.664892
1733.726785	-12.672248
1734.729995	-12.677211
1735.734366	-12.686306
1736.739902	-12.693494
1737.746603	-12.701130
1738.754472	-12.712107
1739.763510	-12.720148
1740.773721	-12.730955
1741.785105	-12.742315
1742.797665	-12.751182
1743.811403	-12.763811
1744.826321	-12.774795
1745.842422	-12.785496
1746.859706	-12.799325
1747.878177	-12.809900
1748.897835	-12.821869
1749.918685	-12.834962
1750.940726	-12.844901
1751.963963	-12.857853
1752.988395	-12.870154
1754.014027	-12.880445
1755.040860	-12.893852
1756.068895	-12.904694
1757.098135	-12.914985
1758.128583	-12.927759
1759.160240	-12.937404
1760.193109	-12.948216
1761.227191	-12.960553
1762.262488	-12.970055
1763.299004	-12.982260
1764.336740	-12.995028
1765.375697	-13.005730
1766.415880	-13.019695
1767.457288	-13.033078
1768.499926	-13.045372
1769.543794	-13.060891
1770.588895	-13.074643
1771.635231	-13.087913
1772.682805	-13.103872
1773.731619	-13.117716
1774.781674	-13.132292
1775.832973	-13.149352
1776.885519	-13.164140
1777.939312	-13.179991
1778.994357	-13.197176
1780.050654	-13.211734
1781.108207	-13.227853
1782.167017	-13.244943
1783.227087	-13.259882
1784.288418	-13.276694
1785.351013	-13.293731
1786.414875	-13.308467
1787.480006	-13.324756
1788.546407	-13.340590
1789.614082	-13.354539
1790.683032	-13.370352
1791.753259	-13.385656
1792.824767	-13.399183
1793.897557	-13.414061
1794.971632	-13.427776
1796.046994	-13.440041
1797.123645	-13.454266
1798.201588	-13.468110
1799.280824	-13.481329
1800.361357	-13.496202
1801.443188	-13.509969
1802.526320	-13.522483
1803.610756	-13.536374
1804.696497	-13.549586
1805.783546	-13.562403
1806.871906	-13.577196
1807.961578	-13.591612
1809.052565	-13.605385
1810.144870	-13.620506
1811.238494	-13.634701
1812.333441	-13.647862
1813.429713	-13.662071
1814.527311	-13.675517
1815.626239	-13.688244
1816.726499	-13.702367
1817.828094	-13.716173
1818.931025	-13.729278
1820.035295	-13.743636
1821.140906	-13.757773
1822.247862	-13.770838
1823.356165	-13.784524
1824.465816	-13.797456
1825.576819	-13.808687
1826.689175	-13.820452
1827.802888	-13.832396
1828.917960	-13.843498
1830.034394	-13.855775
1831.152191	-13.868881
1832.271354	-13.880768
1833.391887	-13.892584
1834.513790	-13.904470
1835.637068	-13.914768
1836.761722	-13.924866
1837.887755	-13.935803
1839.015169	-13.945921
1840.143968	-13.955508
1841.274153	-13.965576
1842.405727	-13.974485
1843.538693	-13.981573
1844.673053	-13.988434
1845.808810	-13.994787
1846.945966	-13.999742
1848.084525	-14.004757
1849.224488	-14.009903
1850.365858	-14.013476
1851.508638	-14.016387
1852.652831	-14.019795
1853.798438	-14.022206
1854.945463	-14.023590
1856.093909	-14.025235
1857.243777	-14.026171
1858.395071	-14.025729
1859.547794	-14.025688
1860.701947	-14.026041
1861.857533	-14.025617
1863.014556	-14.025190
1864.173018	-14.025014
1865.332922	-14.023555
1866.494270	-14.021009
1867.657065	-14.018900
1868.821309	-14.017018
1869.987006	-14.014767
1871.154158	-14.013283
1872.322768	-14.012286
1873.492839	-14.009965
1874.664373	-14.006862
1875.837373	-14.004227
1877.011841	-14.001153
1878.187782	-13.997343
1879.365197	-13.993975
1880.544089	-13.990095
1881.724460	-13.984647
1882.906315	-13.979466
1884.089655	-13.975056
1885.274483	-13.969667
1886.460803	-13.963590
1887.648616	-13.957597
1888.837927	-13.950411
1890.028736	-13.942414
1891.221049	-13.935240
1892.414866	-13.928126
1893.610192	-13.919617
1894.807028	-13.910099
1896.005379	-13.899688
1897.205246	-13.888005
1898.406633	-13.875841
1899.609542	-13.863626
1900.813977	-13.851080
1902.019940	-13.838147
1903.227434	-13.824519
1904.436462	-13.809720
1905.647028	-13.794759
1906.859133	-13.780168
1908.072781	-13.764989
1909.287976	-13.749368
1910.504719	-13.734169
1911.723013	-13.718608
1912.942863	-13.702334
1914.164270	-13.687156
1915.387238	-13.672827
1916.611770	-13.656914
1917.837868	-13.640023
1919.065536	-13.624126
1920.294777	-13.608302
1921.525594	-13.591513
1922.757989	-13.575703
1923.991967	-13.561220
1925.227529	-13.545458
1926.464679	-13.528121
1927.703420	-13.511648
1928.943755	-13.496463
1930.185688	-13.481226
1931.429221	-13.466475
1932.674356	-13.453020
1933.921099	-13.439504
1935.169451	-13.424805
1936.419415	-13.410070
1937.670996	-13.396484
1938.924195	-13.383540
1940.179017	-13.370454
1941.435463	-13.357161
1942.693538	-13.343463
1943.953245	-13.329102
1945.214586	-13.314426
1946.477566	-13.300014
1947.742186	-13.285529
1949.008451	-13.270070
1950.276363	-13.253594
1951.545926	-13.237164
1952.817143	-13.221518
1954.090017	-13.206183
1955.364551	-13.190223
1956.640749	-13.173329
1957.918615	-13.155988
1959.198150	-13.138843
1960.479359	-13.122159
1961.762244	-13.105673
1963.046810	-13.088605
1964.333059	-13.070407
1965.620995	-13.051542
1966.910621	-13.033263
1968.201940	-13.016188
1969.494956	-12.999921
1970.789672	-12.983716
1972.086091	-12.967517
1973.384217	-12.951559
1974.684053	-12.936047
1975.985602	-12.921389
1977.288869	-12.907767
1978.593855	-12.894928
1979.900566	-12.882407
1981.209003	-12.870180
1982.519171	-12.858229
1983.831073	-12.846420
1985.144712	-12.834498
1986.460093	-12.822416
1987.777217	-12.810413
1989.096089	-12.798840
1990.416713	-12.787989
1991.739092	-12.777895
1993.063228	-12.768106
1994.389127	-12.758235
1995.716791	-12.748145
1997.046223	-12.737846
1998.377428	-12.727126
1999.710409	-12.715552
2001.045169	-12.702603
2002.381713	-12.688405
2003.720043	-12.673925
2005.060163	-12.659905
2006.402077	-12.646403
2007.745788	-12.633379
2009.091301	-12.620907
2010.438618	-12.608955
2011.787743	-12.597218
2013.138680	-12.585251
2014.491433	-12.572384
2015.846005	-12.557894
2017.202399	-12.541540
2018.560621	-12.523614
2019.920673	-12.504674
2021.282558	-12.485623
2022.646281	-12.467839
2024.011846	-12.452914
2025.379256	-12.441687
2026.748515	-12.434214
2028.119626	-12.430743
2029.492594	-12.431753
2030.867422	-12.436972
2032.244114	-12.445178
2033.622673	-12.455078
2035.003104	-12.465879
2036.385411	-12.476776
2037.769597	-12.486465
2039.155665	-12.493371
2040.543621	-12.496237
2041.933467	-12.494664
2043.325208	-12.488672
2044.718847	-12.478275
2046.114389	-12.463793
2047.511837	-12.445559
2048.911195	-12.424486
2050.312467	-12.402269
2051.715657	-12.380221
2053.120769	-12.359094
2054.527807	-12.339714
2055.936775	-12.323047
2057.347677	-12.310155
2058.760516	-12.301945
2060.175297	-12.298807
2061.592025	-12.300689
2063.010701	-12.307181
2064.431332	-12.318037
2065.853921	-12.333372
2067.278472	-12.352419
2068.704988	-12.373885
2070.133475	-12.397061
2071.563936	-12.422053
2072.996375	-12.448834
2074.430796	-12.476387
2075.867204	-12.503185
2077.305603	-12.528372
2078.745996	-12.551803
2080.188389	-12.573317
2081.632784	-12.591788
2083.079187	-12.606126
2084.527601	-12.615717
2085.978030	-12.620302
2087.430480	-12.619523
2088.884954	-12.612899
2090.341455	-12.600798
2091.799990	-12.584461
2093.260561	-12.565570
2094.723173	-12.545756
2096.187831	-12.526216
2097.654538	-12.508318
2099.123300	-12.494192
2100.594119	-12.485834
2102.067001	-12.483319
2103.541950	-12.485800
2105.018971	-12.493321
2106.498067	-12.506346
2107.979243	-12.524560
2109.462503	-12.545900
2110.947853	-12.568105
2112.435295	-12.590887
2113.924836	-12.614990
2115.416478	-12.640012
2116.910227	-12.664611
2118.406087	-12.688116
2119.904063	-12.710630
2121.404158	-12.732035
2122.906378	-12.751443
2124.410727	-12.768357
2125.917210	-12.783716
2127.425831	-12.798431
2128.936594	-12.811765
2130.449505	-12.823875
2131.964567	-12.836695
2133.481786	-12.851348
2135.001166	-12.867278
2136.522711	-12.883648
2138.046427	-12.900780
2139.572317	-12.919908
2141.100388	-12.941060
2142.630642	-12.962392
2144.163085	-12.982682
2145.697722	-13.003027
2147.234558	-13.025276
2148.773596	-13.049326
2150.314842	-13.073429
2151.858301	-13.096956
2153.403977	-13.121448
2154.951875	-13.147667
2156.502000	-13.174568
2158.054357	-13.201466
2159.608950	-13.228742
2161.165785	-13.256394
2162.724866	-13.283913
2164.286198	-13.311609
2165.849786	-13.340505
2167.415635	-13.370012
2168.983749	-13.399249
2170.554134	-13.428780
2172.126795	-13.459227
2173.701737	-13.490680
2175.278964	-13.521812
2176.858481	-13.551901
2178.440294	-13.582475
2180.024408	-13.614683
2181.610827	-13.647130
2183.199557	-13.677986
2184.790602	-13.708199
2186.383968	-13.739848
2187.979660	-13.772702
2189.577683	-13.805197
2191.178041	-13.837302
2192.780741	-13.870860
2194.385787	-13.906336
2195.993185	-13.943080
2197.602939	-13.981543
2199.215054	-14.021953
2200.829537	-14.063314
2202.446392	-14.105039
2204.065624	-14.148438
2205.687239	-14.193898
2207.311242	-14.240404
2208.937638	-14.287764
2210.566433	-14.337168
2212.197631	-14.387799
2213.831239	-14.437641
2215.467261	-14.486854
2217.105703	-14.537506
2218.746570	-14.590142
2220.389867	-14.643709
2222.035601	-14.696829
2223.683776	-14.748572
2225.334398	-14.799736
2226.987472	-14.850435
2228.643004	-14.899675
2230.300999	-14.947788
2231.961463	-14.995497
2233.624402	-15.041967
2235.289820	-15.087302
2236.957723	-15.132449
2238.628118	-15.177255
2240.301009	-15.221788
2241.976402	-15.267182
2243.654303	-15.313070
2245.334717	-15.359177
2247.017650	-15.408155
2248.703108	-15.461183
2250.391096	-15.516407
2252.081620	-15.572989
2253.774686	-15.632727
2255.470300	-15.696895
2257.168467	-15.763146
2258.869193	-15.829807
2260.572484	-15.898472
2262.278345	-15.969204
2263.986783	-16.040581
2265.697804	-16.112773
2267.411412	-16.185525
2269.127615	-16.258513
2270.846417	-16.332201
2272.567826	-16.405746
2274.291846	-16.478403
2276.018484	-16.550973
2277.747745	-16.624807
2279.479637	-16.698492
2281.214164	-16.769804
2282.951333	-16.840590
2284.691149	-16.912264
2286.433619	-16.982908
2288.178750	-17.050817
2289.926546	-17.117537
2291.677014	-17.183821
2293.430161	-17.248402
2295.185992	-17.312361
2296.944513	-17.375809
2298.705732	-17.438385
2300.469653	-17.502201
2302.236283	-17.568125
2304.005629	-17.634951
2305.777696	-17.703549
2307.552492	-17.776522
2309.330022	-17.852832
2311.110292	-17.931890
2312.893310	-18.016398
2314.679080	-18.104899
2316.467611	-18.195214
2318.258907	-18.288944
2320.052976	-18.387028
2321.849824	-18.485243
2323.649457	-18.583109
2325.451883	-18.683729
2327.257106	-18.783711
2329.065135	-18.882355
2330.875975	-18.981763
2332.689633	-19.079654
2334.506116	-19.175388
2336.325430	-19.271920
2338.147581	-19.367005
2339.972578	-19.456185
2341.800425	-19.546047
2343.631130	-19.636972
2345.464700	-19.722131
2347.301141	-19.805222
2349.140461	-19.890760
2350.982665	-19.972478
2352.827760	-20.052560
2354.675754	-20.134855
2356.526653	-20.214663
2358.380464	-20.293658
2360.237195	-20.376465
2362.096851	-20.458930
2363.959440	-20.542115
2365.824968	-20.631947
2367.693444	-20.722645
2369.564873	-20.814657
2371.439263	-20.918075
2373.316620	-21.024402
2375.196953	-21.130621
2377.080267	-21.246647
2378.966570	-21.368543
2380.855869	-21.488711
2382.748171	-21.613950
2384.643484	-21.743123
2386.541815	-21.868198
2388.443170	-21.996287
2390.347557	-22.123411
2392.254984	-22.243299
2394.165457	-22.365325
2396.078984	-22.482094
2397.995572	-22.591510
2399.915229	-22.703976
2401.837961	-22.809046
2403.763777	-22.907857
2405.692684	-23.009968
2407.624689	-23.107587
2409.559800	-23.201412
2411.498023	-23.295702
2413.439368	-23.392218
2415.383840	-23.486414
2417.331449	-23.580566
2419.282201	-23.672716
2421.236104	-23.761401
2423.193165	-23.853346
2425.153393	-23.942942
2427.116795	-24.033466
2429.083378	-24.132491
2431.053151	-24.237383
2433.026121	-24.350573
2435.002297	-24.475122
2436.981685	-24.608262
2438.964293	-24.749579
2440.950131	-24.899759
2442.939204	-25.053205
2444.931522	-25.210084
2446.927092	-25.368912
2448.925923	-25.524898
2450.928022	-25.677301
2452.933397	-25.822847
2454.942056	-25.963172
2456.954008	-26.101433
2458.969260	-26.238264
2460.987821	-26.366433
2463.009699	-26.493538
2465.034902	-26.616173
2467.063437	-26.728444
2469.095315	-26.835803
2471.130542	-26.938429
2473.169127	-27.040362
2475.211078	-27.139221
2477.256404	-27.230066
2479.305112	-27.326390
2481.357212	-27.414992
2483.412713	-27.498318
2485.471621	-27.587375
2487.533946	-27.675572
2489.599696	-27.764798
2491.668880	-27.855008
2493.741507	-27.963775
2495.817585	-28.088334
2497.897122	-28.214732
2499.980127	-28.356762
2502.066609	-28.522339
2504.156578	-28.696903
2506.250040	-28.878026
2508.347006	-29.069685
2510.447483	-29.267759
2512.551482	-29.463319
2514.659010	-29.652023
2516.770076	-29.839526
2518.884690	-30.016440
2521.002861	-30.177508
2523.124597	-30.335136
2525.249907	-30.487312
2527.378801	-30.643801
2529.511287	-30.784571
2531.647375	-30.903456
2533.787074	-31.035521
2535.930393	-31.155796
2538.077340	-31.254937
2540.227927	-31.354021
2542.382160	-31.455067
2544.540051	-31.533032
2546.701608	-31.584611
2548.866840	-31.651751
2551.035757	-31.717194
2553.208369	-31.783812
2555.384684	-31.851659
2557.564713	-31.913921
2559.748465	-32.019910
2561.935948	-32.142751
2564.127174	-32.244769
2566.322152	-32.383102
2568.520890	-32.573258
2570.723399	-32.771656
2572.929689	-32.953199
2575.139769	-33.190420
2577.353649	-33.467435
2579.571340	-33.709479
2581.792849	-33.924562
2584.018189	-34.154286
2586.247368	-34.405670
2588.480396	-34.585453
2590.717284	-34.772057
2592.958041	-35.018025
2595.202678	-35.201678
2597.451204	-35.381495
2599.703630	-35.602867
2601.959966	-35.801801
2604.220222	-35.936742
2606.484408	-36.067409
2608.752535	-36.180037
2611.024612	-36.273189
2613.300651	-36.337584
2615.580661	-36.350384
2617.864653	-36.383440
2620.152638	-36.399944
2622.444625	-36.381961
2624.740626	-36.379500
2627.040651	-36.411847
2629.344710	-36.461621
2631.652814	-36.498619
2633.964974	-36.561080
2636.281200	-36.673304
2638.601504	-36.884377
2640.925896	-37.059760
2643.254386	-37.223326
2645.586987	-37.485163
2647.923707	-37.787848
2650.264559	-37.980495
2652.609554	-38.207083
2654.958702	-38.535629
2657.312015	-38.754577
2659.669503	-38.965971
2662.031178	-39.268956
2664.397051	-39.600098
2666.767132	-39.907521
2669.141434	-40.265061
2671.519968	-40.552196
2673.902745	-40.953803
2676.289776	-41.315768
2678.681072	-41.442319
2681.076646	-41.734325
2683.476508	-41.934958
2685.880671	-41.944676
2688.289145	-42.022165
2690.701942	-42.093154
2693.119075	-41.951382
2695.540554	-41.963195
2697.966391	-41.820709
2700.396599	-41.721762
2702.831189	-41.651062
2705.270172	-41.574589
2707.713561	-41.596154
2710.161368	-41.723785
2712.613605	-41.754818
2715.070283	-41.903940
2717.531416	-42.040031
2719.997014	-42.155991
2722.467090	-42.320763
2724.941657	-42.459067
2727.420726	-42.569743
2729.904310	-42.736282
2732.392421	-42.896785
2734.885072	-43.094993
2737.382275	-43.389225
2739.884042	-43.694979
2742.390387	-44.092783
2744.901321	-44.570612
2747.416857	-45.051503
2749.937008	-45.500357
2752.461787	-46.089699
2754.991206	-46.524227
2757.525279	-47.105939
2760.064017	-47.572677
2762.607434	-48.004613
2765.155544	-48.423919
2767.708358	-48.521602
2770.265890	-48.659347
2772.828153	-48.458520
2775.395160	-48.337298
2777.966924	-48.281605
2780.543459	-48.144003
2783.124778	-48.163729
2785.710894	-48.131587
2788.301821	-48.213207
2790.897572	-48.286655
2793.498160	-48.278591
2796.103599	-48.336383
2798.713903	-48.189792
2801.329085	-48.202045
2803.949159	-47.991806
2806.574139	-47.853412
2809.204038	-47.754372
2811.838871	-47.732428
2814.478650	-47.834409
2817.123391	-47.890379
2819.773107	-48.157432
2822.427812	-48.339312
2825.087521	-48.710820
2827.752247	-49.043700
2830.422005	-49.399082
2833.096808	-49.815622
2835.776672	-50.486316
2838.461611	-51.207347
2841.151638	-51.879429
2843.846769	-52.550745
2846.547019	-53.061270
2849.252401	-53.407852
2851.962930	-53.631830
2854.678621	-53.782695
2857.399489	-53.882482
2860.125549	-54.149532
2862.856815	-54.466131
2865.593302	-54.864630
2868.335026	-55.415233
2871.082002	-56.154130
2873.834244	-56.692815
2876.591767	-57.120009
2879.354588	-57.382126
2882.122721	-57.142915
2884.896181	-56.768827
2887.674984	-56.331221
2890.459146	-55.752656
2893.248681	-55.315846
2896.043606	-54.978039
2898.843937	-54.790424
2901.649687	-54.473754
2904.460875	-54.130299
2907.277515	-53.971852
2910.099623	-53.855892
2912.927215	-54.025771
2915.760308	-54.339980
2918.598916	-54.904847
2921.443057	-55.467003
2924.292747	-56.158619
2927.148002	-56.626677
2930.008837	-56.994574
2932.875270	-57.446242
2935.747318	-57.485030
2938.624995	-57.448850
2941.508320	-57.648223
2944.397308	-57.451003
2947.291977	-57.824169
2950.192343	-57.794724
2953.098423	-58.404039
2956.010234	-59.055928
2958.927792	-59.825479
2961.851116	-60.619301
2964.780221	-61.630623
2967.715126	-62.992357
2970.655847	-63.754121
2973.602402	-64.965551
2976.554808	-66.571689
2979.513083	-67.312494
2982.477243	-68.964183
2985.447308	-67.697633
2988.423293	-65.256462
2991.405218	-64.171430
2994.393099	-62.587069
2997.386955	-61.813506
