# 2022-03-21_14.13.35
# shape = sech2
# FWHM_ps = 0.1
# carrier_nm = 1542
# frep_MHz = 12126
# pow_mW = 8000
# GDD = 0.0
# propa_len = 0.12111111111111113
# untap_len = 0.01
# taper_len = 0.061111111111111116
# waist_len = 0.02
# uptap_len = 0.02
# untap_scale = 1.0
# waist_scale = 0.16666666666666669
# workingDir = NL_20110305_12 (Spirou)
# axis = slow
# window_ps = 10.0
# steps = 200
# points = 13000
# 
# wavelength [nm]	 power spectral density [dB]
1000.248639	-21.526594
1000.582480	-21.457272
1000.916545	-21.499930
1001.250832	-21.454297
1001.585343	-21.478481
1001.920077	-21.445517
1002.255035	-21.437751
1002.590218	-21.442028
1002.925624	-21.403277
1003.261255	-21.442110
1003.597111	-21.360848
1003.933192	-21.421632
1004.269497	-21.323541
1004.606029	-21.406836
1004.942785	-21.294648
1005.279768	-21.372573
1005.616977	-21.257699
1005.954412	-21.331857
1006.292074	-21.242862
1006.629962	-21.283342
1006.968077	-21.222476
1007.306420	-21.213200
1007.644990	-21.210219
1007.983787	-21.159621
1008.322813	-21.192008
1008.662067	-21.095623
1009.001549	-21.153697
1009.341259	-21.048934
1009.681199	-21.122403
1010.021367	-21.006548
1010.361765	-21.061984
1010.702392	-20.967900
1011.043250	-21.004424
1011.384337	-20.953449
1011.725654	-20.932981
1012.067202	-20.922097
1012.408980	-20.863812
1012.750989	-20.903999
1013.093230	-20.815371
1013.435702	-20.861039
1013.778405	-20.762949
1014.121341	-20.814992
1014.464508	-20.741245
1014.807908	-20.765761
1015.151540	-20.709324
1015.495405	-20.700888
1015.839503	-20.696914
1016.183835	-20.654965
1016.528400	-20.679386
1016.873198	-20.595904
1017.218231	-20.651323
1017.563498	-20.571144
1017.908999	-20.622949
1018.254735	-20.547979
1018.600707	-20.566909
1018.946913	-20.543749
1019.293354	-20.528523
1019.640032	-20.544429
1019.986945	-20.475460
1020.334094	-20.530667
1020.681480	-20.450941
1021.029102	-20.522154
1021.376961	-20.432440
1021.725058	-20.480334
1022.073391	-20.431607
1022.421962	-20.448948
1022.770772	-20.445234
1023.119819	-20.397603
1023.469104	-20.444396
1023.818628	-20.369116
1024.168391	-20.446689
1024.518393	-20.352546
1024.868634	-20.408062
1025.219115	-20.354598
1025.569836	-20.373539
1025.920796	-20.372871
1026.271997	-20.319100
1026.623438	-20.371511
1026.975121	-20.288239
1027.327044	-20.369212
1027.679208	-20.270210
1028.031614	-20.322356
1028.384262	-20.271600
1028.737152	-20.276219
1029.090284	-20.287373
1029.443659	-20.209383
1029.797276	-20.281560
1030.151137	-20.168795
1030.505240	-20.266732
1030.859587	-20.144083
1031.214178	-20.202996
1031.569013	-20.142536
1031.924093	-20.138631
1032.279417	-20.150307
1032.634985	-20.057726
1032.990799	-20.131424
1033.346858	-20.013630
1033.703162	-20.092417
1034.059712	-19.988977
1034.416509	-20.005562
1034.773551	-19.989269
1035.130841	-19.925981
1035.488377	-19.982188
1035.846160	-19.846227
1036.204190	-19.939987
1036.562468	-19.817390
1036.920994	-19.868939
1037.279768	-19.803992
1037.638790	-19.766674
1037.998061	-19.805618
1038.357581	-19.692015
1038.717350	-19.773486
1039.077368	-19.637781
1039.437636	-19.705436
1039.798154	-19.636465
1040.158922	-19.614418
1040.519940	-19.629710
1040.881209	-19.529851
1041.242729	-19.615233
1041.604501	-19.491003
1041.966524	-19.546649
1042.328798	-19.482482
1042.691325	-19.465271
1043.054103	-19.498428
1043.417135	-19.387206
1043.780419	-19.475224
1044.143956	-19.359179
1044.507746	-19.423923
1044.871791	-19.367647
1045.236088	-19.334204
1045.600641	-19.386936
1045.965447	-19.279015
1046.330508	-19.374112
1046.695824	-19.254653
1047.061395	-19.314407
1047.427222	-19.284455
1047.793304	-19.242238
1048.159642	-19.296977
1048.526237	-19.190882
1048.893088	-19.284215
1049.260196	-19.195197
1049.627561	-19.216047
1049.995183	-19.217707
1050.363063	-19.156885
1050.731201	-19.233703
1051.099597	-19.121700
1051.468251	-19.190913
1051.837164	-19.141642
1052.206336	-19.128797
1052.575767	-19.160998
1052.945458	-19.065409
1053.315409	-19.154311
1053.685619	-19.060765
1054.056090	-19.090177
1054.426821	-19.072478
1054.797814	-19.021005
1055.169067	-19.082775
1055.540582	-18.978275
1055.912359	-19.026874
1056.284398	-18.984815
1056.656698	-18.955341
1057.029262	-18.985605
1057.402088	-18.889414
1057.775177	-18.946987
1058.148530	-18.885619
1058.522146	-18.860940
1058.896027	-18.880321
1059.270171	-18.791918
1059.644580	-18.851162
1060.019254	-18.764767
1060.394193	-18.758637
1060.769397	-18.770170
1061.144867	-18.681291
1061.520602	-18.738343
1061.896604	-18.636588
1062.272872	-18.661177
1062.649407	-18.643883
1063.026210	-18.562751
1063.403279	-18.621975
1063.780616	-18.513355
1064.158221	-18.560889
1064.536094	-18.502463
1064.914235	-18.460180
1065.292645	-18.503744
1065.671325	-18.400046
1066.050273	-18.448448
1066.429491	-18.382772
1066.808979	-18.368761
1067.188738	-18.389445
1067.568766	-18.297387
1067.949066	-18.349241
1068.329636	-18.293246
1068.710478	-18.275896
1069.091592	-18.294909
1069.472977	-18.217976
1069.854635	-18.271189
1070.236565	-18.217047
1070.618768	-18.194522
1071.001243	-18.232480
1071.383993	-18.155061
1071.767016	-18.202406
1072.150313	-18.156478
1072.533884	-18.140222
1072.917730	-18.181278
1073.301850	-18.098401
1073.686246	-18.147843
1074.070917	-18.116237
1074.455864	-18.092982
1074.841087	-18.128627
1075.226586	-18.057306
1075.612362	-18.106911
1075.998415	-18.075330
1076.384745	-18.044739
1076.771353	-18.088449
1077.158238	-18.025671
1077.545401	-18.057220
1077.932843	-18.035740
1078.320564	-18.004126
1078.708564	-18.049930
1079.096842	-17.982542
1079.485401	-18.000926
1079.874240	-18.005045
1080.263358	-17.949199
1080.652757	-17.993368
1081.042438	-17.933858
1081.432399	-17.937450
1081.822641	-17.950917
1082.213166	-17.873196
1082.603972	-17.919530
1082.995061	-17.872527
1083.386433	-17.840756
1083.778087	-17.865528
1084.170025	-17.789395
1084.562246	-17.813186
1084.954751	-17.778452
1085.347541	-17.724837
1085.740615	-17.758722
1086.133973	-17.684068
1086.527617	-17.675489
1086.921546	-17.670639
1087.315761	-17.602734
1087.710262	-17.623039
1088.105050	-17.566287
1088.500124	-17.539721
1088.895485	-17.549321
1089.291134	-17.473651
1089.687070	-17.481372
1090.083294	-17.458187
1090.479806	-17.402119
1090.876607	-17.416508
1091.273696	-17.363534
1091.671075	-17.344399
1092.068744	-17.342918
1092.466702	-17.276432
1092.864950	-17.290863
1093.263489	-17.259714
1093.662319	-17.207353
1094.061440	-17.229641
1094.460852	-17.174284
1094.860555	-17.155765
1095.260551	-17.156422
1095.660840	-17.096715
1096.061421	-17.112254
1096.462295	-17.076013
1096.863462	-17.036993
1097.264923	-17.063364
1097.666678	-17.001952
1098.068727	-16.995113
1098.471071	-17.004123
1098.873710	-16.945981
1099.276644	-16.963780
1099.679874	-16.941820
1100.083400	-16.910743
1100.487222	-16.935565
1100.891340	-16.887988
1101.295756	-16.891474
1101.700468	-16.905721
1102.105478	-16.851455
1102.510787	-16.879455
1102.916393	-16.873267
1103.322298	-16.833602
1103.728502	-16.866007
1104.135005	-16.840244
1104.541807	-16.826883
1104.948909	-16.846515
1105.356312	-16.807360
1105.764015	-16.821405
1106.172019	-16.818027
1106.580324	-16.775730
1106.988931	-16.806981
1107.397840	-16.779982
1107.807051	-16.745001
1108.216564	-16.777052
1108.626380	-16.732974
1109.036500	-16.713763
1109.446923	-16.729952
1109.857649	-16.680321
1110.268680	-16.678805
1110.680016	-16.670470
1111.091657	-16.625042
1111.503602	-16.638327
1111.915854	-16.605314
1112.328411	-16.571176
1112.741275	-16.591722
1113.154445	-16.542134
1113.567922	-16.521830
1113.981706	-16.541028
1114.395798	-16.486175
1114.810198	-16.478567
1115.224906	-16.489713
1115.639923	-16.439014
1116.055249	-16.442451
1116.470884	-16.440175
1116.886829	-16.400946
1117.303084	-16.411622
1117.719650	-16.394353
1118.136526	-16.368930
1118.553713	-16.383488
1118.971212	-16.351244
1119.389022	-16.339813
1119.807145	-16.353405
1120.225580	-16.309674
1120.644328	-16.308923
1121.063389	-16.318152
1121.482763	-16.266161
1121.902452	-16.273375
1122.322454	-16.273852
1122.742771	-16.219456
1123.163404	-16.229498
1123.584351	-16.220473
1124.005614	-16.167074
1124.427193	-16.177405
1124.849089	-16.157123
1125.271301	-16.109687
1125.693830	-16.116457
1126.116677	-16.086173
1126.539842	-16.047449
1126.963324	-16.049709
1127.387126	-16.010311
1127.811246	-15.982822
1128.235685	-15.980479
1128.660444	-15.934382
1129.085522	-15.917697
1129.510922	-15.912667
1129.936641	-15.861385
1130.362682	-15.854095
1130.789044	-15.848132
1131.215728	-15.793494
1131.642734	-15.793581
1132.070063	-15.787525
1132.497714	-15.731768
1132.925689	-15.737125
1133.353987	-15.731146
1133.782610	-15.675855
1134.211556	-15.684990
1134.640827	-15.678385
1135.070424	-15.624151
1135.500345	-15.635760
1135.930593	-15.627842
1136.361166	-15.574292
1136.792067	-15.586039
1137.223294	-15.577051
1137.654848	-15.523435
1138.086730	-15.533011
1138.518940	-15.522528
1138.951479	-15.469562
1139.384346	-15.475178
1139.817543	-15.461977
1140.251069	-15.409658
1140.684925	-15.413017
1141.119111	-15.394798
1141.553628	-15.341742
1141.988475	-15.345737
1142.423655	-15.323363
1142.859166	-15.265911
1143.295009	-15.271819
1143.731185	-15.249172
1144.167694	-15.185478
1144.604536	-15.190557
1145.041711	-15.172288
1145.479221	-15.104375
1145.917065	-15.105464
1146.355245	-15.092817
1146.793759	-15.025009
1147.232609	-15.021538
1147.671795	-15.013231
1148.111317	-14.947563
1148.551177	-14.942015
1148.991373	-14.937532
1149.431907	-14.873198
1149.872779	-14.867256
1150.313989	-14.869169
1150.755538	-14.804668
1151.197426	-14.797398
1151.639653	-14.808099
1152.082220	-14.744746
1152.525128	-14.733341
1152.968376	-14.753233
1153.411966	-14.693691
1153.855897	-14.677381
1154.300169	-14.703872
1154.744784	-14.649771
1155.189742	-14.629937
1155.635042	-14.660833
1156.080687	-14.610862
1156.526674	-14.589229
1156.973007	-14.625204
1157.419683	-14.576686
1157.866705	-14.552140
1158.314072	-14.595736
1158.761786	-14.548642
1159.209845	-14.516134
1159.658251	-14.568176
1160.107004	-14.527681
1160.556104	-14.482339
1161.005553	-14.537200
1161.455349	-14.511542
1161.905494	-14.454264
1162.355989	-14.500829
1162.806832	-14.494192
1163.258026	-14.433880
1163.709570	-14.462217
1164.161464	-14.469719
1164.613710	-14.417845
1165.066307	-14.425974
1165.519256	-14.437776
1165.972558	-14.399496
1166.426212	-14.393839
1166.880219	-14.403335
1167.334580	-14.375178
1167.789295	-14.361653
1168.244364	-14.371240
1168.699788	-14.347640
1169.155567	-14.324241
1169.611702	-14.339650
1170.068193	-14.322470
1170.525041	-14.282869
1170.982245	-14.301650
1171.439807	-14.300180
1171.897726	-14.246031
1172.356004	-14.255224
1172.814640	-14.271921
1173.273635	-14.219791
1173.732989	-14.209080
1174.192703	-14.228477
1174.652778	-14.197752
1175.113213	-14.175740
1175.574009	-14.173662
1176.035167	-14.164967
1176.496687	-14.155646
1176.958569	-14.124355
1177.420814	-14.114950
1177.883422	-14.132615
1178.346394	-14.092608
1178.809730	-14.061146
1179.273430	-14.089408
1179.737496	-14.070672
1180.201927	-14.023576
1180.666723	-14.028781
1181.131886	-14.037581
1181.597416	-14.005542
1182.063312	-13.972232
1182.529576	-13.983499
1182.996209	-13.987878
1183.463209	-13.936181
1183.930579	-13.923251
1184.398317	-13.949450
1184.866426	-13.913867
1185.334904	-13.879597
1185.803754	-13.890967
1186.272974	-13.883790
1186.742566	-13.857442
1187.212529	-13.833572
1187.682865	-13.835217
1188.153574	-13.838768
1188.624656	-13.794437
1189.096112	-13.780332
1189.567942	-13.802989
1190.040147	-13.769607
1190.512726	-13.738923
1190.985681	-13.748727
1191.459012	-13.741725
1191.932720	-13.715944
1192.406804	-13.692829
1192.881265	-13.700362
1193.356104	-13.697033
1193.831322	-13.651180
1194.306918	-13.651805
1194.782893	-13.664921
1195.259248	-13.624485
1195.735982	-13.609173
1196.213097	-13.615840
1196.690593	-13.601372
1197.168471	-13.577781
1197.646730	-13.561279
1198.125371	-13.570628
1198.604395	-13.551401
1199.083803	-13.515731
1199.563594	-13.529614
1200.043769	-13.519693
1200.524329	-13.484943
1201.005273	-13.484132
1201.486604	-13.478615
1201.968320	-13.462576
1202.450422	-13.441384
1202.932912	-13.433496
1203.415789	-13.436925
1203.899054	-13.404721
1204.382707	-13.392936
1204.866748	-13.400873
1205.351179	-13.373401
1205.836000	-13.360164
1206.321211	-13.356573
1206.806812	-13.344519
1207.292805	-13.331598
1207.779189	-13.312785
1208.265965	-13.314836
1208.753134	-13.301339
1209.240696	-13.277155
1209.728651	-13.282145
1210.217000	-13.267419
1210.705744	-13.250109
1211.194883	-13.245832
1211.684417	-13.233162
1212.174347	-13.225645
1212.664673	-13.207748
1213.155396	-13.201460
1213.646516	-13.197282
1214.138034	-13.172360
1214.629951	-13.170057
1215.122266	-13.162294
1215.614980	-13.143035
1216.108095	-13.134901
1216.601609	-13.122453
1217.095524	-13.116515
1217.589841	-13.096817
1218.084559	-13.082106
1218.579679	-13.083179
1219.075202	-13.060265
1219.571128	-13.044838
1220.067458	-13.037202
1220.564191	-13.024906
1221.061330	-13.010194
1221.558874	-12.986556
1222.056823	-12.983889
1222.555178	-12.971752
1223.053940	-12.944653
1223.553109	-12.934832
1224.052686	-12.923729
1224.552671	-12.910417
1225.053065	-12.885722
1225.553867	-12.870830
1226.055079	-12.868626
1226.556702	-12.843704
1227.058735	-12.823370
1227.561179	-12.813338
1228.064035	-12.803427
1228.567303	-12.783663
1229.070983	-12.758838
1229.575077	-12.755263
1230.079585	-12.743245
1230.584506	-12.718788
1231.089842	-12.702976
1231.595594	-12.695616
1232.101761	-12.685313
1232.608345	-12.660224
1233.115345	-12.646739
1233.622762	-12.643369
1234.130597	-12.627970
1234.638851	-12.607430
1235.147523	-12.596212
1235.656615	-12.592676
1236.166126	-12.577925
1236.676058	-12.558130
1237.186411	-12.551096
1237.697185	-12.547323
1238.208381	-12.531743
1238.719999	-12.516020
1239.232040	-12.510097
1239.744505	-12.506846
1240.257394	-12.492584
1240.770708	-12.477459
1241.284446	-12.476330
1241.798610	-12.470606
1242.313201	-12.459211
1242.828218	-12.446316
1243.343662	-12.445120
1243.859534	-12.443540
1244.375834	-12.428704
1244.892563	-12.422989
1245.409721	-12.419796
1245.927309	-12.420586
1246.445327	-12.408362
1246.963777	-12.401374
1247.482657	-12.405545
1248.001970	-12.400581
1248.521716	-12.396666
1249.041894	-12.387096
1249.562506	-12.395045
1250.083553	-12.392494
1250.605034	-12.386151
1251.126950	-12.385701
1251.649302	-12.386581
1252.172091	-12.393948
1252.695316	-12.382666
1253.218979	-12.388182
1253.743079	-12.389801
1254.267619	-12.395352
1254.792597	-12.392610
1255.318015	-12.390394
1255.843874	-12.403198
1256.370173	-12.400397
1256.896913	-12.406902
1257.424095	-12.401313
1257.951720	-12.415095
1258.479787	-12.417013
1259.008298	-12.417288
1259.537254	-12.422107
1260.066654	-12.424881
1260.596499	-12.438391
1261.126790	-12.430029
1261.657527	-12.441309
1262.188711	-12.440855
1262.720342	-12.453392
1263.252422	-12.450422
1263.784950	-12.452833
1264.317928	-12.462239
1264.851355	-12.462739
1265.385232	-12.471398
1265.919560	-12.462831
1266.454340	-12.478605
1266.989572	-12.474122
1267.525256	-12.483283
1268.061394	-12.476633
1268.597985	-12.484559
1269.135031	-12.488364
1269.672531	-12.486006
1270.210487	-12.490102
1270.748899	-12.484483
1271.287768	-12.498004
1271.827094	-12.486335
1272.366877	-12.495209
1272.907119	-12.484741
1273.447820	-12.496445
1273.988981	-12.487916
1274.530601	-12.488643
1275.072683	-12.485316
1275.615226	-12.484280
1276.158230	-12.486936
1276.701697	-12.474040
1277.245627	-12.479892
1277.790021	-12.466726
1278.334879	-12.476268
1278.880202	-12.456499
1279.425991	-12.462335
1279.972245	-12.447199
1280.518966	-12.451770
1281.066155	-12.436758
1281.613811	-12.431522
1282.161936	-12.423771
1282.710529	-12.414985
1283.259593	-12.410653
1283.809126	-12.390974
1284.359131	-12.391547
1284.909607	-12.370415
1285.460555	-12.373173
1286.011976	-12.345112
1286.563870	-12.346899
1287.116237	-12.321634
1287.669080	-12.322325
1288.222397	-12.295913
1288.776191	-12.290117
1289.330460	-12.269526
1289.885207	-12.260381
1290.440431	-12.242713
1290.996133	-12.224813
1291.552314	-12.212928
1292.108975	-12.191837
1292.666115	-12.183950
1293.223737	-12.155494
1293.781839	-12.150599
1294.340424	-12.121072
1294.899491	-12.118866
1295.459041	-12.085581
1296.019075	-12.082584
1296.579593	-12.050787
1297.140597	-12.048369
1297.702086	-12.016794
1298.264061	-12.010497
1298.826524	-11.982038
1299.389474	-11.974617
1299.952912	-11.949209
1300.516839	-11.936665
1301.081255	-11.914544
1301.646162	-11.900201
1302.211559	-11.882422
1302.777448	-11.863533
1303.343829	-11.848094
1303.910702	-11.827512
1304.478069	-11.816365
1305.045930	-11.793140
1305.614285	-11.782946
1306.183136	-11.758513
1306.752483	-11.751617
1307.322326	-11.726868
1307.892666	-11.719982
1308.463504	-11.694583
1309.034841	-11.689573
1309.606677	-11.665839
1310.179012	-11.660604
1310.751849	-11.636764
1311.325186	-11.631953
1311.899025	-11.610873
1312.473366	-11.606226
1313.048211	-11.585677
1313.623559	-11.580333
1314.199412	-11.562562
1314.775770	-11.557951
1315.352634	-11.541513
1315.930004	-11.535732
1316.507881	-11.521336
1317.086266	-11.516496
1317.665159	-11.504196
1318.244562	-11.498434
1318.824474	-11.487304
1319.404897	-11.482231
1319.985831	-11.473506
1320.567276	-11.468254
1321.149234	-11.460201
1321.731706	-11.455162
1322.314691	-11.449324
1322.898190	-11.444882
1323.482205	-11.439705
1324.066736	-11.435143
1324.651783	-11.431641
1325.237347	-11.428117
1325.823430	-11.425626
1326.410031	-11.421937
1326.997151	-11.420456
1327.584791	-11.417869
1328.172952	-11.417667
1328.761634	-11.415200
1329.350839	-11.415499
1329.940566	-11.413866
1330.530817	-11.415510
1331.121592	-11.414408
1331.712891	-11.416363
1332.304716	-11.415768
1332.897068	-11.418748
1333.489946	-11.419039
1334.083352	-11.422312
1334.677287	-11.422936
1335.271750	-11.426815
1335.866744	-11.428488
1336.462268	-11.432672
1337.058323	-11.434736
1337.654910	-11.439014
1338.252029	-11.442143
1338.849682	-11.446759
1339.447869	-11.450506
1340.046591	-11.454821
1340.645848	-11.459510
1341.245641	-11.463982
1341.845972	-11.469641
1342.446840	-11.473598
1343.048246	-11.480053
1343.650191	-11.483910
1344.252677	-11.491588
1344.855702	-11.494977
1345.459269	-11.503267
1346.063379	-11.506241
1346.668030	-11.515755
1347.273226	-11.518545
1347.878965	-11.528606
1348.485250	-11.530850
1349.092080	-11.541605
1349.699456	-11.544102
1350.307380	-11.555312
1350.915851	-11.557601
1351.524871	-11.568697
1352.134441	-11.571526
1352.744560	-11.582707
1353.355231	-11.586201
1353.966453	-11.596510
1354.578227	-11.600899
1355.190555	-11.610554
1355.803436	-11.616510
1356.416872	-11.624874
1357.030863	-11.632161
1357.645411	-11.639123
1358.260515	-11.648428
1358.876177	-11.654171
1359.492397	-11.664951
1360.109176	-11.669222
1360.726516	-11.681478
1361.344416	-11.685189
1361.962877	-11.698337
1362.581901	-11.701737
1363.201487	-11.714732
1363.821637	-11.718822
1364.442352	-11.731326
1365.063632	-11.736790
1365.685478	-11.747584
1366.307891	-11.754937
1366.930871	-11.763930
1367.554420	-11.773761
1368.178538	-11.780762
1368.803226	-11.792595
1369.428485	-11.798001
1370.054315	-11.811537
1370.680717	-11.816367
1371.307693	-11.830542
1371.935242	-11.835638
1372.563366	-11.849473
1373.192065	-11.856181
1373.821341	-11.868796
1374.451193	-11.877759
1375.081623	-11.888489
1375.712632	-11.900262
1376.344221	-11.909301
1376.976389	-11.923563
1377.609139	-11.931167
1378.242470	-11.947085
1378.876384	-11.954519
1379.510881	-11.971099
1380.145963	-11.979506
1380.781629	-11.995029
1381.417881	-12.005613
1382.054720	-12.019390
1382.692147	-12.033068
1383.330161	-12.044514
1383.968765	-12.060870
1384.607959	-12.070553
1385.247743	-12.088884
1385.888119	-12.098350
1386.529087	-12.116758
1387.170648	-12.127380
1387.812804	-12.144077
1388.455554	-12.157637
1389.098899	-12.171846
1389.742842	-12.188633
1390.387381	-12.200155
1391.032519	-12.219343
1391.678256	-12.230010
1392.324592	-12.250036
1392.971529	-12.261790
1393.619068	-12.280153
1394.267208	-12.294725
1394.915952	-12.310337
1395.565300	-12.328605
1396.215253	-12.341459
1396.865812	-12.361970
1397.516977	-12.373696
1398.168749	-12.394542
1398.821130	-12.407944
1399.474120	-12.426726
1400.127719	-12.443442
1400.781930	-12.458911
1401.436752	-12.479378
1402.092186	-12.492675
1402.748234	-12.514962
1403.404897	-12.528279
1404.062174	-12.549190
1404.720067	-12.565332
1405.378577	-12.582874
1406.037705	-12.602867
1406.697451	-12.616860
1407.357817	-12.639209
1408.018803	-12.652341
1408.680410	-12.674127
1409.342639	-12.689830
1410.005492	-12.708154
1410.668968	-12.728107
1411.333068	-12.742700
1411.997795	-12.765747
1412.663147	-12.779216
1413.329127	-12.801421
1413.995736	-12.817253
1414.662973	-12.835310
1415.330840	-12.855401
1415.999339	-12.869038
1416.668469	-12.891565
1417.338232	-12.904215
1418.008628	-12.925371
1418.679659	-12.941469
1419.351325	-12.958146
1420.023628	-12.979243
1420.696568	-12.992332
1421.370145	-13.015717
1422.044362	-13.029572
1422.719219	-13.050019
1423.394717	-13.068257
1424.070856	-13.083051
1424.747638	-13.105272
1425.425064	-13.116968
1426.103134	-13.138290
1426.781850	-13.152124
1427.461212	-13.168029
1428.141221	-13.187198
1428.821878	-13.198623
1429.503185	-13.220601
1430.185141	-13.233112
1430.867749	-13.252656
1431.551008	-13.271535
1432.234920	-13.286623
1432.919486	-13.310711
1433.604707	-13.324594
1434.290583	-13.347447
1434.977116	-13.365275
1435.664307	-13.381930
1436.352156	-13.403957
1437.040664	-13.415565
1437.729833	-13.436295
1438.419663	-13.449199
1439.110156	-13.463760
1439.801312	-13.481624
1440.493132	-13.491433
1441.185617	-13.511649
1441.878768	-13.524422
1442.572586	-13.542516
1443.267072	-13.563724
1443.962228	-13.579531
1444.658053	-13.606261
1445.354549	-13.625438
1446.051717	-13.650385
1446.749558	-13.676346
1447.448073	-13.695944
1448.147263	-13.723618
1448.847128	-13.741170
1449.547671	-13.761801
1450.248891	-13.780680
1450.950789	-13.791406
1451.653368	-13.808352
1452.356627	-13.815254
1453.060568	-13.825113
1453.765192	-13.835180
1454.470500	-13.839571
1455.176492	-13.852946
1455.883170	-13.860938
1456.590534	-13.874621
1457.298586	-13.893049
1458.007327	-13.908644
1458.716758	-13.934965
1459.426880	-13.958243
1460.137693	-13.985473
1460.849199	-14.016971
1461.561398	-14.042095
1462.274293	-14.072852
1462.987883	-14.096391
1463.702170	-14.115822
1464.417155	-14.134092
1465.132838	-14.139125
1465.849222	-14.142979
1466.566306	-14.136788
1467.284093	-14.121511
1468.002582	-14.105275
1468.721775	-14.077203
1469.441674	-14.049521
1470.162278	-14.019503
1470.883590	-13.984978
1471.605609	-13.957914
1472.328338	-13.928535
1473.051777	-13.904951
1473.775928	-13.889197
1474.500790	-13.873693
1475.226367	-13.869275
1475.952657	-13.867710
1476.679663	-13.868873
1477.407386	-13.877834
1478.135826	-13.882525
1478.864985	-13.889004
1479.594863	-13.892580
1480.325463	-13.885359
1481.056784	-13.874075
1481.788828	-13.847607
1482.521597	-13.806804
1483.255090	-13.753919
1483.989309	-13.679508
1484.724256	-13.591777
1485.459931	-13.488090
1486.196336	-13.366911
1486.933471	-13.238078
1487.671337	-13.096960
1488.409937	-12.949964
1489.149270	-12.803334
1489.889337	-12.653772
1490.630141	-12.510939
1491.371682	-12.375387
1492.113961	-12.246780
1492.856979	-12.133213
1493.600738	-12.030824
1494.345238	-11.941899
1495.090481	-11.869990
1495.836467	-11.809293
1496.583198	-11.763349
1497.330675	-11.730722
1498.078899	-11.706053
1498.827872	-11.692459
1499.577593	-11.684468
1500.328065	-11.678699
1501.079289	-11.676565
1501.831265	-11.670470
1502.583995	-11.659356
1503.337480	-11.641951
1504.091721	-11.610706
1504.846719	-11.566403
1505.602475	-11.505397
1506.358991	-11.422635
1507.116268	-11.320421
1507.874306	-11.195118
1508.633108	-11.046520
1509.392673	-10.878969
1510.153004	-10.691690
1510.914101	-10.489967
1511.675965	-10.279777
1512.438599	-10.063785
1513.202002	-9.850317
1513.966176	-9.645229
1514.731122	-9.452862
1515.496842	-9.281527
1516.263336	-9.135599
1517.030607	-9.019643
1517.798654	-8.940653
1518.567479	-8.901676
1519.337083	-8.907525
1520.107468	-8.964438
1520.878634	-9.075579
1521.650584	-9.247217
1522.423317	-9.486777
1523.196836	-9.799992
1523.971141	-10.197574
1524.746233	-10.692103
1525.522115	-11.297369
1526.298786	-12.036414
1527.076249	-12.939016
1527.854504	-14.046248
1528.633553	-15.427491
1529.413397	-17.193508
1530.194037	-19.548208
1530.975474	-22.953005
1531.757709	-28.768693
1532.540745	-39.111118
1533.324581	-27.985367
1534.109220	-22.397418
1534.894662	-19.025347
1535.680909	-16.645717
1536.467961	-14.841519
1537.255821	-13.420074
1538.044489	-12.273881
1538.833967	-11.342033
1539.624256	-10.584186
1540.415357	-9.970231
1541.207271	-9.481350
1542.000000	-9.102585
1542.793545	-8.820060
1543.587907	-8.624910
1544.383087	-8.508835
1545.179088	-8.462148
1545.975909	-8.478055
1546.773552	-8.549333
1547.572019	-8.666260
1548.371311	-8.820996
1549.171428	-9.005245
1549.972373	-9.207796
1550.774147	-9.419418
1551.576751	-9.631719
1552.380185	-9.834313
1553.184453	-10.020049
1553.989554	-10.185030
1554.795490	-10.324692
1555.602263	-10.438149
1556.409873	-10.528648
1557.218322	-10.598128
1558.027612	-10.649987
1558.837743	-10.690756
1559.648717	-10.724312
1560.460536	-10.753559
1561.273200	-10.784034
1562.086710	-10.818680
1562.901069	-10.858489
1563.716278	-10.907182
1564.532337	-10.966946
1565.349249	-11.037544
1566.167014	-11.121515
1566.985634	-11.220855
1567.805111	-11.334682
1568.625444	-11.464437
1569.446637	-11.611686
1570.268690	-11.774726
1571.091605	-11.953520
1571.915382	-12.148655
1572.740024	-12.357149
1573.565532	-12.577076
1574.391907	-12.807523
1575.219150	-13.043909
1576.047262	-13.282197
1576.876246	-13.519838
1577.706103	-13.750784
1578.536833	-13.969418
1579.368439	-14.172297
1580.200922	-14.353180
1581.034282	-14.506809
1581.868522	-14.631248
1582.703643	-14.722934
1583.539646	-14.779965
1584.376532	-14.804497
1585.214304	-14.797331
1586.052962	-14.760653
1586.892508	-14.699976
1587.732943	-14.618804
1588.574269	-14.520666
1589.416487	-14.411361
1590.259599	-14.294143
1591.103605	-14.171154
1591.948508	-14.046499
1592.794309	-13.921909
1593.641009	-13.797474
1594.488609	-13.675226
1595.337112	-13.555732
1596.186518	-13.437560
1597.036829	-13.321317
1597.888047	-13.207276
1598.740172	-13.093568
1599.593207	-12.980017
1600.447153	-12.867284
1601.302010	-12.753960
1602.157782	-12.639599
1603.014469	-12.525421
1603.872072	-12.410953
1604.730593	-12.295734
1605.590034	-12.181387
1606.450397	-12.068470
1607.311681	-11.956595
1608.173890	-11.847264
1609.037024	-11.741752
1609.901085	-11.639744
1610.766075	-11.542153
1611.631995	-11.450628
1612.498846	-11.365023
1613.366630	-11.285481
1614.235349	-11.213442
1615.105004	-11.149003
1615.975596	-11.091575
1616.847128	-11.041925
1617.719600	-11.000334
1618.593014	-10.965736
1619.467372	-10.937997
1620.342675	-10.917370
1621.218924	-10.902682
1622.096122	-10.892968
1622.974270	-10.888232
1623.853369	-10.887567
1624.733420	-10.889521
1625.614427	-10.893766
1626.496389	-10.899865
1627.379308	-10.906530
1628.263187	-10.913172
1629.148026	-10.919823
1630.033828	-10.925809
1630.920593	-10.930574
1631.808324	-10.934466
1632.697022	-10.937604
1633.586688	-10.939706
1634.477324	-10.941228
1635.368932	-10.942839
1636.261514	-10.944649
1637.155070	-10.947031
1638.049602	-10.950792
1638.945113	-10.956264
1639.841603	-10.963583
1640.739075	-10.973283
1641.637529	-10.985703
1642.536968	-11.000658
1643.437393	-11.018148
1644.338806	-11.038286
1645.241209	-11.060636
1646.144602	-11.084724
1647.048988	-11.110413
1647.954368	-11.137294
1648.860744	-11.164713
1649.768118	-11.192392
1650.676491	-11.220165
1651.585865	-11.247557
1652.496241	-11.274332
1653.407621	-11.300596
1654.320008	-11.326270
1655.233401	-11.351262
1656.147804	-11.375901
1657.063218	-11.400514
1657.979645	-11.425093
1658.897085	-11.449906
1659.815542	-11.475419
1660.735016	-11.501662
1661.655509	-11.528588
1662.577023	-11.556520
1663.499560	-11.585535
1664.423121	-11.615282
1665.347709	-11.645763
1666.273324	-11.677128
1667.199969	-11.709015
1668.127645	-11.741027
1669.056353	-11.773349
1669.986097	-11.805974
1670.916877	-11.838362
1671.848695	-11.870456
1672.781553	-11.902656
1673.715452	-11.934801
1674.650395	-11.966592
1675.586383	-11.998470
1676.523418	-12.030857
1677.461501	-12.063478
1678.400635	-12.096282
1679.340821	-12.129823
1680.282061	-12.164138
1681.224357	-12.198759
1682.167710	-12.233792
1683.112122	-12.269560
1684.057595	-12.305700
1685.004132	-12.341815
1685.951732	-12.378198
1686.900400	-12.414977
1687.850135	-12.451704
1688.800940	-12.488333
1689.752818	-12.525319
1690.705768	-12.562609
1691.659795	-12.599870
1692.614898	-12.637388
1693.571081	-12.675543
1694.528345	-12.714095
1695.486691	-12.752851
1696.446122	-12.792155
1697.406640	-12.832097
1698.368245	-12.872292
1699.330941	-12.912708
1700.294729	-12.953677
1701.259611	-12.995134
1702.225588	-13.036840
1703.192664	-13.079068
1704.160838	-13.122175
1705.130114	-13.165989
1706.100493	-13.210362
1707.071977	-13.255574
1708.044568	-13.301709
1709.018268	-13.348442
1709.993079	-13.395713
1710.969003	-13.443742
1711.946041	-13.492423
1712.924196	-13.541495
1713.903469	-13.591048
1714.883862	-13.641211
1715.865378	-13.691773
1716.848017	-13.742622
1717.831783	-13.793863
1718.816677	-13.845391
1719.802701	-13.896927
1720.789857	-13.948483
1721.778147	-14.000092
1722.767573	-14.051464
1723.758136	-14.102433
1724.749840	-14.153265
1725.742685	-14.203986
1726.736673	-14.254289
1727.731808	-14.304223
1728.728090	-14.354105
1729.725521	-14.403765
1730.724105	-14.452838
1731.723842	-14.501456
1732.724735	-14.549891
1733.726785	-14.597990
1734.729995	-14.645543
1735.734366	-14.692784
1736.739902	-14.739961
1737.746603	-14.786970
1738.754472	-14.833657
1739.763510	-14.880191
1740.773721	-14.926736
1741.785105	-14.973108
1742.797665	-15.018980
1743.811403	-15.064438
1744.826321	-15.109602
1745.842422	-15.154193
1746.859706	-15.198002
1747.878177	-15.241235
1748.897835	-15.283935
1749.918685	-15.325770
1750.940726	-15.366687
1751.963963	-15.406883
1752.988395	-15.446222
1754.014027	-15.484456
1755.040860	-15.521595
1756.068895	-15.557651
1757.098135	-15.592466
1758.128583	-15.625927
1759.160240	-15.658012
1760.193109	-15.688808
1761.227191	-15.718363
1762.262488	-15.746658
1763.299004	-15.773811
1764.336740	-15.800017
1765.375697	-15.825213
1766.415880	-15.849186
1767.457288	-15.871944
1768.499926	-15.893541
1769.543794	-15.913888
1770.588895	-15.932915
1771.635231	-15.950795
1772.682805	-15.967724
1773.731619	-15.983791
1774.781674	-15.998969
1775.832973	-16.013280
1776.885519	-16.026694
1777.939312	-16.039087
1778.994357	-16.050217
1780.050654	-16.059948
1781.108207	-16.068258
1782.167017	-16.075220
1783.227087	-16.080942
1784.288418	-16.085528
1785.351013	-16.088978
1786.414875	-16.091260
1787.480006	-16.092263
1788.546407	-16.091766
1789.614082	-16.089531
1790.683032	-16.085461
1791.753259	-16.079627
1792.824767	-16.072063
1793.897557	-16.062806
1794.971632	-16.051991
1796.046994	-16.039817
1797.123645	-16.026338
1798.201588	-16.011487
1799.280824	-15.995266
1800.361357	-15.977766
1801.443188	-15.958909
1802.526320	-15.938529
1803.610756	-15.916618
1804.696497	-15.893289
1805.783546	-15.868668
1806.871906	-15.842916
1807.961578	-15.816282
1809.052565	-15.788983
1810.144870	-15.761080
1811.238494	-15.732443
1812.333441	-15.702991
1813.429713	-15.672617
1814.527311	-15.641198
1815.626239	-15.608758
1816.726499	-15.575540
1817.828094	-15.541868
1818.931025	-15.507982
1820.035295	-15.474040
1821.140906	-15.440112
1822.247862	-15.406149
1823.356165	-15.371884
1824.465816	-15.337140
1825.576819	-15.301977
1826.689175	-15.266593
1827.802888	-15.231162
1828.917960	-15.195821
1830.034394	-15.160727
1831.152191	-15.125993
1832.271354	-15.091548
1833.391887	-15.057177
1834.513790	-15.022768
1835.637068	-14.988247
1836.761722	-14.953671
1837.887755	-14.919098
1839.015169	-14.884594
1840.143968	-14.850278
1841.274153	-14.816228
1842.405727	-14.782482
1843.538693	-14.748985
1844.673053	-14.715540
1845.808810	-14.681950
1846.945966	-14.648006
1848.084525	-14.613583
1849.224488	-14.578623
1850.365858	-14.543187
1851.508638	-14.507488
1852.652831	-14.471720
1853.798438	-14.435961
1854.945463	-14.400225
1856.093909	-14.364452
1857.243777	-14.328602
1858.395071	-14.292597
1859.547794	-14.256420
1860.701947	-14.220217
1861.857533	-14.184188
1863.014556	-14.148483
1864.173018	-14.113151
1865.332922	-14.078210
1866.494270	-14.043620
1867.657065	-14.009257
1868.821309	-13.974988
1869.987006	-13.940704
1871.154158	-13.906417
1872.322768	-13.872182
1873.492839	-13.838043
1874.664373	-13.804039
1875.837373	-13.770118
1877.011841	-13.736222
1878.187782	-13.702360
1879.365197	-13.668608
1880.544089	-13.635099
1881.724460	-13.601898
1882.906315	-13.569095
1884.089655	-13.536755
1885.274483	-13.504976
1886.460803	-13.473744
1887.648616	-13.443016
1888.837927	-13.412786
1890.028736	-13.383074
1891.221049	-13.353915
1892.414866	-13.325275
1893.610192	-13.297094
1894.807028	-13.269342
1896.005379	-13.241984
1897.205246	-13.215008
1898.406633	-13.188368
1899.609542	-13.162089
1900.813977	-13.136141
1902.019940	-13.110523
1903.227434	-13.085263
1904.436462	-13.060409
1905.647028	-13.036039
1906.859133	-13.012151
1908.072781	-12.988719
1909.287976	-12.965629
1910.504719	-12.942853
1911.723013	-12.920394
1912.942863	-12.898324
1914.164270	-12.876661
1915.387238	-12.855309
1916.611770	-12.834126
1917.837868	-12.812983
1919.065536	-12.791864
1920.294777	-12.770838
1921.525594	-12.750055
1922.757989	-12.729599
1923.991967	-12.709455
1925.227529	-12.689498
1926.464679	-12.669612
1927.703420	-12.649772
1928.943755	-12.630073
1930.185688	-12.610601
1931.429221	-12.591379
1932.674356	-12.572405
1933.921099	-12.553629
1935.169451	-12.535095
1936.419415	-12.516833
1937.670996	-12.498865
1938.924195	-12.481138
1940.179017	-12.463578
1941.435463	-12.446170
1942.693538	-12.428939
1943.953245	-12.411943
1945.214586	-12.395289
1946.477566	-12.378952
1947.742186	-12.362881
1949.008451	-12.346979
1950.276363	-12.331234
1951.545926	-12.315883
1952.817143	-12.301219
1954.090017	-12.287365
1955.364551	-12.274291
1956.640749	-12.261748
1957.918615	-12.249633
1959.198150	-12.238034
1960.479359	-12.227056
1961.762244	-12.216861
1963.046810	-12.207394
1964.333059	-12.198368
1965.620995	-12.189610
1966.910621	-12.181001
1968.201940	-12.172630
1969.494956	-12.164745
1970.789672	-12.157363
1972.086091	-12.150345
1973.384217	-12.143549
1974.684053	-12.136818
1975.985602	-12.130094
1977.288869	-12.123351
1978.593855	-12.116436
1979.900566	-12.109336
1981.209003	-12.102169
1982.519171	-12.095082
1983.831073	-12.088152
1985.144712	-12.081268
1986.460093	-12.074248
1987.777217	-12.066969
1989.096089	-12.059497
1990.416713	-12.052146
1991.739092	-12.045338
1993.063228	-12.039238
1994.389127	-12.033601
1995.716791	-12.027928
1997.046223	-12.021823
1998.377428	-12.015341
1999.710409	-12.008886
2001.045169	-12.002752
2002.381713	-11.996919
2003.720043	-11.991097
2005.060163	-11.985073
2006.402077	-11.978910
2007.745788	-11.972931
2009.091301	-11.967480
2010.438618	-11.962801
2011.787743	-11.958957
2013.138680	-11.955842
2014.491433	-11.953274
2015.846005	-11.951095
2017.202399	-11.949344
2018.560621	-11.948297
2019.920673	-11.948360
2021.282558	-11.949758
2022.646281	-11.952332
2024.011846	-11.955602
2025.379256	-11.959172
2026.748515	-11.962999
2028.119626	-11.967437
2029.492594	-11.972921
2030.867422	-11.979570
2032.244114	-11.986952
2033.622673	-11.994429
2035.003104	-12.001687
2036.385411	-12.008961
2037.769597	-12.016686
2039.155665	-12.025075
2040.543621	-12.033927
2041.933467	-12.042870
2043.325208	-12.051667
2044.718847	-12.060352
2046.114389	-12.069136
2047.511837	-12.078211
2048.911195	-12.087572
2050.312467	-12.097025
2051.715657	-12.106295
2053.120769	-12.115230
2054.527807	-12.123902
2055.936775	-12.132535
2057.347677	-12.141330
2058.760516	-12.150292
2060.175297	-12.159245
2061.592025	-12.167964
2063.010701	-12.176425
2064.431332	-12.184925
2065.853921	-12.193879
2067.278472	-12.203435
2068.704988	-12.213311
2070.133475	-12.223073
2071.563936	-12.232592
2072.996375	-12.242155
2074.430796	-12.252201
2075.867204	-12.263007
2077.305603	-12.274605
2078.745996	-12.286992
2080.188389	-12.300235
2081.632784	-12.314419
2083.079187	-12.329505
2084.527601	-12.345441
2085.978030	-12.362336
2087.430480	-12.380360
2088.884954	-12.399458
2090.341455	-12.419322
2091.799990	-12.439727
2093.260561	-12.460838
2094.723173	-12.483032
2096.187831	-12.506451
2097.654538	-12.530836
2099.123300	-12.555765
2100.594119	-12.581038
2102.067001	-12.606757
2103.541950	-12.633101
2105.018971	-12.660088
2106.498067	-12.687554
2107.979243	-12.715313
2109.462503	-12.743287
2110.947853	-12.771423
2112.435295	-12.799579
2113.924836	-12.827564
2115.416478	-12.855376
2116.910227	-12.883136
2118.406087	-12.910841
2119.904063	-12.938350
2121.404158	-12.965610
2122.906378	-12.992740
2124.410727	-13.019956
2125.917210	-13.047525
2127.425831	-13.075664
2128.936594	-13.104425
2130.449505	-13.133589
2131.964567	-13.162854
2133.481786	-13.192256
2135.001166	-13.222259
2136.522711	-13.253237
2138.046427	-13.285028
2139.572317	-13.317181
2141.100388	-13.349589
2142.630642	-13.382659
2144.163085	-13.416709
2145.697722	-13.451546
2147.234558	-13.486892
2148.773596	-13.522867
2150.314842	-13.559823
2151.858301	-13.597895
2153.403977	-13.636896
2154.951875	-13.676792
2156.502000	-13.717961
2158.054357	-13.760795
2159.608950	-13.805232
2161.165785	-13.851089
2162.724866	-13.898698
2164.286198	-13.948561
2165.849786	-14.000416
2167.415635	-14.053495
2168.983749	-14.107932
2170.554134	-14.164793
2172.126795	-14.224165
2173.701737	-14.284358
2175.278964	-14.343776
2176.858481	-14.402644
2178.440294	-14.462024
2180.024408	-14.521878
2181.610827	-14.581101
2183.199557	-14.639025
2184.790602	-14.696064
2186.383968	-14.752671
2187.979660	-14.808333
2189.577683	-14.862355
2191.178041	-14.915074
2192.780741	-14.967316
2194.385787	-15.019168
2195.993185	-15.070282
2197.602939	-15.121045
2199.215054	-15.165597
