# 2022-03-12_10.53.33
# shape = sech2
# FWHM_ps = 0.2
# carrier_nm = 1542
# frep_MHz = 12126
# pow_mW = 8000
# GDD = 0.0
# propa_len = 0.17
# untap_len = 0.01
# taper_len = 0.12
# waist_len = 0.02
# uptap_len = 0.02
# untap_scale = 1.0
# waist_scale = 0.1
# workingDir = NL_20110305_12 (Spirou)
# axis = slow
# window_ps = 10.0
# steps = 200
# points = 13000
# 
# wavelength [nm]	 power spectral density [dB]
1000.248639	-33.047740
1000.582480	-32.496149
1000.916545	-32.526832
1001.250832	-32.713453
1001.585343	-32.654516
1001.920077	-32.198757
1002.255035	-32.478142
1002.590218	-32.335636
1002.925624	-32.199657
1003.261255	-31.990575
1003.597111	-32.492376
1003.933192	-32.122941
1004.269497	-32.021898
1004.606029	-32.030220
1004.942785	-32.266751
1005.279768	-32.131343
1005.616977	-32.006498
1005.954412	-32.231354
1006.292074	-32.254348
1006.629962	-32.254397
1006.968077	-32.003927
1007.306420	-32.373992
1007.644990	-32.220599
1007.983787	-32.371336
1008.322813	-32.231501
1008.662067	-32.369616
1009.001549	-32.188285
1009.341259	-32.293034
1009.681199	-32.291229
1010.021367	-32.166226
1010.361765	-32.369958
1010.702392	-32.228391
1011.043250	-32.135859
1011.384337	-31.848951
1011.725654	-32.318848
1012.067202	-31.926576
1012.408980	-31.813567
1012.750989	-31.830386
1013.093230	-32.054771
1013.435702	-31.585950
1013.778405	-31.412395
1014.121341	-31.720419
1014.464508	-31.726862
1014.807908	-31.338579
1015.151540	-31.184456
1015.495405	-31.527089
1015.839503	-31.273359
1016.183835	-31.111834
1016.528400	-31.128461
1016.873198	-31.488935
1017.218231	-30.956096
1017.563498	-30.862445
1017.908999	-31.047449
1018.254735	-31.395827
1018.600707	-30.940235
1018.946913	-30.739575
1019.293354	-31.115550
1019.640032	-31.176523
1019.986945	-30.950405
1020.334094	-30.699203
1020.681480	-31.264199
1021.029102	-30.985019
1021.376961	-30.914259
1021.725058	-30.777408
1022.073391	-31.248683
1022.421962	-31.038011
1022.770772	-30.703582
1023.119819	-30.960962
1023.469104	-31.155922
1023.818628	-31.078484
1024.168391	-30.595894
1024.518393	-31.073646
1024.868634	-31.016257
1025.219115	-30.973880
1025.569836	-30.720291
1025.920796	-31.038450
1026.271997	-31.005327
1026.623438	-30.763737
1026.975121	-30.902434
1027.327044	-30.902252
1027.679208	-31.046548
1028.031614	-30.685392
1028.384262	-30.892310
1028.737152	-30.871121
1029.090284	-30.905405
1029.443659	-30.694796
1029.797276	-30.789349
1030.151137	-30.831335
1030.505240	-30.704254
1030.859587	-30.688023
1031.214178	-30.635954
1031.569013	-30.783870
1031.924093	-30.507303
1032.279417	-30.595617
1032.634985	-30.512437
1032.990799	-30.583594
1033.346858	-30.417487
1033.703162	-30.459773
1034.059712	-30.466460
1034.416509	-30.335144
1034.773551	-30.433187
1035.130841	-30.373350
1035.488377	-30.477400
1035.846160	-30.231542
1036.204190	-30.363829
1036.562468	-30.384417
1036.920994	-30.374031
1037.279768	-30.287093
1037.638790	-30.382046
1037.998061	-30.483624
1038.357581	-30.281161
1038.717350	-30.299670
1039.077368	-30.269538
1039.437636	-30.462530
1039.798154	-30.236442
1040.158922	-30.280951
1040.519940	-30.325854
1040.881209	-30.282610
1041.242729	-30.084386
1041.604501	-30.113236
1041.966524	-30.341535
1042.328798	-30.049535
1042.691325	-30.017506
1043.054103	-30.063684
1043.417135	-30.211695
1043.780419	-29.905463
1044.143956	-29.877726
1044.507746	-30.054850
1044.871791	-30.019833
1045.236088	-29.867436
1045.600641	-29.775711
1045.965447	-30.048132
1046.330508	-29.830023
1046.695824	-29.816417
1047.061395	-29.802677
1047.427222	-29.907409
1047.793304	-29.774878
1048.159642	-29.663569
1048.526237	-29.861395
1048.893088	-29.716454
1049.260196	-29.714900
1049.627561	-29.674332
1049.995183	-29.826972
1050.363063	-29.616337
1050.731201	-29.607297
1051.099597	-29.708863
1051.468251	-29.673213
1051.837164	-29.617127
1052.206336	-29.538342
1052.575767	-29.741688
1052.945458	-29.546782
1053.315409	-29.584962
1053.685619	-29.590562
1054.056090	-29.584605
1054.426821	-29.506902
1054.797814	-29.553858
1055.169067	-29.683052
1055.540582	-29.440401
1055.912359	-29.461854
1056.284398	-29.465333
1056.656698	-29.605071
1057.029262	-29.413826
1057.402088	-29.371678
1057.775177	-29.504764
1058.148530	-29.373592
1058.522146	-29.337900
1058.896027	-29.263351
1059.270171	-29.398448
1059.644580	-29.167734
1060.019254	-29.176642
1060.394193	-29.271364
1060.769397	-29.125473
1061.144867	-29.059190
1061.520602	-28.955561
1061.896604	-29.090326
1062.272872	-28.859098
1062.649407	-28.825115
1063.026210	-28.855850
1063.403279	-28.757225
1063.780616	-28.662403
1064.158221	-28.538152
1064.536094	-28.667120
1064.914235	-28.415414
1065.292645	-28.376762
1065.671325	-28.372953
1066.050273	-28.329425
1066.429491	-28.248425
1066.808979	-28.152333
1067.188738	-28.240691
1067.568766	-28.012508
1067.949066	-28.123667
1068.329636	-28.083060
1068.710478	-28.032465
1069.091592	-27.954908
1069.472977	-27.984667
1069.854635	-28.142075
1070.236565	-27.847614
1070.618768	-27.952260
1071.001243	-27.990703
1071.383993	-27.994405
1071.767016	-27.905314
1072.150313	-27.985323
1072.533884	-28.013043
1072.917730	-27.819715
1073.301850	-28.019814
1073.686246	-27.996513
1074.070917	-28.007612
1074.455864	-27.884269
1074.841087	-28.014905
1075.226586	-28.024023
1075.612362	-27.879500
1075.998415	-28.040721
1076.384745	-27.976419
1076.771353	-27.978067
1077.158238	-27.817287
1077.545401	-27.980563
1077.932843	-27.896957
1078.320564	-27.769519
1078.708564	-27.859485
1079.096842	-27.733403
1079.485401	-27.706865
1079.874240	-27.550030
1080.263358	-27.631708
1080.652757	-27.488873
1081.042438	-27.365480
1081.432399	-27.404863
1081.822641	-27.230800
1082.213166	-27.152309
1082.603972	-27.071872
1082.995061	-27.079195
1083.386433	-26.924490
1083.778087	-26.786288
1084.170025	-26.832213
1084.562246	-26.702057
1084.954751	-26.611938
1085.347541	-26.594405
1085.740615	-26.533258
1086.133973	-26.446164
1086.527617	-26.373825
1086.921546	-26.457631
1087.315761	-26.291061
1087.710262	-26.231850
1088.105050	-26.275136
1088.500124	-26.229472
1088.895485	-26.161582
1089.291134	-26.087902
1089.687070	-26.166402
1090.083294	-25.968097
1090.479806	-26.014969
1090.876607	-26.040022
1091.273696	-25.893706
1091.671075	-25.844813
1092.068744	-25.819900
1092.466702	-25.858814
1092.864950	-25.662321
1093.263489	-25.702329
1093.662319	-25.656314
1094.061440	-25.524015
1094.460852	-25.547350
1094.860555	-25.491044
1095.260551	-25.447637
1095.660840	-25.325502
1096.061421	-25.404449
1096.462295	-25.311855
1096.863462	-25.209283
1097.264923	-25.309056
1097.666678	-25.230224
1098.068727	-25.171369
1098.471071	-25.152161
1098.873710	-25.220758
1099.276644	-25.126875
1099.679874	-25.074647
1100.083400	-25.167219
1100.487222	-25.044999
1100.891340	-25.012019
1101.295756	-25.038334
1101.700468	-24.992820
1102.105478	-24.910275
1102.510787	-24.867608
1102.916393	-24.894193
1103.322298	-24.798144
1103.728502	-24.764516
1104.135005	-24.781037
1104.541807	-24.656315
1104.948909	-24.683749
1105.356312	-24.698540
1105.764015	-24.598823
1106.172019	-24.543138
1106.580324	-24.574491
1106.988931	-24.589145
1107.397840	-24.394269
1107.807051	-24.433318
1108.216564	-24.424446
1108.626380	-24.257562
1109.036500	-24.244033
1109.446923	-24.180045
1109.857649	-24.084875
1110.268680	-23.939346
1110.680016	-23.951786
1111.091657	-23.839171
1111.503602	-23.668069
1111.915854	-23.710297
1112.328411	-23.569616
1112.741275	-23.492889
1113.154445	-23.459430
1113.567922	-23.401861
1113.981706	-23.307887
1114.395798	-23.263730
1114.810198	-23.301093
1115.224906	-23.113443
1115.639923	-23.111503
1116.055249	-23.128516
1116.470884	-22.971574
1116.886829	-22.918659
1117.303084	-22.909839
1117.719650	-22.808644
1118.136526	-22.683228
1118.553713	-22.690888
1118.971212	-22.625664
1119.389022	-22.460999
1119.807145	-22.480915
1120.225580	-22.451967
1120.644328	-22.309876
1121.063389	-22.329198
1121.482763	-22.313061
1121.902452	-22.229257
1122.322454	-22.219859
1122.742771	-22.253762
1123.163404	-22.189920
1123.584351	-22.159136
1124.005614	-22.221077
1124.427193	-22.157922
1124.849089	-22.123632
1125.271301	-22.182036
1125.693830	-22.112039
1126.116677	-22.078663
1126.539842	-22.107486
1126.963324	-22.061800
1127.387126	-22.016535
1127.811246	-22.018730
1128.235685	-22.036635
1128.660444	-21.932567
1129.085522	-21.989519
1129.510922	-22.004121
1129.936641	-21.923631
1130.362682	-21.984272
1130.789044	-21.988151
1131.215728	-21.982215
1131.642734	-21.964549
1132.070063	-22.026685
1132.497714	-21.986057
1132.925689	-21.947572
1133.353987	-22.005233
1133.782610	-21.913107
1134.211556	-21.867651
1134.640827	-21.840440
1135.070424	-21.766074
1135.500345	-21.634323
1135.930593	-21.605793
1136.361166	-21.467655
1136.792067	-21.371592
1137.223294	-21.266549
1137.654848	-21.194345
1138.086730	-21.063327
1138.518940	-20.995035
1138.951479	-20.981675
1139.384346	-20.826952
1139.817543	-20.890579
1140.251069	-20.833580
1140.684925	-20.823300
1141.119111	-20.855268
1141.553628	-20.909450
1141.988475	-20.922662
1142.423655	-20.970731
1142.859166	-21.080150
1143.295009	-21.095756
1143.731185	-21.125059
1144.167694	-21.249056
1144.604536	-21.194552
1145.041711	-21.210638
1145.479221	-21.238532
1145.917065	-21.140434
1146.355245	-21.062495
1146.793759	-21.012250
1147.232609	-20.859937
1147.671795	-20.703253
1148.111317	-20.594174
1148.551177	-20.446191
1148.991373	-20.219571
1149.431907	-20.156137
1149.872779	-19.993631
1150.313989	-19.807700
1150.755538	-19.794348
1151.197426	-19.654889
1151.639653	-19.574055
1152.082220	-19.573415
1152.525128	-19.553976
1152.968376	-19.507968
1153.411966	-19.596643
1153.855897	-19.639990
1154.300169	-19.665946
1154.744784	-19.795763
1155.189742	-19.922450
1155.635042	-19.949650
1156.080687	-20.132670
1156.526674	-20.265016
1156.973007	-20.267212
1157.419683	-20.453693
1157.866705	-20.497910
1158.314072	-20.480307
1158.761786	-20.532923
1159.209845	-20.520505
1159.658251	-20.379783
1160.107004	-20.322356
1160.556104	-20.222470
1161.005553	-19.987151
1161.455349	-19.845570
1161.905494	-19.702237
1162.355989	-19.422209
1162.806832	-19.260536
1163.258026	-19.123712
1163.709570	-18.842513
1164.161464	-18.736161
1164.613710	-18.610452
1165.066307	-18.403001
1165.519256	-18.342980
1165.972558	-18.271127
1166.426212	-18.156668
1166.880219	-18.132535
1167.334580	-18.156307
1167.789295	-18.094520
1168.244364	-18.146474
1168.699788	-18.232207
1169.155567	-18.229136
1169.611702	-18.339075
1170.068193	-18.478940
1170.525041	-18.509146
1170.982245	-18.664199
1171.439807	-18.824569
1171.897726	-18.861213
1172.356004	-19.039991
1172.814640	-19.161629
1173.273635	-19.195193
1173.732989	-19.325310
1174.192703	-19.390910
1174.652778	-19.378995
1175.113213	-19.416271
1175.574009	-19.427913
1176.035167	-19.324956
1176.496687	-19.290650
1176.958569	-19.240229
1177.420814	-19.051352
1177.883422	-18.986977
1178.346394	-18.870590
1178.809730	-18.651562
1179.273430	-18.580746
1179.737496	-18.419417
1180.201927	-18.225436
1180.666723	-18.151656
1181.131886	-17.990980
1181.597416	-17.840873
1182.063312	-17.770384
1182.529576	-17.641396
1182.996209	-17.530773
1183.463209	-17.476818
1183.930579	-17.386071
1184.398317	-17.312071
1184.866426	-17.285897
1185.334904	-17.224332
1185.803754	-17.186498
1186.272974	-17.191775
1186.742566	-17.146417
1187.212529	-17.144169
1187.682865	-17.170284
1188.153574	-17.131380
1188.624656	-17.167159
1189.096112	-17.191204
1189.567942	-17.160541
1190.040147	-17.227133
1190.512726	-17.227442
1190.985681	-17.215832
1191.459012	-17.288954
1191.932720	-17.263815
1192.406804	-17.267413
1192.881265	-17.331932
1193.356104	-17.279239
1193.831322	-17.302916
1194.306918	-17.332831
1194.782893	-17.278953
1195.259248	-17.291266
1195.735982	-17.308688
1196.213097	-17.242510
1196.690593	-17.245835
1197.168471	-17.252960
1197.646730	-17.173479
1198.125371	-17.178837
1198.604395	-17.170046
1199.083803	-17.087558
1199.563594	-17.095233
1200.043769	-17.076027
1200.524329	-16.992064
1201.005273	-17.012161
1201.486604	-16.968822
1201.968320	-16.906940
1202.450422	-16.925369
1202.932912	-16.864562
1203.415789	-16.831755
1203.899054	-16.832668
1204.382707	-16.771539
1204.866748	-16.765645
1205.351179	-16.735134
1205.836000	-16.691676
1206.321211	-16.698433
1206.806812	-16.640138
1207.292805	-16.620394
1207.779189	-16.624600
1208.265965	-16.543387
1208.753134	-16.556912
1209.240696	-16.535767
1209.728651	-16.451693
1210.217000	-16.486035
1210.705744	-16.437370
1211.194883	-16.361328
1211.684417	-16.407172
1212.174347	-16.334464
1212.664673	-16.267976
1213.155396	-16.322917
1213.646516	-16.227306
1214.138034	-16.179283
1214.629951	-16.229377
1215.122266	-16.122431
1215.614980	-16.098293
1216.108095	-16.130067
1216.601609	-16.026300
1217.095524	-16.017555
1217.589841	-16.046048
1218.084559	-15.922466
1218.579679	-15.952349
1219.075202	-15.972129
1219.571128	-15.816590
1220.067458	-15.901790
1220.564191	-15.909202
1221.061330	-15.713697
1221.558874	-15.865461
1222.056823	-15.845317
1222.555178	-15.632236
1223.053940	-15.828719
1223.553109	-15.780876
1224.052686	-15.578683
1224.552671	-15.784408
1225.053065	-15.716966
1225.553867	-15.557691
1226.055079	-15.721464
1226.556702	-15.666074
1227.058735	-15.552192
1227.561179	-15.650901
1228.064035	-15.626314
1228.567303	-15.550029
1229.070983	-15.585091
1229.575077	-15.592816
1230.079585	-15.541437
1230.584506	-15.535284
1231.089842	-15.554141
1231.595594	-15.528086
1232.101761	-15.497700
1232.608345	-15.504900
1233.115345	-15.512489
1233.622762	-15.459576
1234.130597	-15.451021
1234.638851	-15.487289
1235.147523	-15.415161
1235.656615	-15.390064
1236.166126	-15.449698
1236.676058	-15.353601
1237.186411	-15.326352
1237.697185	-15.386284
1238.208381	-15.280866
1238.719999	-15.248388
1239.232040	-15.301397
1239.744505	-15.192016
1240.257394	-15.153866
1240.770708	-15.196769
1241.284446	-15.084969
1241.798610	-15.044766
1242.313201	-15.072683
1242.828218	-14.964993
1243.343662	-14.920120
1243.859534	-14.937031
1244.375834	-14.832977
1244.892563	-14.784595
1245.409721	-14.794084
1245.927309	-14.693422
1246.445327	-14.642380
1246.963777	-14.650974
1247.482657	-14.547651
1248.001970	-14.502381
1248.521716	-14.509528
1249.041894	-14.400975
1249.562506	-14.368808
1250.083553	-14.370001
1250.605034	-14.258554
1251.126950	-14.245273
1251.649302	-14.233006
1252.172091	-14.125985
1252.695316	-14.131455
1253.218979	-14.099591
1253.743079	-14.007337
1254.267619	-14.024349
1254.792597	-13.973133
1255.318015	-13.903693
1255.843874	-13.922650
1256.370173	-13.857851
1256.896913	-13.813826
1257.424095	-13.826489
1257.951720	-13.756021
1258.479787	-13.735997
1259.008298	-13.736693
1259.537254	-13.669758
1260.066654	-13.670370
1260.596499	-13.654817
1261.126790	-13.602451
1261.657527	-13.614735
1262.188711	-13.584210
1262.720342	-13.553869
1263.252422	-13.566714
1263.784950	-13.529938
1264.317928	-13.521558
1264.851355	-13.528122
1265.385232	-13.494367
1265.919560	-13.504352
1266.454340	-13.498300
1266.989572	-13.479803
1267.525256	-13.495431
1268.061394	-13.482443
1268.597985	-13.480271
1269.135031	-13.494834
1269.672531	-13.480099
1270.210487	-13.493393
1270.748899	-13.498018
1271.287768	-13.492839
1271.827094	-13.509191
1272.366877	-13.508251
1272.907119	-13.512903
1273.447820	-13.526244
1273.988981	-13.523369
1274.530601	-13.536035
1275.072683	-13.541143
1275.615226	-13.541514
1276.158230	-13.555674
1276.701697	-13.552145
1277.245627	-13.560264
1277.790021	-13.566945
1278.334879	-13.561228
1278.880202	-13.574277
1279.425991	-13.569099
1279.972245	-13.568098
1280.518966	-13.578089
1281.066155	-13.563053
1281.613811	-13.571337
1282.161936	-13.568311
1282.710529	-13.553328
1283.259593	-13.565844
1283.809126	-13.546160
1284.359131	-13.541973
1284.909607	-13.544033
1285.460555	-13.518245
1286.011976	-13.521834
1286.563870	-13.507864
1287.116237	-13.486608
1287.669080	-13.487882
1288.222397	-13.461981
1288.776191	-13.447342
1289.330460	-13.438813
1289.885207	-13.408550
1290.440431	-13.395837
1290.996133	-13.377979
1291.552314	-13.346194
1292.108975	-13.332975
1292.666115	-13.305911
1293.223737	-13.274978
1293.781839	-13.258494
1294.340424	-13.224958
1294.899491	-13.194122
1295.459041	-13.176590
1296.019075	-13.134343
1296.579593	-13.109851
1297.140597	-13.086597
1297.702086	-13.038154
1298.264061	-13.027041
1298.826524	-12.983777
1299.389474	-12.951011
1299.952912	-12.934513
1300.516839	-12.884080
1301.081255	-12.869131
1301.646162	-12.833741
1302.211559	-12.798925
1302.777448	-12.780019
1303.343829	-12.742316
1303.910702	-12.717929
1304.478069	-12.692034
1305.045930	-12.661961
1305.614285	-12.636475
1306.183136	-12.615192
1306.752483	-12.582721
1307.322326	-12.565221
1307.892666	-12.540023
1308.463504	-12.511878
1309.034841	-12.500145
1309.606677	-12.467320
1310.179012	-12.453068
1310.751849	-12.433471
1311.325186	-12.406217
1311.899025	-12.397309
1312.473366	-12.371673
1313.048211	-12.354536
1313.623559	-12.344037
1314.199412	-12.318308
1314.775770	-12.309806
1315.352634	-12.295917
1315.930004	-12.272756
1316.507881	-12.274018
1317.086266	-12.250445
1317.665159	-12.241766
1318.244562	-12.240821
1318.824474	-12.214375
1319.404897	-12.223832
1319.985831	-12.206679
1320.567276	-12.197627
1321.149234	-12.205454
1321.731706	-12.183878
1322.314691	-12.192300
1322.898190	-12.186159
1323.482205	-12.177937
1324.066736	-12.185641
1324.651783	-12.176796
1325.237347	-12.178516
1325.823430	-12.179643
1326.410031	-12.178308
1326.997151	-12.176341
1327.584791	-12.182727
1328.172952	-12.178038
1328.761634	-12.179240
1329.350839	-12.188797
1329.940566	-12.174496
1330.530817	-12.193444
1331.121592	-12.183331
1331.712891	-12.185206
1332.304716	-12.199916
1332.897068	-12.180236
1333.489946	-12.205399
1334.083352	-12.191528
1334.677287	-12.197762
1335.271750	-12.210187
1335.866744	-12.193331
1336.462268	-12.217735
1337.058323	-12.204555
1337.654910	-12.211882
1338.252029	-12.221034
1338.849682	-12.209870
1339.447869	-12.225907
1340.046591	-12.219443
1340.645848	-12.221663
1341.245641	-12.227523
1341.845972	-12.222627
1342.446840	-12.224892
1343.048246	-12.227317
1343.650191	-12.221622
1344.252677	-12.224032
1344.855702	-12.223035
1345.459269	-12.215488
1346.063379	-12.220125
1346.668030	-12.211547
1347.273226	-12.209275
1347.878965	-12.208810
1348.485250	-12.200003
1349.092080	-12.198191
1349.699456	-12.196761
1350.307380	-12.181052
1350.915851	-12.191713
1351.524871	-12.170032
1352.134441	-12.171854
1352.744560	-12.172178
1353.355231	-12.142758
1353.966453	-12.168344
1354.578227	-12.128247
1355.190555	-12.138849
1355.803436	-12.131289
1356.416872	-12.100613
1357.030863	-12.123716
1357.645411	-12.082044
1358.260515	-12.091689
1358.876177	-12.076928
1359.492397	-12.056202
1360.109176	-12.060418
1360.726516	-12.035805
1361.344416	-12.029440
1361.962877	-12.020940
1362.581901	-12.002093
1363.201487	-11.996193
1363.821637	-11.984583
1364.442352	-11.965781
1365.063632	-11.964539
1365.685478	-11.941852
1366.307891	-11.934349
1366.930871	-11.923396
1367.554420	-11.903734
1368.178538	-11.899104
1368.803226	-11.881776
1369.428485	-11.866829
1370.054315	-11.862080
1370.680717	-11.837670
1371.307693	-11.832981
1371.935242	-11.818544
1372.563366	-11.797407
1373.192065	-11.799699
1373.821341	-11.769634
1374.451193	-11.769517
1375.081623	-11.753195
1375.712632	-11.733599
1376.344221	-11.734604
1376.976389	-11.706234
1377.609139	-11.704520
1378.242470	-11.687103
1378.876384	-11.671886
1379.510881	-11.663625
1380.145963	-11.648691
1380.781629	-11.632042
1381.417881	-11.630846
1382.054720	-11.603427
1382.692147	-11.605524
1383.330161	-11.585587
1383.968765	-11.571495
1384.607959	-11.571309
1385.247743	-11.541009
1385.888119	-11.548529
1386.529087	-11.521916
1387.170648	-11.517596
1387.812804	-11.506056
1388.455554	-11.491022
1389.098899	-11.481502
1389.742842	-11.474457
1390.387381	-11.451920
1391.032519	-11.456731
1391.678256	-11.431060
1392.324592	-11.427713
1392.971529	-11.419759
1393.619068	-11.395567
1394.267208	-11.403479
1394.915952	-11.373911
1395.565300	-11.375692
1396.215253	-11.360151
1396.865812	-11.347537
1397.516977	-11.340965
1398.168749	-11.329037
1398.821130	-11.313770
1399.474120	-11.314034
1400.127719	-11.289082
1400.781930	-11.291276
1401.436752	-11.273654
1402.092186	-11.260584
1402.748234	-11.261033
1403.404897	-11.233062
1404.062174	-11.240523
1404.720067	-11.215042
1405.378577	-11.212657
1406.037705	-11.199330
1406.697451	-11.188688
1407.357817	-11.175437
1408.018803	-11.173782
1408.680410	-11.146788
1409.342639	-11.158471
1410.005492	-11.125020
1410.668968	-11.134237
1411.333068	-11.112202
1411.997795	-11.105759
1412.663147	-11.098159
1413.329127	-11.083395
1413.995736	-11.075898
1414.662973	-11.067537
1415.330840	-11.050482
1415.999339	-11.049680
1416.668469	-11.030918
1417.338232	-11.023836
1418.008628	-11.018039
1418.679659	-10.995741
1419.351325	-11.002967
1420.023628	-10.975087
1420.696568	-10.980211
1421.370145	-10.962215
1422.044362	-10.956625
1422.719219	-10.947231
1423.394717	-10.941844
1424.070856	-10.926313
1424.747638	-10.933757
1425.425064	-10.907402
1426.103134	-10.923305
1426.781850	-10.898139
1427.461212	-10.908525
1428.141221	-10.895147
1428.821878	-10.896623
1429.503185	-10.890570
1430.185141	-10.892746
1430.867749	-10.882339
1431.551008	-10.894274
1432.234920	-10.876046
1432.919486	-10.893694
1433.604707	-10.877284
1434.290583	-10.888558
1434.977116	-10.883667
1435.664307	-10.884436
1436.352156	-10.886634
1437.040664	-10.887592
1437.729833	-10.883525
1438.419663	-10.894335
1439.110156	-10.881599
1439.801312	-10.896138
1440.493132	-10.886469
1441.185617	-10.892070
1441.878768	-10.893249
1442.572586	-10.889262
1443.267072	-10.893985
1443.962228	-10.890833
1444.658053	-10.887984
1445.354549	-10.891950
1446.051717	-10.880331
1446.749558	-10.885573
1447.448073	-10.874009
1448.147263	-10.870294
1448.847128	-10.865219
1449.547671	-10.850277
1450.248891	-10.846419
1450.950789	-10.829078
1451.653368	-10.814620
1452.356627	-10.802184
1453.060568	-10.774386
1453.765192	-10.761079
1454.470500	-10.729154
1455.176492	-10.703716
1455.883170	-10.674129
1456.590534	-10.635936
1457.298586	-10.602473
1458.007327	-10.561017
1458.716758	-10.514360
1459.426880	-10.475024
1460.137693	-10.415379
1460.849199	-10.373365
1461.561398	-10.309340
1462.274293	-10.257709
1462.987883	-10.195576
1463.702170	-10.134815
1464.417155	-10.072388
1465.132838	-10.011014
1465.849222	-9.942153
1466.566306	-9.887422
1467.284093	-9.812837
1468.002582	-9.763052
1468.721775	-9.691923
1469.441674	-9.641248
1470.162278	-9.581144
1470.883590	-9.530556
1471.605609	-9.479649
1472.328338	-9.437815
1473.051777	-9.391073
1473.775928	-9.364759
1474.500790	-9.323441
1475.226367	-9.312023
1475.952657	-9.284009
1476.679663	-9.283433
1477.407386	-9.275542
1478.135826	-9.285573
1478.864985	-9.297857
1479.594863	-9.324435
1480.325463	-9.352399
1481.056784	-9.402769
1481.788828	-9.445913
1482.521597	-9.521405
1483.255090	-9.587442
1483.989309	-9.684250
1484.724256	-9.782126
1485.459931	-9.898566
1486.196336	-10.028117
1486.933471	-10.166730
1487.671337	-10.317607
1488.409937	-10.477059
1489.149270	-10.636363
1489.889337	-10.803848
1490.630141	-10.962239
1491.371682	-11.116759
1492.113961	-11.266762
1492.856979	-11.390997
1493.600738	-11.521226
1494.345238	-11.610172
1495.090481	-11.706357
1495.836467	-11.762964
1496.583198	-11.815971
1497.330675	-11.835533
1498.078899	-11.841841
1498.827872	-11.806733
1499.577593	-11.759161
1500.328065	-11.654912
1501.079289	-11.540859
1501.831265	-11.370354
1502.583995	-11.182753
1503.337480	-10.960165
1504.091721	-10.711835
1504.846719	-10.454779
1505.602475	-10.178594
1506.358991	-9.912097
1507.116268	-9.645952
1507.874306	-9.402355
1508.633108	-9.175491
1509.392673	-8.985020
1510.153004	-8.816469
1510.914101	-8.698971
1511.675965	-8.603278
1512.438599	-8.569963
1513.202002	-8.564394
1513.966176	-8.627518
1514.731122	-8.735375
1515.496842	-8.915921
1516.263336	-9.162182
1517.030607	-9.487408
1517.798654	-9.891769
1518.567479	-10.386471
1519.337083	-10.966699
1520.107468	-11.654512
1520.878634	-12.446277
1521.650584	-13.373395
1522.423317	-14.452693
1523.196836	-15.694883
1523.971141	-17.095201
1524.746233	-18.455201
1525.522115	-19.358551
1526.298786	-19.159492
1527.076249	-17.913882
1527.854504	-16.222602
1528.633553	-14.547663
1529.413397	-13.053874
1530.194037	-11.749219
1530.975474	-10.613794
1531.757709	-9.593406
1532.540745	-8.652171
1533.324581	-7.755366
1534.109220	-6.875076
1534.894662	-6.020290
1535.680909	-5.178648
1536.467961	-4.389174
1537.255821	-3.651145
1538.044489	-3.003733
1538.833967	-2.451788
1539.624256	-2.020830
1540.415357	-1.715571
1541.207271	-1.548557
1542.000000	-1.517412
1542.793545	-1.623397
1543.587907	-1.852182
1544.383087	-2.193309
1545.179088	-2.622085
1545.975909	-3.119475
1546.773552	-3.661471
1547.572019	-4.231304
1548.371311	-4.822620
1549.171428	-5.430364
1549.972373	-6.070851
1550.774147	-6.745208
1551.576751	-7.476405
1552.380185	-8.254700
1553.184453	-9.085278
1553.989554	-9.927137
1554.795490	-10.742813
1555.602263	-11.449565
1556.409873	-11.978823
1557.218322	-12.268816
1558.027612	-12.319582
1558.837743	-12.167687
1559.648717	-11.882980
1560.460536	-11.516611
1561.273200	-11.122349
1562.086710	-10.712156
1562.901069	-10.322703
1563.716278	-9.942818
1564.532337	-9.607613
1565.349249	-9.298577
1566.167014	-9.047856
1566.985634	-8.834952
1567.805111	-8.684201
1568.625444	-8.574790
1569.446637	-8.523611
1570.268690	-8.510226
1571.091605	-8.549208
1571.915382	-8.620112
1572.740024	-8.739423
1573.565532	-8.887667
1574.391907	-9.080921
1575.219150	-9.305186
1576.047262	-9.567986
1576.876246	-9.867555
1577.706103	-10.196153
1578.536833	-10.567982
1579.368439	-10.960499
1580.200922	-11.400851
1581.034282	-11.859447
1581.868522	-12.366899
1582.703643	-12.895451
1583.539646	-13.469931
1584.376532	-14.068389
1585.214304	-14.705840
1586.052962	-15.363807
1586.892508	-16.043016
1587.732943	-16.727191
1588.574269	-17.386069
1589.416487	-18.013170
1590.259599	-18.527289
1591.103605	-18.944711
1591.948508	-19.163690
1592.794309	-19.227027
1593.641009	-19.105427
1594.488609	-18.837169
1595.337112	-18.488218
1596.186518	-18.054431
1597.036829	-17.625708
1597.888047	-17.173401
1598.740172	-16.756160
1599.593207	-16.353268
1600.447153	-15.986111
1601.302010	-15.648804
1602.157782	-15.340617
1603.014469	-15.064993
1603.872072	-14.810151
1604.730593	-14.588214
1605.590034	-14.377579
1606.450397	-14.201455
1607.311681	-14.029210
1608.173890	-13.890502
1609.037024	-13.755257
1609.901085	-13.645504
1610.766075	-13.546541
1611.631995	-13.459852
1612.498846	-13.393227
1613.366630	-13.326963
1614.235349	-13.284486
1615.105004	-13.237246
1615.975596	-13.210082
1616.847128	-13.179431
1617.719600	-13.161050
1618.593014	-13.142583
1619.467372	-13.129472
1620.342675	-13.119354
1621.218924	-13.111224
1622.096122	-13.109060
1622.974270	-13.106400
1623.853369	-13.113286
1624.733420	-13.115450
1625.614427	-13.130084
1626.496389	-13.135495
1627.379308	-13.151960
1628.263187	-13.158968
1629.148026	-13.169314
1630.033828	-13.175905
1630.920593	-13.175729
1631.808324	-13.180046
1632.697022	-13.171701
1633.586688	-13.172214
1634.477324	-13.160552
1635.368932	-13.155385
1636.261514	-13.142405
1637.155070	-13.129976
1638.049602	-13.114064
1638.945113	-13.093944
1639.841603	-13.072681
1640.739075	-13.045178
1641.637529	-13.018431
1642.536968	-12.984706
1643.437393	-12.954597
1644.338806	-12.916031
1645.241209	-12.883252
1646.144602	-12.842246
1647.048988	-12.805573
1647.954368	-12.765080
1648.860744	-12.722880
1649.768118	-12.684273
1650.676491	-12.638112
1651.585865	-12.601189
1652.496241	-12.555700
1653.407621	-12.518612
1654.320008	-12.476988
1655.233401	-12.438250
1656.147804	-12.400731
1657.063218	-12.361184
1657.979645	-12.326386
1658.897085	-12.288043
1659.815542	-12.255198
1660.735016	-12.219818
1661.655509	-12.189730
1662.577023	-12.157579
1663.499560	-12.129969
1664.423121	-12.100563
1665.347709	-12.074411
1666.273324	-12.049291
1667.199969	-12.024244
1668.127645	-12.004903
1669.056353	-11.981582
1669.986097	-11.967004
1670.916877	-11.947244
1671.848695	-11.934664
1672.781553	-11.920416
1673.715452	-11.908102
1674.650395	-11.899926
1675.586383	-11.888780
1676.523418	-11.884799
1677.461501	-11.876334
1678.400635	-11.873929
1679.340821	-11.868982
1680.282061	-11.867332
1681.224357	-11.865574
1682.167710	-11.864985
1683.112122	-11.866087
1684.057595	-11.866877
1685.004132	-11.870855
1685.951732	-11.872339
1686.900400	-11.878695
1687.850135	-11.880738
1688.800940	-11.888526
1689.752818	-11.893206
1690.705768	-11.901169
1691.659795	-11.910045
1692.614898	-11.917132
1693.571081	-11.929510
1694.528345	-11.936233
1695.486691	-11.949215
1696.446122	-11.956954
1697.406640	-11.968642
1698.368245	-11.979502
1699.330941	-11.990502
1700.294729	-12.003758
1701.259611	-12.013872
1702.225588	-12.027261
1703.192664	-12.036962
1704.160838	-12.050160
1705.130114	-12.060369
1706.100493	-12.073850
1707.071977	-12.085181
1708.044568	-12.098492
1709.018268	-12.111527
1709.993079	-12.123152
1710.969003	-12.138021
1711.946041	-12.148157
1712.924196	-12.164509
1713.903469	-12.175495
1714.883862	-12.191723
1715.865378	-12.205722
1716.848017	-12.219832
1717.831783	-12.236881
1718.816677	-12.249148
1719.802701	-12.267080
1720.789857	-12.279943
1721.778147	-12.297764
1722.767573	-12.313669
1723.758136	-12.330936
1724.749840	-12.348632
1725.742685	-12.364581
1726.736673	-12.382236
1727.731808	-12.397435
1728.728090	-12.414905
1729.725521	-12.430111
1730.724105	-12.448487
1731.723842	-12.463900
1732.724735	-12.481997
1733.726785	-12.497834
1734.729995	-12.513854
1735.734366	-12.530567
1736.739902	-12.544519
1737.746603	-12.562254
1738.754472	-12.575787
1739.763510	-12.593436
1740.773721	-12.608016
1741.785105	-12.624421
1742.797665	-12.640075
1743.811403	-12.655319
1744.826321	-12.672013
1745.842422	-12.687816
1746.859706	-12.706362
1747.878177	-12.723233
1748.897835	-12.743478
1749.918685	-12.760313
1750.940726	-12.781206
1751.963963	-12.798817
1752.988395	-12.818356
1754.014027	-12.837993
1755.040860	-12.855732
1756.068895	-12.877747
1757.098135	-12.894858
1758.128583	-12.917020
1759.160240	-12.935011
1760.193109	-12.954996
1761.227191	-12.974376
1762.262488	-12.992472
1763.299004	-13.013166
1764.336740	-13.031830
1765.375697	-13.052074
1766.415880	-13.071312
1767.457288	-13.089925
1768.499926	-13.108758
1769.543794	-13.126819
1770.588895	-13.145566
1771.635231	-13.164063
1772.682805	-13.182253
1773.731619	-13.200274
1774.781674	-13.217193
1775.832973	-13.235737
1776.885519	-13.250510
1777.939312	-13.270353
1778.994357	-13.284594
1780.050654	-13.305300
1781.108207	-13.322072
1782.167017	-13.339979
1783.227087	-13.360554
1784.288418	-13.375448
1785.351013	-13.399074
1786.414875	-13.414938
1787.480006	-13.437986
1788.546407	-13.457023
1789.614082	-13.477089
1790.683032	-13.498252
1791.753259	-13.516833
1792.824767	-13.538180
1793.897557	-13.558323
1794.971632	-13.578502
1796.046994	-13.599654
1797.123645	-13.618469
1798.201588	-13.638237
1799.280824	-13.657361
1800.361357	-13.676330
1801.443188	-13.697155
1802.526320	-13.716000
1803.610756	-13.735255
1804.696497	-13.753434
1805.783546	-13.770431
1806.871906	-13.789416
1807.961578	-13.806418
1809.052565	-13.826037
1810.144870	-13.843908
1811.238494	-13.862022
1812.333441	-13.880227
1813.429713	-13.898238
1814.527311	-13.918224
1815.626239	-13.937264
1816.726499	-13.958068
1817.828094	-13.977553
1818.931025	-13.997871
1820.035295	-14.016751
1821.140906	-14.036290
1822.247862	-14.056667
1823.356165	-14.076588
1824.465816	-14.098116
1825.576819	-14.117263
1826.689175	-14.137067
1827.802888	-14.154965
1828.917960	-14.173561
1830.034394	-14.193035
1831.152191	-14.211811
1832.271354	-14.230559
1833.391887	-14.248428
1834.513790	-14.266164
1835.637068	-14.283825
1836.761722	-14.301676
1837.887755	-14.319353
1839.015169	-14.337903
1840.143968	-14.355210
1841.274153	-14.372783
1842.405727	-14.389602
1843.538693	-14.406505
1844.673053	-14.424769
1845.808810	-14.442300
1846.945966	-14.460399
1848.084525	-14.476829
1849.224488	-14.494187
1850.365858	-14.511394
1851.508638	-14.530056
1852.652831	-14.548299
1853.798438	-14.567256
1854.945463	-14.585263
1856.093909	-14.601998
1857.243777	-14.619030
1858.395071	-14.635074
1859.547794	-14.653488
1860.701947	-14.670695
1861.857533	-14.688272
1863.014556	-14.703322
1864.173018	-14.716725
1865.332922	-14.730547
1866.494270	-14.744811
1867.657065	-14.760564
1868.821309	-14.774328
1869.987006	-14.787842
1871.154158	-14.799314
1872.322768	-14.811453
1873.492839	-14.822689
1874.664373	-14.834395
1875.837373	-14.845361
1877.011841	-14.854764
1878.187782	-14.864360
1879.365197	-14.872111
1880.544089	-14.881286
1881.724460	-14.889478
1882.906315	-14.898834
1884.089655	-14.907457
1885.274483	-14.916481
1886.460803	-14.925489
1887.648616	-14.933923
1888.837927	-14.942556
1890.028736	-14.950178
1891.221049	-14.958298
1892.414866	-14.965709
1893.610192	-14.974618
1894.807028	-14.982230
1896.005379	-14.989906
1897.205246	-14.997149
1898.406633	-15.004479
1899.609542	-15.012181
1900.813977	-15.019694
1902.019940	-15.027523
1903.227434	-15.033635
1904.436462	-15.039560
1905.647028	-15.044983
1906.859133	-15.050695
1908.072781	-15.055252
1909.287976	-15.059707
1910.504719	-15.063232
1911.723013	-15.066132
1912.942863	-15.069653
1914.164270	-15.072490
1915.387238	-15.074922
1916.611770	-15.076389
1917.837868	-15.078098
1919.065536	-15.078713
1920.294777	-15.078461
1921.525594	-15.078029
1922.757989	-15.077364
1923.991967	-15.075841
1925.227529	-15.073153
1926.464679	-15.069853
1927.703420	-15.065552
1928.943755	-15.061883
1930.185688	-15.058007
1931.429221	-15.054731
1932.674356	-15.052378
1933.921099	-15.050024
1935.169451	-15.047457
1936.419415	-15.044712
1937.670996	-15.042292
1938.924195	-15.040221
1940.179017	-15.038678
1941.435463	-15.036190
1942.693538	-15.033352
1943.953245	-15.030200
1945.214586	-15.027147
1946.477566	-15.024273
1947.742186	-15.021538
1949.008451	-15.019013
1950.276363	-15.015755
1951.545926	-15.012839
1952.817143	-15.010057
1954.090017	-15.007913
1955.364551	-15.005376
1956.640749	-15.002637
1957.918615	-14.998760
1959.198150	-14.994504
1960.479359	-14.990216
1961.762244	-14.985283
1963.046810	-14.979290
1964.333059	-14.972536
1965.620995	-14.965824
1966.910621	-14.958170
1968.201940	-14.950172
1969.494956	-14.941360
1970.789672	-14.933383
1972.086091	-14.924454
1973.384217	-14.915072
1974.684053	-14.905673
1975.985602	-14.897646
1977.288869	-14.889408
1978.593855	-14.880522
1979.900566	-14.870950
1981.209003	-14.860710
1982.519171	-14.850209
1983.831073	-14.840303
1985.144712	-14.831447
1986.460093	-14.821650
1987.777217	-14.811068
1989.096089	-14.800966
1990.416713	-14.792754
1991.739092	-14.783882
1993.063228	-14.773460
1994.389127	-14.762447
1995.716791	-14.752612
1997.046223	-14.743370
1998.377428	-14.735473
1999.710409	-14.729377
2001.045169	-14.724981
2002.381713	-14.721238
2003.720043	-14.715585
2005.060163	-14.707195
2006.402077	-14.696645
2007.745788	-14.685773
2009.091301	-14.676145
2010.438618	-14.669051
2011.787743	-14.662990
2013.138680	-14.658246
2014.491433	-14.658497
2015.846005	-14.663403
2017.202399	-14.665153
2018.560621	-14.658429
2019.920673	-14.645363
2021.282558	-14.631879
2022.646281	-14.616277
2024.011846	-14.593266
2025.379256	-14.564589
2026.748515	-14.538718
2028.119626	-14.521165
2029.492594	-14.510757
2030.867422	-14.502843
2032.244114	-14.496182
2033.622673	-14.495025
2035.003104	-14.501408
2036.385411	-14.511589
2037.769597	-14.517836
2039.155665	-14.518519
2040.543621	-14.517529
2041.933467	-14.515921
2043.325208	-14.509660
2044.718847	-14.495771
2046.114389	-14.474632
2047.511837	-14.451990
2048.911195	-14.434384
2050.312467	-14.420968
2051.715657	-14.407676
2053.120769	-14.396978
2054.527807	-14.393748
2055.936775	-14.392860
2057.347677	-14.383155
2058.760516	-14.363225
2060.175297	-14.342217
2061.592025	-14.323549
2063.010701	-14.304118
2064.431332	-14.285852
2065.853921	-14.276858
2067.278472	-14.282293
2068.704988	-14.295916
2070.133475	-14.312025
2071.563936	-14.331910
2072.996375	-14.358271
2074.430796	-14.385505
2075.867204	-14.404755
2077.305603	-14.418297
2078.745996	-14.431697
2080.188389	-14.441086
2081.632784	-14.442516
2083.079187	-14.438802
2084.527601	-14.433669
2085.978030	-14.425581
2087.430480	-14.413438
2088.884954	-14.399983
2090.341455	-14.386951
2091.799990	-14.372504
2093.260561	-14.359323
2094.723173	-14.351573
2096.187831	-14.350733
2097.654538	-14.353095
2099.123300	-14.360722
2100.594119	-14.379457
2102.067001	-14.405174
2103.541950	-14.429156
2105.018971	-14.451803
2106.498067	-14.476246
2107.979243	-14.495891
2109.462503	-14.506353
2110.947853	-14.513533
2112.435295	-14.520681
2113.924836	-14.526120
2115.416478	-14.529174
2116.910227	-14.533170
2118.406087	-14.538260
2119.904063	-14.540383
2121.404158	-14.537731
2122.906378	-14.529723
2124.410727	-14.517955
2125.917210	-14.502621
2127.425831	-14.482349
2128.936594	-14.460473
2130.449505	-14.440728
2131.964567	-14.423972
2133.481786	-14.412460
2135.001166	-14.407305
2136.522711	-14.411858
2138.046427	-14.431307
2139.572317	-14.461297
2141.100388	-14.494579
2142.630642	-14.533806
2144.163085	-14.577349
2145.697722	-14.614025
2147.234558	-14.642056
2148.773596	-14.664864
2150.314842	-14.683040
2151.858301	-14.697575
2153.403977	-14.711781
2154.951875	-14.729093
2156.502000	-14.753935
2158.054357	-14.783233
2159.608950	-14.811132
2161.165785	-14.838633
2162.724866	-14.866279
2164.286198	-14.889516
2165.849786	-14.906558
2167.415635	-14.922148
2168.983749	-14.938950
2170.554134	-14.958358
2172.126795	-14.976859
2173.701737	-14.994145
2175.278964	-15.012058
2176.858481	-15.029421
2178.440294	-15.045367
2180.024408	-15.062379
2181.610827	-15.081440
2183.199557	-15.103291
2184.790602	-15.126946
2186.383968	-15.152083
2187.979660	-15.179872
2189.577683	-15.208079
2191.178041	-15.238437
2192.780741	-15.271140
2194.385787	-15.306576
2195.993185	-15.346461
2197.602939	-15.388852
2199.215054	-15.424020
