# 2022-03-21_14.06.36
# shape = sech2
# FWHM_ps = 0.1
# carrier_nm = 1542
# frep_MHz = 12126
# pow_mW = 8000
# GDD = 0.0
# propa_len = 0.11333333333333334
# untap_len = 0.01
# taper_len = 0.05333333333333333
# waist_len = 0.02
# uptap_len = 0.02
# untap_scale = 1.0
# waist_scale = 0.2
# workingDir = NL_20110305_12 (Spirou)
# axis = slow
# window_ps = 10.0
# steps = 200
# points = 13000
# 
# wavelength [nm]	 power spectral density [dB]
1000.248639	-22.267551
1000.582480	-22.344148
1000.916545	-22.339508
1001.250832	-22.186213
1001.585343	-22.252312
1001.920077	-22.262483
1002.255035	-22.107984
1002.590218	-22.166188
1002.925624	-22.191010
1003.261255	-22.032600
1003.597111	-22.077806
1003.933192	-22.114500
1004.269497	-21.957460
1004.606029	-21.994934
1004.942785	-22.042685
1005.279768	-21.884588
1005.616977	-21.911380
1005.954412	-21.969578
1006.292074	-21.816532
1006.629962	-21.837831
1006.968077	-21.903189
1007.306420	-21.750574
1007.644990	-21.764555
1007.983787	-21.837077
1008.322813	-21.688951
1008.662067	-21.698890
1009.001549	-21.774811
1009.341259	-21.626844
1009.681199	-21.633295
1010.021367	-21.714479
1010.361765	-21.571078
1010.702392	-21.576698
1011.043250	-21.658618
1011.384337	-21.515039
1011.725654	-21.520887
1012.067202	-21.606069
1012.408980	-21.465335
1012.750989	-21.470358
1013.093230	-21.550995
1013.435702	-21.411261
1013.778405	-21.421160
1014.121341	-21.499780
1014.464508	-21.361413
1014.807908	-21.375215
1015.151540	-21.445899
1015.495405	-21.309343
1015.839503	-21.333859
1016.183835	-21.396797
1016.528400	-21.258098
1016.873198	-21.289713
1017.218231	-21.341062
1017.563498	-21.204398
1017.908999	-21.248401
1018.254735	-21.285415
1018.600707	-21.147523
1018.946913	-21.202785
1019.293354	-21.225173
1019.640032	-21.092178
1019.986945	-21.161161
1020.334094	-21.163016
1020.681480	-21.030930
1021.029102	-21.111789
1021.376961	-21.096854
1021.725058	-20.973014
1022.073391	-21.060133
1022.421962	-21.020343
1022.770772	-20.909325
1023.119819	-21.006095
1023.469104	-20.944420
1023.818628	-20.848696
1024.168391	-20.946165
1024.518393	-20.860261
1024.868634	-20.787036
1025.219115	-20.884624
1025.569836	-20.775998
1025.920796	-20.723749
1026.271997	-20.810854
1026.623438	-20.686794
1026.975121	-20.665582
1027.327044	-20.736867
1027.679208	-20.597982
1028.031614	-20.605367
1028.384262	-20.655649
1028.737152	-20.515432
1029.090284	-20.552008
1029.443659	-20.569260
1029.797276	-20.431774
1030.151137	-20.495469
1030.505240	-20.480782
1030.859587	-20.359035
1031.214178	-20.439816
1031.569013	-20.386926
1031.924093	-20.292600
1032.279417	-20.386040
1032.634985	-20.299387
1032.990799	-20.237357
1033.346858	-20.325503
1033.703162	-20.211496
1034.059712	-20.192421
1034.416509	-20.264017
1034.773551	-20.130674
1035.130841	-20.152240
1035.488377	-20.194898
1035.846160	-20.062076
1036.204190	-20.123214
1036.562468	-20.124162
1036.920994	-20.003515
1037.279768	-20.092910
1037.638790	-20.052189
1037.998061	-19.962488
1038.357581	-20.060087
1038.717350	-19.976602
1039.077368	-19.932231
1039.437636	-20.023279
1039.798154	-19.910593
1040.158922	-19.914573
1040.519940	-19.975167
1040.881209	-19.852806
1041.242729	-19.905471
1041.604501	-19.919939
1041.966524	-19.806363
1042.328798	-19.890608
1042.691325	-19.854577
1043.054103	-19.776442
1043.417135	-19.869718
1043.780419	-19.785324
1044.143956	-19.757006
1044.507746	-19.834660
1044.871791	-19.722354
1045.236088	-19.746404
1045.600641	-19.779094
1045.965447	-19.664359
1046.330508	-19.733427
1046.695824	-19.709132
1047.061395	-19.619633
1047.427222	-19.706873
1047.793304	-19.628823
1048.159642	-19.590499
1048.526237	-19.663814
1048.893088	-19.548515
1049.260196	-19.566532
1049.627561	-19.595859
1049.995183	-19.478054
1050.363063	-19.540574
1050.731201	-19.506152
1051.099597	-19.420435
1051.468251	-19.500996
1051.837164	-19.409609
1052.206336	-19.379420
1052.575767	-19.437192
1052.945458	-19.315335
1053.315409	-19.345711
1053.685619	-19.348723
1054.056090	-19.234992
1054.426821	-19.303531
1054.797814	-19.242097
1055.169067	-19.177245
1055.540582	-19.244690
1055.912359	-19.134287
1056.284398	-19.135659
1056.656698	-19.161211
1057.029262	-19.042944
1057.402088	-19.097612
1057.775177	-19.054869
1058.148530	-18.975009
1058.522146	-19.047143
1058.896027	-18.945980
1059.270171	-18.932170
1059.644580	-18.971814
1060.019254	-18.853096
1060.394193	-18.902221
1060.769397	-18.874354
1061.144867	-18.786616
1061.520602	-18.860161
1061.896604	-18.769808
1062.272872	-18.750086
1062.649407	-18.792972
1063.026210	-18.679783
1063.403279	-18.727952
1063.780616	-18.704239
1064.158221	-18.622570
1064.536094	-18.693954
1064.914235	-18.606905
1065.292645	-18.596596
1065.671325	-18.633670
1066.050273	-18.527170
1066.429491	-18.581715
1066.808979	-18.550348
1067.188738	-18.485538
1067.568766	-18.553702
1067.949066	-18.462918
1068.329636	-18.472984
1068.710478	-18.495878
1069.091592	-18.399489
1069.472977	-18.463215
1069.854635	-18.413636
1070.236565	-18.373784
1070.618768	-18.431994
1071.001243	-18.335447
1071.383993	-18.369118
1071.767016	-18.366081
1072.150313	-18.287079
1072.533884	-18.353268
1072.917730	-18.279406
1073.301850	-18.269505
1073.686246	-18.303689
1074.070917	-18.208014
1074.455864	-18.259065
1074.841087	-18.221488
1075.226586	-18.171327
1075.612362	-18.223520
1075.998415	-18.134142
1076.384745	-18.154965
1076.771353	-18.150113
1077.158238	-18.075730
1077.545401	-18.128663
1077.932843	-18.059581
1078.320564	-18.051078
1078.708564	-18.068891
1079.096842	-17.986128
1079.485401	-18.029422
1079.874240	-17.980253
1080.263358	-17.947328
1080.652757	-17.979309
1081.042438	-17.896709
1081.432399	-17.926679
1081.822641	-17.897076
1082.213166	-17.845579
1082.603972	-17.885784
1082.995061	-17.807164
1083.386433	-17.819076
1083.778087	-17.807516
1084.170025	-17.742229
1084.562246	-17.784155
1084.954751	-17.715015
1085.347541	-17.709265
1085.740615	-17.714965
1086.133973	-17.642455
1086.527617	-17.678300
1086.921546	-17.622741
1087.315761	-17.602714
1087.710262	-17.619125
1088.105050	-17.547062
1088.500124	-17.576376
1088.895485	-17.536317
1089.291134	-17.508324
1089.687070	-17.529445
1090.083294	-17.463115
1090.479806	-17.486492
1090.876607	-17.457082
1091.273696	-17.426267
1091.671075	-17.448913
1092.068744	-17.391811
1092.466702	-17.411401
1092.864950	-17.386285
1093.263489	-17.358404
1093.662319	-17.378436
1094.061440	-17.325247
1094.460852	-17.343633
1094.860555	-17.317117
1095.260551	-17.294128
1095.660840	-17.310502
1096.061421	-17.257231
1096.462295	-17.277175
1096.863462	-17.244734
1097.264923	-17.223758
1097.666678	-17.234699
1098.068727	-17.179503
1098.471071	-17.201430
1098.873710	-17.161522
1099.276644	-17.143978
1099.679874	-17.150060
1100.083400	-17.092911
1100.487222	-17.114763
1100.891340	-17.067580
1101.295756	-17.054593
1101.700468	-17.054186
1102.105478	-16.999346
1102.510787	-17.021194
1102.916393	-16.969509
1103.322298	-16.963435
1103.728502	-16.953206
1104.135005	-16.904447
1104.541807	-16.923770
1104.948909	-16.868517
1105.356312	-16.871254
1105.764015	-16.850197
1106.172019	-16.812229
1106.580324	-16.825403
1106.988931	-16.768473
1107.397840	-16.778008
1107.807051	-16.743936
1108.216564	-16.718754
1108.626380	-16.720829
1109.036500	-16.667279
1109.446923	-16.680813
1109.857649	-16.633678
1110.268680	-16.621246
1110.680016	-16.607937
1111.091657	-16.561489
1111.503602	-16.571589
1111.915854	-16.516926
1112.328411	-16.516793
1112.741275	-16.486880
1113.154445	-16.452770
1113.567922	-16.453724
1113.981706	-16.399160
1114.395798	-16.405272
1114.810198	-16.362319
1115.224906	-16.345570
1115.639923	-16.333285
1116.055249	-16.288941
1116.470884	-16.295222
1116.886829	-16.247308
1117.303084	-16.245245
1117.719650	-16.217886
1118.136526	-16.193003
1118.553713	-16.191223
1118.971212	-16.149391
1119.389022	-16.156716
1119.807145	-16.119140
1120.225580	-16.114746
1120.644328	-16.097986
1121.063389	-16.073024
1121.482763	-16.078392
1121.902452	-16.040863
1122.322454	-16.050885
1122.742771	-16.020407
1123.163404	-16.015988
1123.584351	-16.005812
1124.005614	-15.980440
1124.427193	-15.989496
1124.849089	-15.952965
1125.271301	-15.963004
1125.693830	-15.934524
1126.116677	-15.927751
1126.539842	-15.918164
1126.963324	-15.890255
1127.387126	-15.897625
1127.811246	-15.858795
1128.235685	-15.866075
1128.660444	-15.834888
1129.085522	-15.825212
1129.510922	-15.811644
1129.936641	-15.781748
1130.362682	-15.784014
1130.789044	-15.743320
1131.215728	-15.746887
1131.642734	-15.712209
1132.070063	-15.701992
1132.497714	-15.682575
1132.925689	-15.655430
1133.353987	-15.651225
1133.782610	-15.613381
1134.211556	-15.615043
1134.640827	-15.579492
1135.070424	-15.574014
1135.500345	-15.550142
1135.930593	-15.532377
1136.361166	-15.523352
1136.792067	-15.494772
1137.223294	-15.496831
1137.654848	-15.465279
1138.086730	-15.467763
1138.518940	-15.442385
1138.951479	-15.437847
1139.384346	-15.424543
1139.817543	-15.409931
1140.251069	-15.410176
1140.684925	-15.387166
1141.119111	-15.394752
1141.553628	-15.369752
1141.988475	-15.377097
1142.423655	-15.357273
1142.859166	-15.358538
1143.295009	-15.349404
1143.731185	-15.340139
1144.167694	-15.341831
1144.604536	-15.322956
1145.041711	-15.331358
1145.479221	-15.308094
1145.917065	-15.317702
1146.355245	-15.296793
1146.793759	-15.300135
1147.232609	-15.286421
1147.671795	-15.278647
1148.111317	-15.274105
1148.551177	-15.255556
1148.991373	-15.259210
1149.431907	-15.233124
1149.872779	-15.239445
1150.313989	-15.211085
1150.755538	-15.213459
1151.197426	-15.188675
1151.639653	-15.182936
1152.082220	-15.166437
1152.525128	-15.149928
1152.968376	-15.142402
1153.411966	-15.115035
1153.855897	-15.114051
1154.300169	-15.079870
1154.744784	-15.082428
1155.189742	-15.046395
1155.635042	-15.047782
1156.080687	-15.014295
1156.526674	-15.009455
1156.973007	-14.982251
1157.419683	-14.969426
1157.866705	-14.951205
1158.314072	-14.929942
1158.761786	-14.920320
1159.209845	-14.891167
1159.658251	-14.887402
1160.107004	-14.854098
1160.556104	-14.853042
1161.005553	-14.820657
1161.455349	-14.817850
1161.905494	-14.790323
1162.355989	-14.780597
1162.806832	-14.761654
1163.258026	-14.742776
1163.709570	-14.734972
1164.161464	-14.706538
1164.613710	-14.709174
1165.066307	-14.671714
1165.519256	-14.681546
1165.972558	-14.639206
1166.426212	-14.652249
1166.880219	-14.610795
1167.334580	-14.621523
1167.789295	-14.585452
1168.244364	-14.587930
1168.699788	-14.561951
1169.155567	-14.552798
1169.611702	-14.540553
1170.068193	-14.518262
1170.525041	-14.519489
1170.982245	-14.483894
1171.439807	-14.496394
1171.897726	-14.450868
1172.356004	-14.471540
1172.814640	-14.421389
1173.273635	-14.444240
1173.732989	-14.394316
1174.192703	-14.413076
1174.652778	-14.369140
1175.113213	-14.379607
1175.574009	-14.346862
1176.035167	-14.345010
1176.496687	-14.325426
1176.958569	-14.308950
1177.420814	-14.302952
1177.883422	-14.273496
1178.346394	-14.280155
1178.809730	-14.240320
1179.273430	-14.255266
1179.737496	-14.208552
1180.201927	-14.226834
1180.666723	-14.179340
1181.131886	-14.196483
1181.597416	-14.153348
1182.063312	-14.163926
1182.529576	-14.128368
1182.996209	-14.128862
1183.463209	-14.104430
1183.930579	-14.093884
1184.398317	-14.081446
1184.866426	-14.059286
1185.334904	-14.056803
1185.803754	-14.024980
1186.272974	-14.030571
1186.742566	-13.993408
1187.212529	-14.003055
1187.682865	-13.964095
1188.153574	-13.972279
1188.624656	-13.936346
1189.096112	-13.939484
1189.567942	-13.911627
1190.040147	-13.905706
1190.512726	-13.888209
1190.985681	-13.869943
1191.459012	-13.865090
1191.932720	-13.834248
1192.406804	-13.843192
1192.881265	-13.799711
1193.356104	-13.820420
1193.831322	-13.765362
1194.306918	-13.796358
1194.782893	-13.733299
1195.259248	-13.772160
1195.735982	-13.703549
1196.213097	-13.745903
1196.690593	-13.674832
1197.168471	-13.718271
1197.646730	-13.648930
1198.125371	-13.690663
1198.604395	-13.624701
1199.083803	-13.661345
1199.563594	-13.601001
1200.043769	-13.631869
1200.524329	-13.579333
1201.005273	-13.603046
1201.486604	-13.557763
1201.968320	-13.573195
1202.450422	-13.535927
1202.932912	-13.544403
1203.415789	-13.515245
1203.899054	-13.516338
1204.382707	-13.493370
1204.866748	-13.487737
1205.351179	-13.471128
1205.836000	-13.460784
1206.321211	-13.449310
1206.806812	-13.433922
1207.292805	-13.425723
1207.779189	-13.406816
1208.265965	-13.402377
1208.753134	-13.381401
1209.240696	-13.378889
1209.728651	-13.355351
1210.217000	-13.353889
1210.705744	-13.329689
1211.194883	-13.329918
1211.684417	-13.305272
1212.174347	-13.305296
1212.664673	-13.279863
1213.155396	-13.280034
1213.646516	-13.255795
1214.138034	-13.256123
1214.629951	-13.232281
1215.122266	-13.231266
1215.614980	-13.208156
1216.108095	-13.207063
1216.601609	-13.186081
1217.095524	-13.183964
1217.589841	-13.163773
1218.084559	-13.159982
1218.579679	-13.141988
1219.075202	-13.137874
1219.571128	-13.122004
1220.067458	-13.116104
1220.564191	-13.101247
1221.061330	-13.094466
1221.558874	-13.082078
1222.056823	-13.075072
1222.555178	-13.063547
1223.053940	-13.055206
1223.553109	-13.044480
1224.052686	-13.036947
1224.552671	-13.027436
1225.053065	-13.020050
1225.553867	-13.009553
1226.055079	-13.002762
1226.556702	-12.992523
1227.058735	-12.987840
1227.561179	-12.976648
1228.064035	-12.972517
1228.567303	-12.959978
1229.070983	-12.957862
1229.575077	-12.945426
1230.079585	-12.944508
1230.584506	-12.930839
1231.089842	-12.929837
1231.595594	-12.917253
1232.101761	-12.916550
1232.608345	-12.905727
1233.115345	-12.902379
1233.622762	-12.893867
1234.130597	-12.888004
1234.638851	-12.884572
1235.147523	-12.874723
1235.656615	-12.875180
1236.166126	-12.860266
1236.676058	-12.866040
1237.186411	-12.848196
1237.697185	-12.857705
1238.208381	-12.836468
1238.719999	-12.847060
1239.232040	-12.826392
1239.744505	-12.836901
1240.257394	-12.818871
1240.770708	-12.824381
1241.284446	-12.811268
1241.798610	-12.811164
1242.313201	-12.806043
1242.828218	-12.798164
1243.343662	-12.799334
1243.859534	-12.783987
1244.375834	-12.792097
1244.892563	-12.772409
1245.409721	-12.783128
1245.927309	-12.760447
1246.445327	-12.770441
1246.963777	-12.750740
1247.482657	-12.756732
1248.001970	-12.741720
1248.521716	-12.738982
1249.041894	-12.731828
1249.562506	-12.721129
1250.083553	-12.722186
1250.605034	-12.702337
1251.126950	-12.708182
1251.649302	-12.683902
1252.172091	-12.692378
1252.695316	-12.667846
1253.218979	-12.671586
1253.743079	-12.651241
1254.267619	-12.647905
1254.792597	-12.636716
1255.318015	-12.622816
1255.843874	-12.619264
1256.370173	-12.596272
1256.896913	-12.599985
1257.424095	-12.572829
1257.951720	-12.576533
1258.479787	-12.549533
1259.008298	-12.548663
1259.537254	-12.529398
1260.066654	-12.519431
1260.596499	-12.508152
1261.126790	-12.487809
1261.657527	-12.485394
1262.188711	-12.459255
1262.720342	-12.459568
1263.252422	-12.431337
1263.784950	-12.428904
1264.317928	-12.406814
1264.851355	-12.396915
1265.385232	-12.382171
1265.919560	-12.362287
1266.454340	-12.356093
1266.989572	-12.330533
1267.525256	-12.327303
1268.061394	-12.299654
1268.597985	-12.293701
1269.135031	-12.271979
1269.672531	-12.258881
1270.210487	-12.244065
1270.748899	-12.221959
1271.287768	-12.214492
1271.827094	-12.188288
1272.366877	-12.181910
1272.907119	-12.155764
1273.447820	-12.145227
1273.988981	-12.126139
1274.530601	-12.108146
1275.072683	-12.095329
1275.615226	-12.070593
1276.158230	-12.062714
1276.701697	-12.037071
1277.245627	-12.026973
1277.790021	-12.004650
1278.334879	-11.989167
1278.880202	-11.974551
1279.425991	-11.952398
1279.972245	-11.941988
1280.518966	-11.917316
1281.066155	-11.908003
1281.613811	-11.886339
1282.161936	-11.871486
1282.710529	-11.855754
1283.259593	-11.835980
1283.809126	-11.825877
1284.359131	-11.802793
1284.909607	-11.792567
1285.460555	-11.772789
1286.011976	-11.759302
1286.563870	-11.744687
1287.116237	-11.725331
1287.669080	-11.715551
1288.222397	-11.695401
1288.776191	-11.685293
1289.330460	-11.667145
1289.885207	-11.653271
1290.440431	-11.641328
1290.996133	-11.623475
1291.552314	-11.613744
1292.108975	-11.595344
1292.666115	-11.585613
1293.223737	-11.571108
1293.781839	-11.556621
1294.340424	-11.546270
1294.899491	-11.530141
1295.459041	-11.522051
1296.019075	-11.506267
1296.579593	-11.495542
1297.140597	-11.484814
1297.702086	-11.471559
1298.264061	-11.463489
1298.826524	-11.448825
1299.389474	-11.441478
1299.952912	-11.430579
1300.516839	-11.419845
1301.081255	-11.412126
1301.646162	-11.400265
1302.211559	-11.394919
1302.777448	-11.384102
1303.343829	-11.376141
1303.910702	-11.369643
1304.478069	-11.360458
1305.045930	-11.355794
1305.614285	-11.346234
1306.183136	-11.341343
1306.752483	-11.335804
1307.322326	-11.328323
1307.892666	-11.324621
1308.463504	-11.317415
1309.034841	-11.314582
1309.606677	-11.309298
1310.179012	-11.303770
1310.751849	-11.301816
1311.325186	-11.296381
1311.899025	-11.294382
1312.473366	-11.290100
1313.048211	-11.287057
1313.623559	-11.286250
1314.199412	-11.281683
1314.775770	-11.280901
1315.352634	-11.278639
1315.930004	-11.277017
1316.507881	-11.276615
1317.086266	-11.273575
1317.665159	-11.274580
1318.244562	-11.273498
1318.824474	-11.272374
1319.404897	-11.273247
1319.985831	-11.272131
1320.567276	-11.273785
1321.149234	-11.273287
1321.731706	-11.273413
1322.314691	-11.275865
1322.898190	-11.275299
1323.482205	-11.277138
1324.066736	-11.278243
1324.651783	-11.279305
1325.237347	-11.282040
1325.823430	-11.281939
1326.410031	-11.284663
1326.997151	-11.287026
1327.584791	-11.287594
1328.172952	-11.290721
1328.761634	-11.292099
1329.350839	-11.294584
1329.940566	-11.297129
1330.530817	-11.297991
1331.121592	-11.301827
1331.712891	-11.303665
1332.304716	-11.305137
1332.897068	-11.308719
1333.489946	-11.310303
1334.083352	-11.313092
1334.677287	-11.315397
1335.271750	-11.317179
1335.866744	-11.320909
1336.462268	-11.322231
1337.058323	-11.324418
1337.654910	-11.327962
1338.252029	-11.329262
1338.849682	-11.331908
1339.447869	-11.334306
1340.046591	-11.336230
1340.645848	-11.339225
1341.245641	-11.340418
1341.845972	-11.342913
1342.446840	-11.345894
1343.048246	-11.346627
1343.650191	-11.349274
1344.252677	-11.351725
1344.855702	-11.352912
1345.459269	-11.355419
1346.063379	-11.356973
1346.668030	-11.359018
1347.273226	-11.361344
1347.878965	-11.362120
1348.485250	-11.364744
1349.092080	-11.366918
1349.699456	-11.367485
1350.307380	-11.370178
1350.915851	-11.372113
1351.524871	-11.373136
1352.134441	-11.375540
1352.744560	-11.377099
1353.355231	-11.378970
1353.966453	-11.381106
1354.578227	-11.382252
1355.190555	-11.384929
1355.803436	-11.387022
1356.416872	-11.388000
1357.030863	-11.391168
1357.645411	-11.393422
1358.260515	-11.394710
1358.876177	-11.398042
1359.492397	-11.400542
1360.109176	-11.402619
1360.726516	-11.406013
1361.344416	-11.408687
1361.962877	-11.411848
1362.581901	-11.415435
1363.201487	-11.418230
1363.821637	-11.422502
1364.442352	-11.426522
1365.063632	-11.429518
1365.685478	-11.434676
1366.307891	-11.439360
1366.930871	-11.442762
1367.554420	-11.448551
1368.178538	-11.453965
1368.803226	-11.458038
1369.428485	-11.464292
1370.054315	-11.470354
1370.680717	-11.475342
1371.307693	-11.481995
1371.935242	-11.488610
1372.563366	-11.494676
1373.192065	-11.501868
1373.821341	-11.508950
1374.451193	-11.516177
1375.081623	-11.524143
1375.712632	-11.531694
1376.344221	-11.540019
1376.976389	-11.548982
1377.609139	-11.557084
1378.242470	-11.566384
1378.876384	-11.576492
1379.510881	-11.585327
1380.145963	-11.595518
1380.781629	-11.606854
1381.417881	-11.616702
1382.054720	-11.627757
1382.692147	-11.640398
1383.330161	-11.651482
1383.968765	-11.663474
1384.607959	-11.677366
1385.247743	-11.689851
1385.888119	-11.702796
1386.529087	-11.717836
1387.170648	-11.731739
1387.812804	-11.745710
1388.455554	-11.761808
1389.098899	-11.777161
1389.742842	-11.792262
1390.387381	-11.809479
1391.032519	-11.826371
1391.678256	-11.842768
1392.324592	-11.861157
1392.971529	-11.879614
1393.619068	-11.897375
1394.267208	-11.916909
1394.915952	-11.936876
1395.565300	-11.955887
1396.215253	-11.976453
1396.865812	-11.997828
1397.516977	-12.018043
1398.168749	-12.039512
1398.821130	-12.062272
1399.474120	-12.083789
1400.127719	-12.106158
1400.781930	-12.130368
1401.436752	-12.153416
1402.092186	-12.176713
1402.748234	-12.202293
1403.404897	-12.226983
1404.062174	-12.251162
1404.720067	-12.277777
1405.378577	-12.303974
1406.037705	-12.328922
1406.697451	-12.356211
1407.357817	-12.383736
1408.018803	-12.409532
1408.680410	-12.437366
1409.342639	-12.466187
1410.005492	-12.493147
1410.668968	-12.521667
1411.333068	-12.551773
1411.997795	-12.580189
1412.663147	-12.609544
1413.329127	-12.640663
1413.995736	-12.670419
1414.662973	-12.700538
1415.330840	-12.732122
1415.999339	-12.762687
1416.668469	-12.793379
1417.338232	-12.825035
1418.008628	-12.855998
1418.679659	-12.887318
1419.351325	-12.919167
1420.023628	-12.950589
1420.696568	-12.982941
1421.370145	-13.015499
1422.044362	-13.047697
1422.719219	-13.081459
1423.394717	-13.115049
1424.070856	-13.147938
1424.747638	-13.182775
1425.425064	-13.217037
1426.103134	-13.249913
1426.781850	-13.284777
1427.461212	-13.318862
1428.141221	-13.351030
1428.821878	-13.384972
1429.503185	-13.418368
1430.185141	-13.450106
1430.867749	-13.483315
1431.551008	-13.516343
1432.234920	-13.549023
1432.919486	-13.583009
1433.604707	-13.616673
1434.290583	-13.651558
1434.977116	-13.687778
1435.664307	-13.722805
1436.352156	-13.759714
1437.040664	-13.797835
1437.729833	-13.833720
1438.419663	-13.870831
1439.110156	-13.908394
1439.801312	-13.943315
1440.493132	-13.978425
1441.185617	-14.012757
1441.878768	-14.045146
1442.572586	-14.077594
1443.267072	-14.108255
1443.962228	-14.138730
1444.658053	-14.170421
1445.354549	-14.200451
1446.051717	-14.232116
1446.749558	-14.266470
1447.448073	-14.300530
1448.147263	-14.337392
1448.847128	-14.376964
1449.547671	-14.417625
1450.248891	-14.461268
1450.950789	-14.505670
1451.653368	-14.551110
1452.356627	-14.598365
1453.060568	-14.643536
1453.765192	-14.688238
1454.470500	-14.732277
1455.176492	-14.772200
1455.883170	-14.810235
1456.590534	-14.845119
1457.298586	-14.875996
1458.007327	-14.905106
1458.716758	-14.930570
1459.426880	-14.954654
1460.137693	-14.978907
1460.849199	-15.001638
1461.561398	-15.026905
1462.274293	-15.055097
1462.987883	-15.085645
1463.702170	-15.121810
1464.417155	-15.162403
1465.132838	-15.208918
1465.849222	-15.261935
1466.566306	-15.318745
1467.284093	-15.381903
1468.002582	-15.449487
1468.721775	-15.518815
1469.441674	-15.590886
1470.162278	-15.662066
1470.883590	-15.731805
1471.605609	-15.798308
1472.328338	-15.857638
1473.051777	-15.911373
1473.775928	-15.956447
1474.500790	-15.991037
1475.226367	-16.016734
1475.952657	-16.031427
1476.679663	-16.037480
1477.407386	-16.034977
1478.135826	-16.023894
1478.864985	-16.009158
1479.594863	-15.990384
1480.325463	-15.970219
1481.056784	-15.951527
1481.788828	-15.934906
1482.521597	-15.924801
1483.255090	-15.920666
1483.989309	-15.924008
1484.724256	-15.937542
1485.459931	-15.959678
1486.196336	-15.992374
1486.933471	-16.033714
1487.671337	-16.083118
1488.409937	-16.140928
1489.149270	-16.202849
1489.889337	-16.268706
1490.630141	-16.335071
1491.371682	-16.399159
1492.113961	-16.459285
1492.856979	-16.509942
1493.600738	-16.550154
1494.345238	-16.575697
1495.090481	-16.583042
1495.836467	-16.570531
1496.583198	-16.533382
1497.330675	-16.471580
1498.078899	-16.381974
1498.827872	-16.263240
1499.577593	-16.116489
1500.328065	-15.940549
1501.079289	-15.739102
1501.831265	-15.513179
1502.583995	-15.266522
1503.337480	-15.004433
1504.091721	-14.730055
1504.846719	-14.450302
1505.602475	-14.168792
1506.358991	-13.891606
1507.116268	-13.624151
1507.874306	-13.370043
1508.633108	-13.135259
1509.392673	-12.922380
1510.153004	-12.736524
1510.914101	-12.580755
1511.675965	-12.457823
1512.438599	-12.371841
1513.202002	-12.324230
1513.966176	-12.319222
1514.731122	-12.358032
1515.496842	-12.443287
1516.263336	-12.577281
1517.030607	-12.760393
1517.798654	-12.994728
1518.567479	-13.277524
1519.337083	-13.606820
1520.107468	-13.974987
1520.878634	-14.368739
1521.650584	-14.767783
1522.423317	-15.136876
1523.196836	-15.432612
1523.971141	-15.599141
1524.746233	-15.585640
1525.522115	-15.362339
1526.298786	-14.930259
1527.076249	-14.327373
1527.854504	-13.604655
1528.633553	-12.816325
1529.413397	-12.005810
1530.194037	-11.202849
1530.975474	-10.428938
1531.757709	-9.694510
1532.540745	-9.007612
1533.324581	-8.370747
1534.109220	-7.785581
1534.894662	-7.252623
1535.680909	-6.770908
1536.467961	-6.340741
1537.255821	-5.960319
1538.044489	-5.629835
1538.833967	-5.347709
1539.624256	-5.113705
1540.415357	-4.926773
1541.207271	-4.785916
1542.000000	-4.690521
1542.793545	-4.638850
1543.587907	-4.630379
1544.383087	-4.662739
1545.179088	-4.735023
1545.975909	-4.844510
1546.773552	-4.989614
1547.572019	-5.167555
1548.371311	-5.375910
1549.171428	-5.612136
1549.972373	-5.873193
1550.774147	-6.157126
1551.576751	-6.460739
1552.380185	-6.782920
1553.184453	-7.120946
1553.989554	-7.474772
1554.795490	-7.842747
1555.602263	-8.225740
1556.409873	-8.623371
1557.218322	-9.036989
1558.027612	-9.467412
1558.837743	-9.915852
1559.648717	-10.383844
1560.460536	-10.871724
1561.273200	-11.381286
1562.086710	-11.911666
1562.901069	-12.464558
1563.716278	-13.037870
1564.532337	-13.632871
1565.349249	-14.246486
1566.167014	-14.879301
1566.985634	-15.527483
1567.805111	-16.189786
1568.625444	-16.860695
1569.446637	-17.534342
1570.268690	-18.200527
1571.091605	-18.843473
1571.915382	-19.443060
1572.740024	-19.968407
1573.565532	-20.388741
1574.391907	-20.666532
1575.219150	-20.780196
1576.047262	-20.717044
1576.876246	-20.491945
1577.706103	-20.130324
1578.536833	-19.670188
1579.368439	-19.146694
1580.200922	-18.590510
1581.034282	-18.025552
1581.868522	-17.467334
1582.703643	-16.928275
1583.539646	-16.413785
1584.376532	-15.929700
1585.214304	-15.476517
1586.052962	-15.056765
1586.892508	-14.668861
1587.732943	-14.313691
1588.574269	-13.988926
1589.416487	-13.694652
1590.259599	-13.428405
1591.103605	-13.189725
1591.948508	-12.976261
1592.794309	-12.787192
1593.641009	-12.620300
1594.488609	-12.474536
1595.337112	-12.347797
1596.186518	-12.238792
1597.036829	-12.145576
1597.888047	-12.066703
1598.740172	-12.000373
1599.593207	-11.945056
1600.447153	-11.899092
1601.302010	-11.860943
1602.157782	-11.829141
1603.014469	-11.802188
1603.872072	-11.778838
1604.730593	-11.757826
1605.590034	-11.738141
1606.450397	-11.718723
1607.311681	-11.698936
1608.173890	-11.678038
1609.037024	-11.655721
1609.901085	-11.631627
1610.766075	-11.605778
1611.631995	-11.578125
1612.498846	-11.549015
1613.366630	-11.518719
1614.235349	-11.487804
1615.105004	-11.456756
1615.975596	-11.426284
1616.847128	-11.396965
1617.719600	-11.369567
1618.593014	-11.344687
1619.467372	-11.323014
1620.342675	-11.305034
1621.218924	-11.291260
1622.096122	-11.282048
1622.974270	-11.277674
1623.853369	-11.278313
1624.733420	-11.283938
1625.614427	-11.294553
1626.496389	-11.309806
1627.379308	-11.329637
1628.263187	-11.353354
1629.148026	-11.380930
1630.033828	-11.411360
1630.920593	-11.444749
1631.808324	-11.479803
1632.697022	-11.516883
1633.586688	-11.554543
1634.477324	-11.593349
1635.368932	-11.631810
1636.261514	-11.670816
1637.155070	-11.708914
1638.049602	-11.747249
1638.945113	-11.784600
1639.841603	-11.822228
1640.739075	-11.859282
1641.637529	-11.896919
1642.536968	-11.934780
1643.437393	-11.973727
1644.338806	-12.013879
1645.241209	-12.055650
1646.144602	-12.099611
1647.048988	-12.145585
1647.954368	-12.194512
1648.860744	-12.245602
1649.768118	-12.300037
1650.676491	-12.356528
1651.585865	-12.416278
1652.496241	-12.477783
1653.407621	-12.542003
1654.320008	-12.607570
1655.233401	-12.675042
1656.147804	-12.743434
1657.063218	-12.812795
1657.979645	-12.882816
1658.897085	-12.952998
1659.815542	-13.023774
1660.735016	-13.094178
1661.655509	-13.165215
1662.577023	-13.235739
1663.499560	-13.306931
1664.423121	-13.377833
1665.347709	-13.449469
1666.273324	-13.521259
1667.199969	-13.593776
1668.127645	-13.666972
1669.056353	-13.740692
1669.986097	-13.815509
1670.916877	-13.890563
1671.848695	-13.966709
1672.781553	-14.042792
1673.715452	-14.119579
1674.650395	-14.196077
1675.586383	-14.272751
1676.523418	-14.349012
1677.461501	-14.424829
1678.400635	-14.500325
1679.340821	-14.574832
1680.282061	-14.649078
1681.224357	-14.722079
1682.167710	-14.794694
1683.112122	-14.866117
1684.057595	-14.936953
1685.004132	-15.006848
1685.951732	-15.075935
1686.900400	-15.144484
1687.850135	-15.211881
1688.800940	-15.278937
1689.752818	-15.344668
1690.705768	-15.409827
1691.659795	-15.473631
1692.614898	-15.536322
1693.571081	-15.597684
1694.528345	-15.657268
1695.486691	-15.715592
1696.446122	-15.771757
1697.406640	-15.826548
1698.368245	-15.879189
1699.330941	-15.930125
1700.294729	-15.979283
1701.259611	-16.026392
1702.225588	-16.072029
1703.192664	-16.115357
1704.160838	-16.156970
1705.130114	-16.196356
1706.100493	-16.233616
1707.071977	-16.268737
1708.044568	-16.301428
1709.018268	-16.332112
1709.993079	-16.360344
1710.969003	-16.386503
1711.946041	-16.410413
1712.924196	-16.432186
1713.903469	-16.451913
1714.883862	-16.469436
1715.865378	-16.484879
1716.848017	-16.498009
1717.831783	-16.509031
1718.816677	-16.517737
1719.802701	-16.524299
1720.789857	-16.528633
1721.778147	-16.530677
1722.767573	-16.530707
1723.758136	-16.528290
1724.749840	-16.523851
1725.742685	-16.517129
1726.736673	-16.508104
1727.731808	-16.497002
1728.728090	-16.483342
1729.725521	-16.467641
1730.724105	-16.449511
1731.723842	-16.429014
1732.724735	-16.406506
1733.726785	-16.381495
1734.729995	-16.354645
1735.734366	-16.325675
1736.739902	-16.294655
1737.746603	-16.262019
1738.754472	-16.227253
1739.763510	-16.190964
1740.773721	-16.153000
1741.785105	-16.113351
1742.797665	-16.072576
1743.811403	-16.030226
1744.826321	-15.986872
1745.842422	-15.942462
1746.859706	-15.896770
1747.878177	-15.850440
1748.897835	-15.803089
1749.918685	-15.755090
1750.940726	-15.706760
1751.963963	-15.657853
1752.988395	-15.609046
1754.014027	-15.560084
1755.040860	-15.511015
1756.068895	-15.462206
1757.098135	-15.413184
1758.128583	-15.364240
1759.160240	-15.315360
1760.193109	-15.266317
1761.227191	-15.217556
1762.262488	-15.168799
1763.299004	-15.120154
1764.336740	-15.071881
1765.375697	-15.023639
1766.415880	-14.975736
1767.457288	-14.928068
1768.499926	-14.880432
1769.543794	-14.833119
1770.588895	-14.785839
1771.635231	-14.738686
1772.682805	-14.691873
1773.731619	-14.645148
1774.781674	-14.598842
1775.832973	-14.552949
1776.885519	-14.507269
1777.939312	-14.462100
1778.994357	-14.417197
1780.050654	-14.372544
1781.108207	-14.328398
1782.167017	-14.284397
1783.227087	-14.240701
1784.288418	-14.197476
1785.351013	-14.154415
1786.414875	-14.111833
1787.480006	-14.069772
1788.546407	-14.028000
1789.614082	-13.986853
1790.683032	-13.946235
1791.753259	-13.905986
1792.824767	-13.866415
1793.897557	-13.827337
1794.971632	-13.788684
1796.046994	-13.750709
1797.123645	-13.713235
1798.201588	-13.676251
1799.280824	-13.639906
1800.361357	-13.604015
1801.443188	-13.568605
1802.526320	-13.533736
1803.610756	-13.499307
1804.696497	-13.465385
1805.783546	-13.431961
1806.871906	-13.398904
1807.961578	-13.366210
1809.052565	-13.333746
1810.144870	-13.301386
1811.238494	-13.269096
1812.333441	-13.236804
1813.429713	-13.204566
1814.527311	-13.172488
1815.626239	-13.140539
1816.726499	-13.108770
1817.828094	-13.077222
1818.931025	-13.045813
1820.035295	-13.014590
1821.140906	-12.983611
1822.247862	-12.952853
1823.356165	-12.922455
1824.465816	-12.892555
1825.576819	-12.863158
1826.689175	-12.834405
1827.802888	-12.806385
1828.917960	-12.779023
1830.034394	-12.752332
1831.152191	-12.726316
1832.271354	-12.700860
1833.391887	-12.675993
1834.513790	-12.651783
1835.637068	-12.628162
1836.761722	-12.605149
1837.887755	-12.582802
1839.015169	-12.561044
1840.143968	-12.539839
1841.274153	-12.519202
1842.405727	-12.499043
1843.538693	-12.479294
1844.673053	-12.459979
1845.808810	-12.441035
1846.945966	-12.422404
1848.084525	-12.404128
1849.224488	-12.386209
1850.365858	-12.368584
1851.508638	-12.351218
1852.652831	-12.334068
1853.798438	-12.317053
1854.945463	-12.300140
1856.093909	-12.283311
1857.243777	-12.266539
1858.395071	-12.249851
1859.547794	-12.233293
1860.701947	-12.216895
1861.857533	-12.200674
1863.014556	-12.184587
1864.173018	-12.168546
1865.332922	-12.152543
1866.494270	-12.136628
1867.657065	-12.120803
1868.821309	-12.105110
1869.987006	-12.089659
1871.154158	-12.074455
1872.322768	-12.059412
1873.492839	-12.044507
1874.664373	-12.029747
1875.837373	-12.015089
1877.011841	-12.000543
1878.187782	-11.986176
1879.365197	-11.971975
1880.544089	-11.957863
1881.724460	-11.943814
1882.906315	-11.929798
1884.089655	-11.915785
1885.274483	-11.901837
1886.460803	-11.888100
1887.648616	-11.874687
1888.837927	-11.861659
1890.028736	-11.849076
1891.221049	-11.836948
1892.414866	-11.825275
1893.610192	-11.814090
1894.807028	-11.803464
1896.005379	-11.793443
1897.205246	-11.784034
1898.406633	-11.775230
1899.609542	-11.766988
1900.813977	-11.759253
1902.019940	-11.751971
1903.227434	-11.745067
1904.436462	-11.738444
1905.647028	-11.732004
1906.859133	-11.725692
1908.072781	-11.719496
1909.287976	-11.713462
1910.504719	-11.707647
1911.723013	-11.702077
1912.942863	-11.696743
1914.164270	-11.691594
1915.387238	-11.686569
1916.611770	-11.681590
1917.837868	-11.676627
1919.065536	-11.671711
1920.294777	-11.666872
1921.525594	-11.662124
1922.757989	-11.657461
1923.991967	-11.652905
1925.227529	-11.648480
1926.464679	-11.644199
1927.703420	-11.640103
1928.943755	-11.636165
1930.185688	-11.632261
1931.429221	-11.628271
1932.674356	-11.624157
1933.921099	-11.619983
1935.169451	-11.615843
1936.419415	-11.611802
1937.670996	-11.607858
1938.924195	-11.603947
1940.179017	-11.600014
1941.435463	-11.596072
1942.693538	-11.592181
1943.953245	-11.588425
1945.214586	-11.584893
1946.477566	-11.581653
1947.742186	-11.578749
1949.008451	-11.576186
1950.276363	-11.573948
1951.545926	-11.572022
1952.817143	-11.570390
1954.090017	-11.569075
1955.364551	-11.568158
1956.640749	-11.567725
1957.918615	-11.567788
1959.198150	-11.568286
1960.479359	-11.569169
1961.762244	-11.570442
1963.046810	-11.572140
1964.333059	-11.574290
1965.620995	-11.576927
1966.910621	-11.580089
1968.201940	-11.583822
1969.494956	-11.588175
1970.789672	-11.593151
1972.086091	-11.598694
1973.384217	-11.604684
1974.684053	-11.610989
1975.985602	-11.617549
1977.288869	-11.624396
1978.593855	-11.631565
1979.900566	-11.639046
1981.209003	-11.646796
1982.519171	-11.654766
1983.831073	-11.662905
1985.144712	-11.671146
1986.460093	-11.679415
1987.777217	-11.687668
1989.096089	-11.695894
1990.416713	-11.704120
1991.739092	-11.712398
1993.063228	-11.720781
1994.389127	-11.729320
1995.716791	-11.738035
1997.046223	-11.746906
1998.377428	-11.755940
1999.710409	-11.765204
2001.045169	-11.774778
2002.381713	-11.784678
2003.720043	-11.794825
2005.060163	-11.805092
2006.402077	-11.815391
2007.745788	-11.825749
2009.091301	-11.836297
2010.438618	-11.847157
2011.787743	-11.858335
2013.138680	-11.869752
2014.491433	-11.881362
2015.846005	-11.893242
2017.202399	-11.905535
2018.560621	-11.918369
2019.920673	-11.931823
2021.282558	-11.945959
2022.646281	-11.960832
2024.011846	-11.976462
2025.379256	-11.992786
2026.748515	-12.009710
2028.119626	-12.027182
2029.492594	-12.045201
2030.867422	-12.063793
2032.244114	-12.083011
2033.622673	-12.102895
2035.003104	-12.123406
2036.385411	-12.144438
2037.769597	-12.165886
2039.155665	-12.187692
2040.543621	-12.209863
2041.933467	-12.232450
2043.325208	-12.255476
2044.718847	-12.278884
2046.114389	-12.302549
2047.511837	-12.326327
2048.911195	-12.350096
2050.312467	-12.373811
2051.715657	-12.397533
2053.120769	-12.421365
2054.527807	-12.445284
2055.936775	-12.469095
2057.347677	-12.492590
2058.760516	-12.515751
2060.175297	-12.538809
2061.592025	-12.562070
2063.010701	-12.585709
2064.431332	-12.609688
2065.853921	-12.633850
2067.278472	-12.658096
2068.704988	-12.682437
2070.133475	-12.706955
2071.563936	-12.731760
2072.996375	-12.756952
2074.430796	-12.782613
2075.867204	-12.808816
2077.305603	-12.835617
2078.745996	-12.863058
2080.188389	-12.891158
2081.632784	-12.919908
2083.079187	-12.949326
2084.527601	-12.979445
2085.978030	-13.010278
2087.430480	-13.041799
2088.884954	-13.073966
2090.341455	-13.106874
2091.799990	-13.140843
2093.260561	-13.176301
2094.723173	-13.213516
2096.187831	-13.252385
2097.654538	-13.292540
2099.123300	-13.333626
2100.594119	-13.375505
2102.067001	-13.418225
2103.541950	-13.461802
2105.018971	-13.505979
2106.498067	-13.550194
2107.979243	-13.593814
2109.462503	-13.636528
2110.947853	-13.678546
2112.435295	-13.720419
2113.924836	-13.762673
2115.416478	-13.805615
2116.910227	-13.849349
2118.406087	-13.893975
2119.904063	-13.939702
2121.404158	-13.986852
2122.906378	-14.035613
2124.410727	-14.085817
2125.917210	-14.137038
2127.425831	-14.188797
2128.936594	-14.240693
2130.449505	-14.292315
2131.964567	-14.343249
2133.481786	-14.393209
2135.001166	-14.442044
2136.522711	-14.489653
2138.046427	-14.535869
2139.572317	-14.580701
2141.100388	-14.624531
2142.630642	-14.667905
2144.163085	-14.711113
2145.697722	-14.754127
2147.234558	-14.797023
2148.773596	-14.840252
2150.314842	-14.884521
2151.858301	-14.930511
2153.403977	-14.978831
2154.951875	-15.029990
2156.502000	-15.084108
2158.054357	-15.140897
2159.608950	-15.200157
2161.165785	-15.262261
2162.724866	-15.327799
2164.286198	-15.396883
2165.849786	-15.469116
2167.415635	-15.544267
2168.983749	-15.622479
2170.554134	-15.703764
2172.126795	-15.787794
2173.701737	-15.874191
2175.278964	-15.962709
2176.858481	-16.052884
2178.440294	-16.143917
2180.024408	-16.235139
2181.610827	-16.326276
2183.199557	-16.417031
2184.790602	-16.506536
2186.383968	-16.593475
2187.979660	-16.676732
2189.577683	-16.755819
2191.178041	-16.830769
2192.780741	-16.901798
2194.385787	-16.968831
2195.993185	-17.031679
2197.602939	-17.090576
2199.215054	-17.140141
