# 2022-03-21_17.47.47
# shape = sech2
# FWHM_ps = 0.1
# carrier_nm = 1542
# frep_MHz = 12126
# pow_mW = 8000
# GDD = 0.0
# propa_len = 0.14444444444444446
# untap_len = 0.01
# taper_len = 0.08444444444444445
# waist_len = 0.02
# uptap_len = 0.02
# untap_scale = 1.0
# waist_scale = 0.12777777777777777
# workingDir = NL_20110305_12 (Spirou)
# axis = slow
# window_ps = 10.0
# steps = 200
# points = 21700
# 
# wavelength [nm]	 power spectral density [dB]
600.043425	-87.750963
600.163550	-91.017493
600.283723	-93.367718
600.403943	-100.855321
600.524212	-90.986737
600.644529	-102.402260
600.764895	-88.698319
600.885308	-97.198234
601.005770	-89.394746
601.126280	-109.485996
601.246839	-93.375971
601.367446	-99.823448
601.488101	-98.964088
601.608804	-94.685187
601.729557	-96.563794
601.850357	-99.367212
601.971206	-100.920305
602.092104	-100.642479
602.213050	-96.590323
602.334045	-95.632567
602.455089	-97.135256
602.576181	-106.098934
602.697322	-101.544679
602.818511	-102.617685
602.939749	-91.761069
603.061036	-96.925408
603.182372	-91.319301
603.303757	-100.376443
603.425191	-97.014614
603.546673	-107.456636
603.668204	-100.349942
603.789785	-101.931740
603.911414	-101.997117
604.033092	-107.592737
604.154820	-101.663496
604.276596	-104.387875
604.398422	-94.925085
604.520297	-97.795609
604.642220	-90.676145
604.764193	-94.379708
604.886216	-88.812493
605.008287	-98.954680
605.130408	-87.574134
605.252578	-92.844950
605.374798	-85.732457
605.497066	-93.510530
605.619385	-84.748415
605.741752	-99.461546
605.864169	-87.855030
605.986636	-102.641703
606.109152	-91.662364
606.231718	-94.389372
606.354333	-96.805619
606.476998	-92.673099
606.599712	-89.956212
606.722476	-91.642975
606.845290	-87.439096
606.968154	-87.601870
607.091067	-87.591247
607.214030	-87.472491
607.337043	-91.369708
607.460106	-91.938584
607.583219	-99.947192
607.706381	-91.608194
607.829594	-87.505749
607.952856	-85.914233
608.076169	-85.783701
608.199531	-87.020946
608.322944	-90.714145
608.446407	-98.991106
608.569920	-98.789150
608.693483	-90.193378
608.817096	-91.157014
608.940759	-86.160989
609.064473	-94.625817
609.188237	-88.481028
609.312051	-102.038610
609.435916	-94.832491
609.559831	-93.215306
609.683796	-92.633856
609.807812	-88.309571
609.931878	-87.586439
610.055995	-87.313288
610.180162	-84.709597
610.304380	-88.356399
610.428648	-84.450219
610.552967	-94.169778
610.677337	-82.492956
610.801757	-94.878631
610.926228	-82.204198
611.050750	-90.769582
611.175323	-82.503112
611.299946	-94.243988
611.424620	-86.743096
611.549345	-89.916224
611.674121	-88.156468
611.798948	-87.479919
611.923826	-88.082566
612.048755	-92.104863
612.173734	-85.919609
612.298765	-92.215379
612.423847	-85.361975
612.548980	-90.479077
612.674165	-87.105000
612.799400	-96.750149
612.924687	-88.630342
613.050025	-91.771264
613.175414	-86.785555
613.300854	-87.396009
613.426346	-87.484464
613.551889	-84.014344
613.677484	-90.810116
613.803130	-86.167089
613.928827	-91.608434
614.054576	-88.647001
614.180377	-87.746912
614.306229	-92.840523
614.432132	-88.608662
614.558087	-96.845393
614.684094	-90.736476
614.810153	-89.382677
614.936263	-93.332458
615.062425	-84.061859
615.188639	-94.252617
615.314904	-82.941018
615.441222	-97.291132
615.567591	-83.972108
615.694012	-89.382824
615.820486	-91.055293
615.947011	-84.212340
616.073588	-93.239961
616.200217	-82.599941
616.326898	-88.689936
616.453632	-86.547816
616.580417	-89.985230
616.707255	-90.721039
616.834144	-91.021299
616.961086	-84.488447
617.088081	-99.912084
617.215127	-87.487991
617.342226	-88.502105
617.469378	-91.886708
617.596581	-88.736130
617.723837	-96.372205
617.851146	-92.708269
617.978507	-96.884138
618.105920	-90.397893
618.233386	-91.332062
618.360905	-84.214068
618.488476	-93.880814
618.616100	-87.232227
618.743777	-90.517772
618.871506	-98.806112
618.999288	-88.198573
619.127123	-93.733850
619.255011	-90.720585
619.382951	-83.679257
619.510945	-87.600350
619.638991	-83.451777
619.767090	-102.616235
619.895243	-89.478658
620.023448	-90.565247
620.151706	-92.418085
620.280017	-88.334591
620.408382	-90.035339
620.536799	-92.150900
620.665270	-87.520333
620.793794	-99.506788
620.922371	-89.233464
621.051002	-92.100988
621.179686	-86.473691
621.308423	-89.828662
621.437213	-89.217679
621.566057	-87.565026
621.694954	-101.302479
621.823905	-85.194025
621.952909	-90.396606
622.081967	-90.362337
622.211079	-84.916778
622.340244	-90.411307
622.469462	-83.223693
622.598735	-86.836993
622.728061	-85.211285
622.857441	-88.615357
622.986874	-96.798493
623.116361	-85.988527
623.245903	-97.273806
623.375498	-89.545057
623.505147	-97.395586
623.634850	-99.241813
623.764606	-92.583583
623.894417	-99.190985
624.024282	-94.186855
624.154201	-94.290978
624.284174	-91.795525
624.414202	-97.534466
624.544283	-99.709301
624.674419	-92.909345
624.804609	-105.911080
624.934853	-89.240602
625.065151	-91.713004
625.195504	-84.507803
625.325911	-105.673074
625.456373	-92.817190
625.586889	-94.047376
625.717460	-104.275070
625.848085	-98.310128
625.978764	-102.245115
626.109498	-92.432012
626.240287	-101.296544
626.371131	-91.316713
626.502029	-94.499893
626.632982	-99.015499
626.763989	-85.433476
626.895052	-86.676358
627.026169	-83.080771
627.157341	-86.901030
627.288568	-87.993035
627.419850	-84.147072
627.551187	-87.790879
627.682579	-82.881675
627.814026	-90.028447
627.945528	-91.369305
628.077085	-84.501477
628.208697	-88.404711
628.340364	-86.082386
628.472087	-92.147201
628.603865	-91.817455
628.735698	-86.218559
628.867586	-90.767080
628.999530	-92.503578
629.131529	-98.875084
629.263584	-90.320926
629.395694	-88.087200
629.527859	-90.498452
629.660080	-95.678298
629.792357	-92.350474
629.924689	-99.321837
630.057077	-88.720570
630.189520	-85.634243
630.322019	-86.518623
630.454574	-86.949256
630.587184	-93.973677
630.719851	-86.660184
630.852573	-86.940094
630.985351	-85.288685
631.118185	-84.735711
631.251075	-90.878426
631.384021	-89.082452
631.517023	-87.130743
631.650081	-93.185001
631.783195	-88.890985
631.916365	-88.311775
632.049592	-91.001782
632.182874	-87.330759
632.316213	-91.913608
632.449608	-95.883777
632.583059	-94.958455
632.716567	-87.259898
632.850131	-95.188742
632.983751	-91.811722
633.117428	-95.322013
633.251161	-99.163142
633.384951	-90.414804
633.518797	-108.138384
633.652700	-92.877808
633.786660	-89.114158
633.920676	-85.617493
634.054749	-87.104090
634.188879	-96.978190
634.323065	-86.292428
634.457308	-90.676899
634.591608	-86.664687
634.725965	-94.435767
634.860379	-95.015389
634.994850	-86.616578
635.129377	-89.974311
635.263962	-93.916014
635.398604	-83.103821
635.533303	-87.425149
635.668058	-84.649133
635.802872	-86.090974
635.937742	-86.488237
636.072669	-90.821472
636.207654	-86.704364
636.342696	-89.610928
636.477796	-95.259324
636.612953	-88.030271
636.748167	-81.457786
636.883439	-85.726187
637.018768	-80.883812
637.154155	-87.006468
637.289599	-87.346864
637.425101	-81.038204
637.560660	-90.770804
637.696277	-94.287449
637.831952	-83.595403
637.967685	-82.920276
638.103475	-82.650980
638.239324	-87.359577
638.375230	-87.305651
638.511194	-82.650697
638.647215	-81.415961
638.783295	-86.974903
638.919433	-85.626173
639.055629	-102.730221
639.191883	-83.917207
639.328195	-87.942070
639.464565	-85.400601
639.600994	-91.690047
639.737481	-93.520936
639.874025	-84.581451
640.010629	-92.351088
640.147290	-97.211010
640.284010	-82.543460
640.420789	-85.605481
640.557625	-89.206567
640.694521	-91.771288
640.831474	-85.352951
640.968487	-85.716400
641.105558	-83.373431
641.242687	-91.929681
641.379876	-90.771700
641.517123	-83.783711
641.654429	-88.883053
641.791793	-94.601981
641.929216	-83.901737
642.066699	-92.077611
642.204240	-94.979854
642.341840	-83.180107
642.479499	-85.428438
642.617217	-87.025912
642.754994	-86.168420
642.892830	-87.753393
643.030726	-87.149466
643.168680	-92.025272
643.306694	-86.069392
643.444767	-85.370172
643.582899	-90.419694
643.721091	-92.650348
643.859342	-87.084176
643.997652	-80.813115
644.136022	-82.792407
644.274451	-78.969909
644.412940	-77.270609
644.551488	-80.420536
644.690096	-78.596079
644.828763	-81.726419
644.967490	-83.697594
645.106277	-81.342811
645.245124	-83.717164
645.384030	-78.497406
645.522997	-79.005933
645.662023	-75.486963
645.801109	-76.669361
645.940255	-75.616761
646.079460	-75.910091
646.218726	-80.876035
646.358052	-78.861803
646.497438	-82.804297
646.636884	-77.725353
646.776391	-79.307182
646.915957	-77.424787
647.055584	-81.095702
647.195271	-85.582486
647.335019	-81.143450
647.474826	-79.929357
647.614695	-84.856911
647.754623	-81.842343
647.894612	-77.608973
648.034662	-82.439378
648.174772	-80.871489
648.314943	-79.162653
648.455174	-84.404985
648.595466	-81.487581
648.735819	-83.499417
648.876233	-81.365206
649.016707	-80.433596
649.157242	-77.423073
649.297838	-78.351927
649.438495	-78.402257
649.579213	-78.228842
649.719992	-86.124623
649.860832	-100.413232
650.001733	-84.146134
650.142695	-82.378383
650.283718	-86.323092
650.424803	-90.219532
650.565949	-85.336987
650.707156	-82.089052
650.848424	-78.999935
650.989754	-76.516455
651.131145	-79.772073
651.272597	-79.962300
651.414111	-84.312719
651.555687	-102.957356
651.697324	-102.592187
651.839022	-81.411432
651.980782	-83.149888
652.122604	-84.311938
652.264488	-90.025053
652.406433	-81.975367
652.548441	-85.699628
652.690510	-78.652773
652.832640	-79.367367
652.974833	-82.567140
653.117088	-83.810718
653.259405	-83.140228
653.401784	-82.896782
653.544224	-79.547200
653.686727	-78.205797
653.829293	-80.123826
653.971920	-78.910177
654.114609	-83.177991
654.257361	-95.586977
654.400175	-85.042824
654.543052	-80.550691
654.685991	-80.043523
654.828992	-78.827373
654.972056	-79.073791
655.115183	-80.611044
655.258372	-83.774984
655.401623	-78.096196
655.544937	-82.193466
655.688314	-81.695809
655.831754	-87.951021
655.975256	-84.312627
656.118822	-83.646113
656.262450	-83.123284
656.406141	-83.216644
656.549894	-77.801136
656.693711	-75.442413
656.837591	-78.906219
656.981534	-76.353018
657.125540	-78.512912
657.269610	-86.977084
657.413742	-94.935405
657.557938	-82.398941
657.702196	-85.900263
657.846519	-87.809601
657.990904	-98.386602
658.135353	-83.399330
658.279866	-78.695223
658.424441	-77.241302
658.569081	-74.420051
658.713784	-78.936806
658.858550	-78.730283
659.003381	-78.610562
659.148274	-82.670645
659.293232	-80.241423
659.438253	-79.853116
659.583339	-80.735983
659.728488	-78.071354
659.873701	-83.761216
660.018978	-82.476012
660.164318	-83.536625
660.309723	-81.667379
660.455192	-81.145588
660.600725	-87.436232
660.746323	-87.705963
660.891984	-85.988967
661.037710	-78.459428
661.183500	-78.391662
661.329354	-81.948438
661.475272	-86.187695
661.621255	-84.951070
661.767303	-81.365586
661.913415	-94.637612
662.059591	-84.686932
662.205833	-78.875036
662.352138	-78.190140
662.498509	-82.751915
662.644944	-87.570014
662.791443	-80.329183
662.938008	-79.234905
663.084638	-76.378702
663.231332	-77.890646
663.378091	-82.078833
663.524915	-92.099331
663.671804	-81.296014
663.818759	-79.241444
663.965778	-81.311340
664.112863	-89.882501
664.260012	-92.240182
664.407227	-90.619590
664.554507	-82.396764
664.701853	-79.666780
664.849264	-87.451237
664.996740	-87.020396
665.144282	-79.119892
665.291889	-75.700277
665.439561	-77.628842
665.587300	-76.856096
665.735103	-77.566036
665.882973	-77.491048
666.030908	-79.183636
666.178909	-77.947935
666.326976	-74.099346
666.475109	-82.534629
666.623307	-99.587821
666.771571	-83.159762
666.919902	-81.980611
667.068298	-82.364155
667.216761	-89.903075
667.365289	-83.735174
667.513884	-77.230869
667.662545	-86.299384
667.811272	-82.758294
667.960065	-75.786335
668.108925	-77.378064
668.257851	-85.016795
668.406843	-98.051351
668.555902	-81.212573
668.705027	-86.290177
668.854219	-85.040946
669.003478	-81.807712
669.152803	-89.739322
669.302195	-78.360022
669.451653	-77.401808
669.601179	-92.845952
669.750771	-81.558967
669.900430	-78.513786
670.050156	-77.665830
670.199949	-81.595210
670.349808	-84.865918
670.499735	-83.211148
670.649729	-82.746452
670.799790	-78.490605
670.949918	-88.795608
671.100114	-81.209129
671.250377	-81.501041
671.400707	-81.676932
671.551104	-95.640575
671.701569	-82.549696
671.852101	-81.551457
672.002700	-79.781989
672.153368	-85.559934
672.304102	-78.656324
672.454905	-85.471474
672.605775	-75.477593
672.756713	-96.660552
672.907718	-85.119135
673.058791	-94.713400
673.209933	-77.022617
673.361142	-82.243951
673.512419	-83.411305
673.663764	-81.160168
673.815177	-82.382564
673.966658	-88.729738
674.118207	-86.074513
674.269825	-90.106689
674.421510	-83.302052
674.573264	-80.749526
674.725086	-94.241036
674.876977	-87.964910
675.028936	-82.185737
675.180963	-77.179073
675.333059	-82.180161
675.485224	-87.776104
675.637457	-81.615450
675.789758	-77.382761
675.942129	-78.147055
676.094568	-87.812746
676.247075	-85.637581
676.399652	-86.389159
676.552298	-91.333749
676.705012	-75.082655
676.857795	-79.830682
677.010648	-79.784862
677.163569	-79.002070
677.316560	-74.425133
677.469619	-79.336710
677.622748	-76.643750
677.775946	-72.814252
677.929214	-74.216232
678.082551	-76.312256
678.235957	-78.514455
678.389432	-92.109508
678.542977	-87.062519
678.696592	-87.170433
678.850276	-81.180332
679.004030	-82.766072
679.157853	-77.821455
679.311746	-81.423773
679.465709	-82.989532
679.619742	-81.998973
679.773844	-85.905542
679.928017	-77.542000
680.082259	-75.550879
680.236571	-74.157904
680.390954	-74.528561
680.545406	-75.338952
680.699929	-72.985982
680.854522	-73.291201
681.009185	-83.807430
681.163918	-84.594469
681.318722	-86.871600
681.473596	-76.363421
681.628540	-75.125773
681.783555	-79.314257
681.938641	-85.149981
682.093797	-80.824321
682.249023	-78.614923
682.404321	-79.472580
682.559689	-79.388189
682.715128	-75.008901
682.870637	-75.348921
683.026218	-78.087289
683.181869	-81.892402
683.337591	-76.790384
683.493385	-86.898875
683.649249	-80.850573
683.805185	-84.681742
683.961191	-75.220541
684.117269	-82.677278
684.273418	-79.510568
684.429639	-80.569926
684.585930	-72.266672
684.742294	-71.638512
684.898728	-76.155367
685.055234	-78.912638
685.211812	-74.417470
685.368461	-76.995712
685.525182	-82.039748
685.681975	-89.278937
685.838839	-80.129402
685.995775	-78.369695
686.152783	-80.916884
686.309863	-81.198190
686.467014	-87.728720
686.624238	-82.733280
686.781534	-77.370347
686.938902	-76.131458
687.096342	-76.226660
687.253854	-75.420735
687.411438	-76.063505
687.569095	-76.856024
687.726824	-75.730040
687.884626	-74.886755
688.042499	-79.942588
688.200446	-79.322792
688.358465	-76.654649
688.516556	-76.626731
688.674720	-79.498483
688.832957	-78.276112
688.991266	-84.387173
689.149649	-75.303915
689.308104	-74.912681
689.466632	-75.330660
689.625233	-85.898779
689.783906	-83.999367
689.942653	-76.327837
690.101473	-72.354784
690.260367	-77.695202
690.419333	-84.134357
690.578372	-78.975307
690.737485	-70.997140
690.896672	-73.078748
691.055931	-84.889980
691.215264	-87.705225
691.374671	-76.382892
691.534151	-72.914277
691.693704	-82.341844
691.853332	-82.014579
692.013033	-80.623939
692.172807	-74.366729
692.332656	-73.593952
692.492578	-77.205988
692.652575	-74.172454
692.812645	-71.982620
692.972789	-73.010156
693.133007	-75.380556
693.293300	-72.914270
693.453666	-71.847923
693.614107	-75.063920
693.774622	-75.955210
693.935211	-75.791459
694.095875	-73.857291
694.256613	-78.103803
694.417426	-74.464443
694.578313	-79.335979
694.739274	-78.677581
694.900311	-79.064953
695.061421	-76.331601
695.222607	-73.129549
695.383868	-76.043664
695.545203	-81.141052
695.706613	-73.249831
695.868098	-73.201671
696.029658	-73.074280
696.191293	-77.179876
696.353003	-73.349767
696.514789	-72.968945
696.676649	-73.901205
696.838585	-81.243180
697.000596	-79.162003
697.162682	-78.096879
697.324844	-75.438616
697.487081	-74.554631
697.649394	-76.141453
697.811782	-77.745358
697.974246	-75.635307
698.136786	-73.262960
698.299401	-74.535658
698.462092	-77.874558
698.624859	-72.969472
698.787702	-71.563260
698.950621	-73.345483
699.113616	-75.539031
699.276686	-74.530498
699.439833	-69.444703
699.603056	-70.421829
699.766355	-81.995818
699.929731	-80.468220
700.093183	-81.512749
700.256711	-71.950331
700.420315	-74.095943
700.583996	-78.669745
700.747754	-76.656902
700.911588	-78.880917
701.075499	-70.368040
701.239486	-70.610274
701.403550	-76.646844
701.567691	-85.420178
701.731909	-84.229099
701.896203	-74.242555
702.060575	-72.170687
702.225024	-86.123641
702.389549	-83.744090
702.554152	-82.415480
702.718832	-70.086942
702.883589	-69.748412
703.048424	-77.017204
703.213335	-84.330091
703.378324	-74.661308
703.543391	-71.365053
703.708535	-72.412836
703.873757	-75.730466
704.039056	-97.703075
704.204433	-80.407518
704.369887	-74.355136
704.535420	-68.363047
704.701030	-71.543392
704.866718	-78.060331
705.032484	-77.540714
705.198328	-72.610964
705.364250	-75.421078
705.530250	-80.431464
705.696328	-81.088433
705.862485	-81.676045
706.028720	-77.005513
706.195033	-80.416170
706.361424	-70.326514
706.527894	-73.063797
706.694442	-76.872954
706.861069	-72.659472
707.027775	-67.765830
707.194559	-70.979824
707.361422	-81.299721
707.528363	-86.048904
707.695384	-71.099642
707.862483	-70.534114
708.029661	-74.825832
708.196918	-76.008280
708.364254	-87.221611
708.531670	-83.391318
708.699164	-71.816764
708.866738	-67.761293
709.034391	-71.612988
709.202123	-87.738334
709.369935	-90.492620
709.537826	-74.337488
709.705796	-75.145061
709.873847	-71.664710
710.041976	-68.967052
710.210186	-69.158628
710.378475	-70.547406
710.546844	-72.068452
710.715292	-76.510001
710.883821	-85.486256
711.052429	-79.147210
711.221118	-72.623152
711.389887	-67.365299
711.558735	-69.146827
711.727664	-73.664945
711.896673	-74.786474
712.065763	-70.041696
712.234932	-78.289337
712.404183	-70.846452
712.573513	-67.141823
712.742924	-72.519960
712.912416	-75.489248
713.081988	-83.244912
713.251641	-69.646080
713.421375	-69.120898
713.591190	-67.912669
713.761085	-67.741225
713.931061	-67.918994
714.101119	-71.448518
714.271257	-74.821593
714.441476	-69.441039
714.611777	-76.020479
714.782159	-73.007040
714.952622	-69.975124
715.123166	-67.159178
715.293792	-70.822217
715.464499	-67.891496
715.635288	-66.603457
715.806158	-68.225614
715.977110	-70.703195
716.148143	-68.479402
716.319259	-67.234258
716.490456	-73.891664
716.661735	-78.419619
716.833096	-73.645641
717.004538	-69.193346
717.176063	-66.594911
717.347670	-65.480963
717.519359	-68.440817
717.691130	-72.659657
717.862984	-74.012795
718.034920	-85.084445
718.206938	-67.603985
718.379039	-61.689972
718.551222	-62.142925
718.723488	-65.674277
718.895836	-68.618295
719.068267	-67.653152
719.240781	-70.840177
719.413377	-68.857814
719.586057	-65.154507
719.758819	-66.193016
719.931664	-69.164403
720.104593	-69.432065
720.277604	-63.599730
720.450699	-65.706188
720.623876	-73.899345
720.797137	-73.952355
720.970482	-69.594801
721.143910	-68.249087
721.317421	-66.384198
721.491016	-62.325761
721.664694	-62.175539
721.838456	-65.281571
722.012302	-70.753713
722.186231	-75.303236
722.360244	-64.107054
722.534342	-63.469565
722.708523	-65.190188
722.882788	-66.275400
723.057137	-65.922714
723.231570	-67.493089
723.406088	-66.825179
723.580689	-64.271365
723.755375	-64.259097
723.930146	-65.383425
724.105000	-70.551845
724.279940	-67.346173
724.454963	-65.463078
724.630072	-63.455172
724.805265	-63.535611
724.980543	-61.817280
725.155905	-64.392377
725.331353	-68.686740
725.506885	-68.223418
725.682503	-62.096088
725.858205	-67.010596
726.033993	-67.789976
726.209865	-65.147880
726.385823	-62.602548
726.561866	-62.613711
726.737995	-62.162173
726.914209	-64.021085
727.090508	-63.292143
727.266893	-63.951534
727.443364	-65.431275
727.619920	-69.475735
727.796562	-64.710446
727.973290	-61.710050
728.150103	-61.975384
728.327003	-64.934047
728.503988	-65.429371
728.681060	-64.226347
728.858218	-63.216554
729.035461	-64.019809
729.212791	-61.760858
729.390208	-61.835232
729.567710	-66.145001
729.745299	-71.235663
729.922975	-62.131641
730.100737	-61.626004
730.278586	-62.276072
730.456521	-62.322462
730.634543	-60.150256
730.812652	-60.529090
730.990848	-62.240221
731.169130	-66.044248
731.347500	-62.309557
731.525957	-59.978410
731.704500	-62.423974
731.883131	-67.543159
732.061850	-61.457304
732.240655	-61.050668
732.419548	-63.048573
732.598528	-62.898408
732.777596	-61.442735
732.956751	-62.253190
733.135994	-62.598519
733.315325	-63.652202
733.494744	-63.298402
733.674250	-60.877920
733.853844	-61.891044
734.033526	-64.515698
734.213296	-60.849298
734.393154	-59.386615
734.573101	-62.755294
734.753135	-63.883705
734.933258	-60.267234
735.113469	-59.299144
735.293769	-61.677441
735.474157	-63.120422
735.654633	-62.240591
735.835198	-60.675850
736.015852	-62.005543
736.196594	-63.131495
736.377426	-62.209409
736.558346	-60.405591
736.739355	-59.545579
736.920453	-59.520972
737.101640	-61.057234
737.282916	-60.843980
737.464282	-59.359677
737.645736	-59.930688
737.827280	-61.354520
738.008914	-61.511559
738.190637	-61.798826
738.372449	-61.775194
738.554351	-61.824949
738.736342	-63.139282
738.918424	-60.636683
739.100595	-59.738552
739.282855	-61.254102
739.465206	-60.084678
739.647647	-58.036742
739.830178	-60.814352
740.012799	-61.584882
740.195510	-59.632150
740.378311	-60.162449
740.561203	-61.431777
740.744185	-60.199716
740.927258	-61.275228
741.110421	-61.191892
741.293674	-60.246139
741.477018	-60.383575
741.660453	-60.686446
741.843979	-59.904280
742.027596	-60.449965
742.211303	-61.624174
742.395102	-60.127196
742.578991	-61.126701
742.762972	-63.100241
742.947044	-61.072349
743.131207	-59.084933
743.315461	-58.302960
743.499807	-59.607484
743.684244	-60.104304
743.868773	-59.331280
744.053394	-59.056298
744.238106	-59.058753
744.422910	-61.245314
744.607805	-62.029770
744.792793	-61.060891
744.977872	-59.643392
745.163044	-61.519780
745.348307	-62.415403
745.533663	-61.801368
745.719111	-60.015262
745.904651	-58.751997
746.090283	-59.626886
746.276008	-61.491137
746.461826	-58.357296
746.647735	-58.836236
746.833738	-60.844688
747.019833	-60.680230
747.206021	-62.046222
747.392302	-63.596488
747.578676	-59.572308
747.765143	-58.884228
747.951703	-60.289888
748.138356	-61.828975
748.325102	-59.421739
748.511941	-58.518604
748.698874	-57.509943
748.885900	-59.009128
749.073019	-62.339077
749.260232	-60.627840
749.447539	-59.399123
749.634939	-61.717873
749.822433	-61.880560
750.010021	-59.752616
750.197703	-60.349705
750.385479	-59.957313
750.573348	-61.091619
750.761312	-65.083588
750.949370	-61.664957
751.137523	-58.604398
751.325769	-60.619419
751.514110	-60.341260
751.702545	-59.237227
751.891075	-60.898828
752.079700	-62.621785
752.268419	-60.880893
752.457233	-62.095537
752.646142	-62.088837
752.835145	-62.461229
753.024244	-62.734491
753.213437	-59.395075
753.402726	-57.560638
753.592110	-61.072156
753.781589	-63.441400
753.971163	-60.467369
754.160833	-60.636113
754.350598	-62.156150
754.540459	-61.180922
754.730415	-64.118174
754.920467	-61.014373
755.110615	-60.453772
755.300858	-63.651280
755.491198	-62.587683
755.681633	-59.355755
755.872164	-61.724040
756.062792	-60.678646
756.253515	-61.107176
756.444335	-65.601518
756.635252	-62.311389
756.826264	-60.792996
757.017373	-66.209295
757.208579	-60.612037
757.399881	-60.485188
757.591280	-66.257561
757.782776	-62.178910
757.974368	-62.166994
758.166058	-64.318839
758.357844	-62.580162
758.549728	-63.692811
758.741708	-64.102071
758.933786	-62.360696
759.125961	-60.936266
759.318233	-62.094221
759.510603	-62.233928
759.703071	-61.831362
759.895635	-63.106737
760.088298	-64.148732
760.281058	-63.008694
760.473916	-69.553438
760.666872	-63.719288
760.859926	-63.306177
761.053078	-61.756546
761.246328	-61.993502
761.439676	-63.697276
761.633122	-66.891815
761.826667	-61.915180
762.020310	-66.139246
762.214052	-62.097367
762.407892	-62.104417
762.601831	-67.681111
762.795868	-65.282696
762.990004	-63.149354
763.184239	-67.073566
763.378573	-62.081611
763.573006	-61.783335
763.767538	-66.715466
763.962169	-63.234657
764.156900	-61.173217
764.351729	-62.826245
764.546658	-63.658266
764.741687	-66.768723
764.936815	-63.060356
765.132042	-64.388399
765.327370	-66.726102
765.522797	-61.537234
765.718324	-63.328613
765.913950	-66.438653
766.109677	-59.913170
766.305504	-61.445013
766.501431	-67.861951
766.697458	-63.844934
766.893586	-61.871566
767.089814	-63.991077
767.286142	-63.212415
767.482571	-62.123327
767.679100	-62.884624
767.875730	-61.906296
768.072461	-63.219374
768.269293	-62.747496
768.466225	-59.408097
768.663259	-64.020017
768.860393	-62.956297
769.057629	-61.406966
769.254966	-64.109505
769.452404	-59.087493
769.649944	-60.607894
769.847585	-63.086131
770.045328	-60.725528
770.243172	-64.208478
770.441118	-63.925737
770.639166	-59.355878
770.837315	-61.881298
771.035567	-59.396944
771.233920	-59.607827
771.432376	-61.388830
771.630934	-58.770394
771.829594	-59.632849
772.028356	-61.050395
772.227220	-57.439403
772.426188	-57.378163
772.625257	-60.865288
772.824430	-59.655874
773.023705	-58.790066
773.223083	-63.340756
773.422563	-58.891938
773.622147	-59.009634
773.821834	-57.040885
774.021624	-56.214341
774.221517	-60.025998
774.421513	-58.417885
774.621613	-56.658457
774.821816	-60.986371
775.022122	-57.633171
775.222532	-57.623530
775.423046	-55.825505
775.623664	-55.870382
775.824385	-60.049030
776.025211	-56.223551
776.226140	-57.129808
776.427173	-58.608870
776.628311	-56.663992
776.829553	-58.469921
777.030899	-56.886193
777.232350	-56.666017
777.433905	-57.423545
777.635564	-57.144610
777.837328	-56.179306
778.039197	-56.390658
778.241171	-55.010184
778.443250	-55.535450
778.645433	-56.122564
778.847722	-55.205350
779.050116	-54.409415
779.252615	-56.227328
779.455219	-54.826192
779.657929	-55.449074
779.860744	-56.528052
780.063665	-55.494130
780.266691	-57.826661
780.469823	-54.583873
780.673061	-53.809429
780.876405	-56.442094
781.079855	-53.685897
781.283410	-54.781055
781.487072	-53.912691
781.690840	-52.730483
781.894715	-55.188194
782.098695	-52.861079
782.302783	-53.603432
782.506976	-56.429644
782.711277	-52.225603
782.915684	-52.573950
783.120198	-52.732434
783.324818	-53.177498
783.529546	-55.254761
783.734381	-53.502655
783.939322	-53.898290
784.144372	-53.786178
784.349528	-53.694858
784.554792	-52.619065
784.760163	-52.961293
784.965642	-53.747932
785.171228	-53.219000
785.376922	-52.605080
785.582724	-53.518074
785.788634	-53.415936
785.994651	-51.512049
786.200777	-50.800856
786.407011	-52.228900
786.613353	-51.430236
786.819804	-52.752349
787.026363	-52.188426
787.233030	-51.001220
787.439806	-52.472772
787.646691	-50.217468
787.853684	-51.610770
788.060786	-53.823186
788.267997	-52.104588
788.475317	-51.779432
788.682746	-50.726810
788.890285	-52.685749
789.097932	-52.776084
789.305689	-51.027910
789.513555	-51.922477
789.721531	-50.804987
789.929617	-50.432394
790.137812	-51.520019
790.346117	-51.356444
790.554531	-50.488853
790.763056	-50.813977
790.971691	-49.693790
791.180436	-49.248202
791.389291	-51.484978
791.598256	-49.674292
791.807332	-51.035979
792.016518	-50.275760
792.225815	-49.741034
792.435222	-50.446273
792.644740	-49.512708
792.854369	-51.894956
793.064109	-48.546626
793.273960	-49.085836
793.483922	-51.627679
793.693995	-48.762320
793.904180	-50.989415
794.114475	-49.915271
794.324882	-49.472957
794.535401	-51.462557
794.746031	-48.284242
794.956774	-51.296981
795.167627	-48.819809
795.378593	-49.726994
795.589671	-51.474167
795.800861	-49.365164
796.012162	-50.780990
796.223577	-49.605828
796.435103	-49.325406
796.646742	-48.708254
796.858493	-48.814976
797.070357	-49.170724
797.282334	-48.441645
797.494423	-49.296108
797.706626	-49.429399
797.918941	-49.639764
798.131369	-48.410604
798.343911	-49.070083
798.556566	-48.825937
798.769334	-48.312799
798.982215	-49.559774
799.195210	-47.132269
799.408319	-48.607229
799.621541	-48.818268
799.834877	-47.841442
800.048327	-48.929334
800.261890	-46.803883
800.475568	-49.729451
800.689360	-47.171864
800.903266	-47.806318
801.117287	-48.786080
801.331422	-47.393143
801.545671	-50.048520
801.760036	-47.375971
801.974514	-48.505373
802.189108	-48.099667
802.403816	-47.317285
802.618640	-49.218236
802.833578	-47.117427
803.048632	-47.680657
803.263800	-47.956681
803.479085	-48.811753
803.694484	-48.666315
803.909999	-47.621069
804.125630	-48.342657
804.341376	-47.945023
804.557239	-49.170454
804.773217	-47.285664
804.989311	-47.083820
805.205521	-47.977760
805.421847	-48.141438
805.638290	-48.627395
805.854849	-47.952993
806.071524	-47.518365
806.288316	-48.934766
806.505225	-47.782851
806.722250	-47.415957
806.939393	-49.145049
807.156652	-46.596009
807.374028	-48.211481
807.591521	-47.846161
807.809132	-46.766067
808.026859	-47.534371
808.244705	-46.978711
808.462667	-49.391484
808.680748	-47.787380
808.898946	-47.087094
809.117261	-47.337007
809.335695	-46.892610
809.554246	-47.894170
809.772916	-46.616254
809.991704	-48.308747
810.210610	-46.551296
810.429634	-47.135403
810.648777	-48.412969
810.868039	-46.596625
811.087419	-48.287728
811.306918	-46.760907
811.526535	-47.409486
811.746272	-47.415330
811.966127	-47.206272
812.186102	-47.173241
812.406196	-47.459251
812.626409	-46.577519
812.846742	-47.934910
813.067194	-47.071265
813.287766	-46.830229
813.508457	-47.808680
813.729269	-46.706062
813.950200	-47.573305
814.171251	-45.913341
814.392422	-48.223063
814.613714	-46.198052
814.835126	-47.719359
815.056658	-47.225484
815.278311	-46.367294
815.500084	-47.722984
815.721978	-45.834231
815.943993	-47.762348
816.166128	-46.994822
816.388385	-45.420428
816.610762	-47.565290
816.833261	-46.606212
817.055881	-46.646720
817.278623	-47.185894
817.501486	-46.195806
817.724471	-46.784264
817.947577	-47.270453
818.170805	-45.824453
818.394155	-47.706302
818.617627	-46.115189
818.841221	-46.390434
819.064937	-46.913469
819.288775	-46.496982
819.512736	-46.195995
819.736819	-46.717004
819.961025	-46.065357
820.185354	-46.562744
820.409805	-46.970885
820.634379	-45.412864
820.859076	-47.366597
821.083897	-45.443612
821.308840	-45.970734
821.533907	-46.734345
821.759097	-45.885122
821.984411	-47.192726
822.209848	-45.648893
822.435409	-46.567232
822.661093	-45.691945
822.886902	-46.425303
823.112834	-46.023030
823.338891	-46.240402
823.565072	-46.334802
823.791377	-45.655182
824.017807	-46.746493
824.244361	-45.895208
824.471039	-46.175633
824.697843	-46.152144
824.924771	-45.698359
825.151824	-46.341575
825.379002	-46.372671
825.606306	-45.977937
825.833734	-46.175472
826.061288	-45.797608
826.288967	-46.174165
826.516772	-46.122004
826.744703	-45.822289
826.972759	-46.089163
827.200941	-46.297665
827.429249	-46.147975
827.657683	-46.001508
827.886243	-46.347963
828.114930	-45.979911
828.343743	-46.593142
828.572682	-45.772866
828.801748	-45.692561
829.030941	-46.420511
829.260260	-45.506698
829.489706	-46.796683
829.719280	-45.417011
829.948980	-46.341525
830.178808	-45.429752
830.408763	-46.340872
830.638845	-45.995525
830.869055	-45.882742
831.099393	-45.828762
831.329858	-45.519428
831.560451	-46.503437
831.791173	-45.418768
832.022022	-46.011761
832.252999	-45.307689
832.484105	-45.332810
832.715339	-45.792652
832.946702	-45.899934
833.178193	-45.661199
833.409813	-45.813517
833.641561	-45.348602
833.873439	-46.123353
834.105445	-45.475643
834.337581	-45.807354
834.569846	-45.158668
834.802241	-45.691914
835.034764	-45.353418
835.267418	-45.886252
835.500201	-45.457094
835.733114	-45.412288
835.966157	-46.254894
836.199329	-44.673238
836.432632	-45.990421
836.666065	-44.958599
836.899629	-46.021977
837.133323	-44.636506
837.367147	-45.599130
837.601102	-45.543847
837.835188	-45.512498
838.069405	-44.960751
838.303752	-45.458501
838.538231	-45.373845
838.772841	-44.816825
839.007582	-45.121768
839.242455	-45.303363
839.477459	-44.786687
839.712595	-44.629182
839.947863	-44.745636
840.183263	-45.519083
840.418794	-44.252302
840.654458	-44.764663
840.890254	-44.729398
841.126182	-44.569494
841.362242	-44.570951
841.598435	-44.639290
841.834761	-44.807299
842.071220	-44.050001
842.307811	-44.840734
842.544536	-44.418391
842.781393	-44.880968
843.018384	-43.751653
843.255508	-44.407849
843.492765	-44.471514
843.730156	-43.954426
843.967681	-44.241001
844.205339	-44.253269
844.443132	-44.430637
844.681058	-43.581573
844.919118	-43.567102
845.157313	-44.075372
845.395642	-44.202500
845.634105	-43.574949
845.872703	-43.868428
846.111436	-43.929725
846.350303	-43.323983
846.589306	-43.334829
846.828443	-43.295213
847.067716	-44.262864
847.307124	-43.110473
847.546667	-43.268949
847.786345	-43.187872
848.026160	-43.159068
848.266110	-42.602730
848.506195	-43.010098
848.746417	-43.405260
848.986775	-43.037097
849.227269	-42.727303
849.467899	-42.489027
849.708666	-42.809184
849.949569	-42.692127
850.190609	-42.813906
850.431785	-42.826791
850.673099	-42.503055
850.914549	-42.434243
851.156137	-42.058624
851.397861	-42.383472
851.639723	-42.241751
851.881723	-42.158656
852.123860	-41.818998
852.366135	-41.972294
852.608547	-41.882924
852.851098	-42.176038
853.093786	-41.578094
853.336613	-41.868489
853.579578	-41.351992
853.822681	-41.477334
854.065923	-42.101146
854.309304	-41.637148
854.552823	-41.429844
854.796481	-40.855309
855.040278	-41.622919
855.284215	-40.989852
855.528290	-41.418995
855.772505	-40.669872
856.016859	-41.180421
856.261353	-40.848904
856.505987	-40.786052
856.750760	-41.017482
856.995673	-40.762734
857.240727	-40.976643
857.485920	-40.248618
857.731254	-40.716849
857.976729	-40.814067
858.222343	-40.756835
858.468099	-40.089106
858.713995	-40.524785
858.960032	-39.983370
859.206211	-40.279493
859.452530	-39.907327
859.698991	-40.263117
859.945593	-40.085703
860.192336	-39.877326
860.439222	-40.076249
860.686248	-39.729740
860.933417	-39.722602
861.180728	-39.497167
861.428181	-40.097934
861.675776	-39.296937
861.923514	-39.873876
862.171394	-39.075849
862.419417	-39.644365
862.667582	-39.062862
862.915890	-39.243190
863.164342	-39.302220
863.412936	-39.209727
863.661674	-39.331716
863.910555	-38.986987
864.159579	-38.890819
864.408747	-38.802751
864.658059	-38.932070
864.907515	-38.661726
865.157114	-38.801539
865.406858	-38.310541
865.656746	-39.365918
865.906778	-38.110423
866.156955	-39.099497
866.407277	-38.113916
866.657743	-38.304433
866.908354	-38.353341
867.159110	-38.238662
867.410011	-38.218041
867.661057	-38.261572
867.912249	-37.985463
868.163586	-38.423725
868.415069	-37.971015
868.666697	-37.756034
868.918472	-38.153679
869.170392	-37.546474
869.422458	-38.158747
869.674671	-37.376590
869.927030	-37.795395
870.179536	-37.814198
870.432188	-37.758343
870.684987	-37.538739
870.937933	-37.693157
871.191026	-37.032742
871.444266	-37.970993
871.697653	-37.044100
871.951188	-37.366323
872.204870	-37.437502
872.458700	-36.987156
872.712677	-37.351064
872.966803	-37.116563
873.221076	-36.932605
873.475498	-37.318256
873.730068	-37.029680
873.984787	-36.823377
874.239654	-37.139425
874.494669	-36.329671
874.749834	-37.325589
875.005147	-36.494183
875.260610	-36.659077
875.516222	-36.751219
875.771983	-36.549140
876.027894	-36.432240
876.283954	-36.899929
876.540164	-35.990208
876.796524	-36.916091
877.053033	-36.337265
877.309693	-36.123009
877.566503	-36.466217
877.823464	-36.305868
878.080575	-35.956251
878.337837	-36.531784
878.595249	-35.945458
878.852813	-35.956187
879.110528	-36.443578
879.368393	-35.828937
879.626410	-36.035186
879.884579	-36.174421
880.142899	-35.739993
880.401371	-35.967130
880.659994	-36.076568
880.918770	-35.539166
881.177698	-35.965495
881.436778	-35.674789
881.696010	-35.856060
881.955395	-35.627466
882.214933	-35.856637
882.474623	-35.559439
882.734467	-35.631899
882.994463	-35.612306
883.254613	-35.552064
883.514916	-35.386116
883.775372	-35.701401
884.035982	-35.128351
884.296746	-35.762339
884.557664	-35.228664
884.818735	-35.317798
885.079961	-35.501972
885.341341	-35.235182
885.602876	-35.238206
885.864565	-35.327540
886.126409	-34.960947
886.388407	-35.465041
886.650561	-34.861120
886.912870	-35.231781
887.175334	-34.997408
887.437953	-35.036281
887.700728	-35.204156
887.963658	-34.839854
888.226745	-34.913463
888.489987	-34.984286
888.753385	-34.674959
889.016940	-35.085663
889.280651	-34.706408
889.544518	-34.866439
889.808543	-34.741193
890.072723	-34.757667
890.337061	-34.724632
890.601556	-34.542111
890.866208	-34.696055
891.131017	-34.655187
891.395984	-34.355257
891.661109	-34.794729
891.926391	-34.312007
892.191831	-34.414724
892.457429	-34.581675
892.723186	-34.342795
892.989100	-34.431563
893.255173	-34.391334
893.521405	-34.152840
893.787796	-34.343943
894.054345	-34.261590
894.321053	-34.166168
894.587921	-34.226371
894.854948	-34.184735
895.122134	-34.139724
895.389480	-33.953180
895.656986	-34.133519
895.924651	-33.993034
896.192477	-33.868023
896.460463	-33.998799
896.728609	-33.862462
896.996915	-33.958388
897.265382	-33.736105
897.534010	-33.792467
897.802799	-33.688784
898.071749	-33.679091
898.340860	-33.576716
898.610132	-33.680343
898.879566	-33.585312
899.149162	-33.555767
899.418919	-33.496007
899.688838	-33.605459
899.958919	-33.319882
900.229162	-33.484274
900.499568	-33.289849
900.770136	-33.348762
901.040867	-33.249167
901.311761	-33.323054
901.582817	-33.196447
901.854037	-33.376790
902.125420	-32.879324
902.396966	-33.283561
902.668676	-33.016234
902.940550	-33.046268
903.212587	-32.922548
903.484788	-33.095102
903.757153	-32.732218
904.029683	-33.204827
904.302377	-32.563532
904.575236	-33.084694
904.848259	-32.702386
905.121447	-32.719246
905.394800	-32.731516
905.668319	-32.885224
905.942002	-32.464341
906.215852	-32.789022
906.489866	-32.566439
906.764047	-32.569658
907.038393	-32.491170
907.312906	-32.481767
907.587584	-32.482142
907.862429	-32.496635
908.137441	-32.227595
908.412619	-32.447403
908.687964	-32.287746
908.963476	-32.297593
909.239155	-32.183307
909.515002	-32.170935
909.791015	-32.162951
910.067197	-32.111380
910.343546	-32.050504
910.620063	-32.180956
910.896748	-31.933767
911.173601	-31.966114
911.450623	-31.908024
911.727813	-32.011015
912.005171	-31.730010
912.282699	-32.067987
912.560395	-31.523981
912.838261	-31.938947
913.116296	-31.697567
913.394500	-31.740175
913.672874	-31.490277
913.951418	-31.761521
914.230131	-31.345770
914.509015	-31.687482
914.788068	-31.480756
915.067292	-31.435980
915.346687	-31.316274
915.626252	-31.455239
915.905988	-31.241006
916.185895	-31.366006
916.465973	-31.333813
916.746223	-31.123907
917.026644	-31.325509
917.307236	-31.057399
917.588000	-31.232243
917.868937	-31.021856
918.150045	-31.302871
918.431325	-30.748224
918.712778	-31.303994
918.994404	-30.737859
919.276202	-31.149189
919.558173	-30.716096
919.840317	-31.129102
920.122634	-30.559210
920.405125	-30.973740
920.687789	-30.555742
920.970627	-30.797162
921.253639	-30.624846
921.536824	-30.729811
921.820184	-30.442058
922.103718	-30.601518
922.387427	-30.473649
922.671310	-30.435409
922.955368	-30.513130
923.239601	-30.390339
923.524009	-30.434877
923.808592	-30.174372
924.093351	-30.520208
924.378285	-30.113744
924.663396	-30.376636
924.948682	-30.151052
925.234144	-30.288451
925.519782	-30.066505
925.805597	-30.185905
926.091589	-30.061442
926.377757	-29.995741
926.664102	-30.054813
926.950624	-29.969769
927.237323	-29.899065
927.524200	-29.945916
927.811255	-29.784398
928.098487	-29.720548
928.385897	-29.802257
928.673485	-29.712516
928.961251	-29.657820
929.249196	-29.607545
929.537319	-29.626229
929.825621	-29.488103
930.114102	-29.541569
930.402762	-29.424082
930.691601	-29.437832
930.980620	-29.453155
931.269818	-29.376246
931.559196	-29.295167
931.848753	-29.320441
932.138491	-29.186066
932.428409	-29.258516
932.718508	-29.220992
933.008787	-29.116394
933.299246	-29.117032
933.589887	-29.189979
933.880709	-28.928952
934.171712	-29.038375
934.462896	-29.004318
934.754262	-28.914594
935.045810	-28.908682
935.337539	-28.950805
935.629451	-28.781740
935.921545	-28.835486
936.213822	-28.846063
936.506281	-28.658041
936.798922	-28.741681
937.091747	-28.791960
937.384755	-28.666443
937.677946	-28.655190
937.971321	-28.784127
938.264879	-28.573469
938.558621	-28.750806
938.852547	-28.560860
939.146657	-28.682996
939.440952	-28.567154
939.735431	-28.674501
940.030095	-28.521403
940.324943	-28.631842
940.619977	-28.583239
940.915196	-28.523194
941.210600	-28.550127
941.506189	-28.531580
941.801965	-28.427773
942.097926	-28.462400
942.394074	-28.501024
942.690407	-28.290484
942.986927	-28.415179
943.283634	-28.409545
943.580527	-28.272600
943.877608	-28.259968
944.174875	-28.305228
944.472330	-28.290407
944.769972	-28.070910
945.067802	-28.307472
945.365820	-28.155817
945.664026	-28.054340
945.962420	-28.189708
946.261002	-28.117127
946.559773	-28.009578
946.858733	-28.069896
947.157881	-28.101502
947.457219	-27.948750
947.756746	-28.044649
948.056462	-27.988168
948.356368	-28.015028
948.656464	-27.845230
948.956749	-28.103510
949.257225	-27.785833
949.557891	-27.951429
949.858748	-27.930426
950.159796	-27.787063
950.461034	-27.857703
950.762463	-27.830901
951.064084	-27.849079
951.365896	-27.643285
951.667900	-27.882823
951.970095	-27.644663
952.272483	-27.715295
952.575063	-27.632708
952.877835	-27.810164
953.180799	-27.409936
953.483956	-27.773163
953.787307	-27.500897
954.090850	-27.650316
954.394586	-27.381495
954.698516	-27.691431
955.002640	-27.394481
955.306957	-27.469064
955.611469	-27.459908
955.916174	-27.414735
956.221074	-27.391942
956.526169	-27.380114
956.831458	-27.369602
957.136942	-27.282461
957.442622	-27.327421
957.748496	-27.330476
958.054567	-27.186193
958.360833	-27.298565
958.667294	-27.300458
958.973952	-27.083797
959.280806	-27.248942
959.587857	-27.283278
959.895104	-27.118595
960.202548	-27.122683
960.510189	-27.250736
960.818027	-27.205081
961.126062	-27.005292
961.434295	-27.234225
961.742726	-27.183430
962.051355	-27.157013
962.360182	-26.961960
962.669207	-27.405247
962.978431	-26.980133
963.287854	-27.178548
963.597475	-27.105344
963.907296	-27.211846
964.217315	-27.081419
964.527535	-27.115957
964.837954	-27.162331
965.148573	-27.097869
965.459392	-27.079021
965.770411	-27.194934
966.081630	-27.037186
966.393051	-27.043018
966.704672	-27.234577
967.016494	-26.954908
967.328517	-27.030338
967.640742	-27.165193
967.953169	-27.025533
968.265797	-27.010041
968.578627	-26.947355
968.891660	-27.182005
969.204895	-27.020250
969.518332	-26.770268
969.831972	-27.226975
970.145816	-26.999848
970.459862	-26.877747
970.774112	-27.017757
971.088565	-27.012295
971.403223	-27.046866
971.718084	-26.829619
972.033149	-27.031599
972.348419	-27.065525
972.663893	-26.830234
972.979572	-27.026707
973.295456	-26.975552
973.611546	-26.898841
973.927840	-26.952409
974.244340	-26.978502
974.561046	-26.901364
974.877958	-26.882712
975.195076	-26.914669
975.512401	-26.989731
975.829932	-26.758494
976.147670	-26.854957
976.465615	-26.927830
976.783767	-26.848749
977.102126	-26.730787
977.420693	-26.783996
977.739468	-26.923853
978.058451	-26.638332
978.377642	-26.777255
978.697041	-26.697545
979.016649	-26.798898
979.336466	-26.664134
979.656492	-26.567661
979.976727	-26.833713
980.297171	-26.533562
980.617825	-26.704997
980.938689	-26.552933
981.259763	-26.650937
981.581048	-26.576605
981.902542	-26.584361
982.224248	-26.599701
982.546164	-26.500858
982.868291	-26.569075
983.190630	-26.482488
983.513180	-26.698280
983.835942	-26.322894
984.158916	-26.488038
984.482101	-26.628890
984.805500	-26.450130
985.129110	-26.401327
985.452934	-26.390459
985.776970	-26.594609
986.101220	-26.412410
986.425683	-26.292897
986.750359	-26.408032
987.075250	-26.553835
987.400354	-26.239897
987.725673	-26.350026
988.051206	-26.394730
988.376954	-26.325432
988.702916	-26.343319
989.029094	-26.210114
989.355487	-26.449227
989.682095	-26.173474
990.008919	-26.213769
990.335959	-26.434644
990.663216	-26.209539
990.990688	-26.143553
991.318377	-26.251064
991.646283	-26.312222
991.974406	-26.284766
992.302746	-26.070184
992.631304	-26.137970
992.960079	-26.440113
993.289072	-26.103309
993.618283	-26.154470
993.947713	-26.139038
994.277361	-26.213275
994.607227	-26.298781
994.937313	-25.978206
995.267618	-26.182764
995.598142	-26.126331
995.928886	-26.189660
996.259849	-26.068849
996.591033	-26.003231
996.922437	-26.159781
997.254061	-25.978153
997.585906	-26.050544
997.917972	-26.000143
998.250260	-25.994039
998.582768	-25.876360
998.915498	-25.856576
999.248450	-26.048674
999.581624	-25.844405
999.915020	-25.673039
1000.248639	-25.761387
1000.582480	-25.932096
1000.916545	-25.729797
1001.250832	-25.533162
1001.585343	-25.640006
1001.920077	-25.759389
1002.255035	-25.597135
1002.590218	-25.473661
1002.925624	-25.527997
1003.261255	-25.530982
1003.597111	-25.489155
1003.933192	-25.426379
1004.269497	-25.440027
1004.606029	-25.326771
1004.942785	-25.405072
1005.279768	-25.339617
1005.616977	-25.281025
1005.954412	-25.335038
1006.292074	-25.263276
1006.629962	-25.156556
1006.968077	-25.150518
1007.306420	-25.371692
1007.644990	-25.157387
1007.983787	-24.920231
1008.322813	-25.071576
1008.662067	-25.284666
1009.001549	-25.084175
1009.341259	-24.764593
1009.681199	-25.005668
1010.021367	-25.070809
1010.361765	-24.919516
1010.702392	-24.852370
1011.043250	-24.845755
1011.384337	-24.780663
1011.725654	-24.826272
1012.067202	-24.905322
1012.408980	-24.618372
1012.750989	-24.665439
1013.093230	-24.771946
1013.435702	-24.682352
1013.778405	-24.531793
1014.121341	-24.656099
1014.464508	-24.733470
1014.807908	-24.355592
1015.151540	-24.463015
1015.495405	-24.735149
1015.839503	-24.526343
1016.183835	-24.268972
1016.528400	-24.429465
1016.873198	-24.520238
1017.218231	-24.368359
1017.563498	-24.453723
1017.908999	-24.247040
1018.254735	-24.200287
1018.600707	-24.402907
1018.946913	-24.376412
1019.293354	-24.115628
1019.640032	-24.145672
1019.986945	-24.215811
1020.334094	-24.119412
1020.681480	-24.189610
1021.029102	-24.049854
1021.376961	-23.917668
1021.725058	-24.073032
1022.073391	-24.026863
1022.421962	-23.847382
1022.770772	-23.899554
1023.119819	-23.952328
1023.469104	-23.724775
1023.818628	-23.744696
1024.168391	-23.822219
1024.518393	-23.744745
1024.868634	-23.638217
1025.219115	-23.546692
1025.569836	-23.619068
1025.920796	-23.663578
1026.271997	-23.523480
1026.623438	-23.326668
1026.975121	-23.442223
1027.327044	-23.512206
1027.679208	-23.363829
1028.031614	-23.262995
1028.384262	-23.198608
1028.737152	-23.236435
1029.090284	-23.252240
1029.443659	-23.201222
1029.797276	-23.016213
1030.151137	-22.946610
1030.505240	-23.035397
1030.859587	-23.081512
1031.214178	-22.999047
1031.569013	-22.729216
1031.924093	-22.715240
1032.279417	-22.892798
1032.634985	-22.923174
1032.990799	-22.691929
1033.346858	-22.549998
1033.703162	-22.631106
1034.059712	-22.689497
1034.416509	-22.669911
1034.773551	-22.518066
1035.130841	-22.476127
1035.488377	-22.493448
1035.846160	-22.480835
1036.204190	-22.476233
1036.562468	-22.421500
1036.920994	-22.386484
1037.279768	-22.346857
1037.638790	-22.378977
1037.998061	-22.308260
1038.357581	-22.257011
1038.717350	-22.281007
1039.077368	-22.311856
1039.437636	-22.263180
1039.798154	-22.118698
1040.158922	-22.106420
1040.519940	-22.216115
1040.881209	-22.256562
1041.242729	-22.106316
1041.604501	-21.953989
1041.966524	-22.022522
1042.328798	-22.115709
1042.691325	-22.115435
1043.054103	-21.949848
1043.417135	-21.893214
1043.780419	-21.938345
1044.143956	-21.976626
1044.507746	-21.899175
1044.871791	-21.811246
1045.236088	-21.844195
1045.600641	-21.864152
1045.965447	-21.797593
1046.330508	-21.668153
1046.695824	-21.654486
1047.061395	-21.756803
1047.427222	-21.747308
1047.793304	-21.601680
1048.159642	-21.451340
1048.526237	-21.507520
1048.893088	-21.578567
1049.260196	-21.555981
1049.627561	-21.418245
1049.995183	-21.318551
1050.363063	-21.328743
1050.731201	-21.340399
1051.099597	-21.324710
1051.468251	-21.256925
1051.837164	-21.204463
1052.206336	-21.138150
1052.575767	-21.111668
1052.945458	-21.120519
1053.315409	-21.073533
1053.685619	-21.027707
1054.056090	-20.960408
1054.426821	-20.964252
1054.797814	-20.938096
1055.169067	-20.869910
1055.540582	-20.816269
1055.912359	-20.809107
1056.284398	-20.848965
1056.656698	-20.776357
1057.029262	-20.710630
1057.402088	-20.632251
1057.775177	-20.672891
1058.148530	-20.687968
1058.522146	-20.664145
1058.896027	-20.577170
1059.270171	-20.518019
1059.644580	-20.526808
1060.019254	-20.538344
1060.394193	-20.537829
1060.769397	-20.480085
1061.144867	-20.425088
1061.520602	-20.421911
1061.896604	-20.426979
1062.272872	-20.431649
1062.649407	-20.372409
1063.026210	-20.347564
1063.403279	-20.338594
1063.780616	-20.368983
1064.158221	-20.344028
1064.536094	-20.283249
1064.914235	-20.246068
1065.292645	-20.253028
1065.671325	-20.291471
1066.050273	-20.267293
1066.429491	-20.207483
1066.808979	-20.141804
1067.188738	-20.137449
1067.568766	-20.176578
1067.949066	-20.162278
1068.329636	-20.121752
1068.710478	-20.046610
1069.091592	-20.031011
1069.472977	-20.026697
1069.854635	-20.037045
1070.236565	-20.012885
1070.618768	-19.962623
1071.001243	-19.902454
1071.383993	-19.865174
1071.767016	-19.902612
1072.150313	-19.897634
1072.533884	-19.834209
1072.917730	-19.734091
1073.301850	-19.710736
1073.686246	-19.738714
1074.070917	-19.746114
1074.455864	-19.678470
1074.841087	-19.580603
1075.226586	-19.550687
1075.612362	-19.554064
1075.998415	-19.562770
1076.384745	-19.531162
1076.771353	-19.454405
1077.158238	-19.409740
1077.545401	-19.387023
1077.932843	-19.410358
1078.320564	-19.376741
1078.708564	-19.332646
1079.096842	-19.266680
1079.485401	-19.251081
1079.874240	-19.263921
1080.263358	-19.247954
1080.652757	-19.194529
1081.042438	-19.111014
1081.432399	-19.097589
1081.822641	-19.097767
1082.213166	-19.122359
1082.603972	-19.075434
1082.995061	-19.005350
1083.386433	-18.941637
1083.778087	-18.939692
1084.170025	-18.971149
1084.562246	-18.984979
1084.954751	-18.946506
1085.347541	-18.873086
1085.740615	-18.829860
1086.133973	-18.861103
1086.527617	-18.867260
1086.921546	-18.880865
1087.315761	-18.818532
1087.710262	-18.783062
1088.105050	-18.771119
1088.500124	-18.770452
1088.895485	-18.769107
1089.291134	-18.716909
1089.687070	-18.685141
1090.083294	-18.651504
1090.479806	-18.672670
1090.876607	-18.661192
1091.273696	-18.625980
1091.671075	-18.557492
1092.068744	-18.506567
1092.466702	-18.527225
1092.864950	-18.551170
1093.263489	-18.571602
1093.662319	-18.504823
1094.061440	-18.445354
1094.460852	-18.401349
1094.860555	-18.423661
1095.260551	-18.475476
1095.660840	-18.465240
1096.061421	-18.441098
1096.462295	-18.352854
1096.863462	-18.331868
1097.264923	-18.316849
1097.666678	-18.344181
1098.068727	-18.324334
1098.471071	-18.283978
1098.873710	-18.225587
1099.276644	-18.175501
1099.679874	-18.166670
1100.083400	-18.143149
1100.487222	-18.121614
1100.891340	-18.060620
1101.295756	-18.029103
1101.700468	-17.997842
1102.105478	-18.005271
1102.510787	-17.974006
1102.916393	-17.942863
1103.322298	-17.874938
1103.728502	-17.868118
1104.135005	-17.856892
1104.541807	-17.884626
1104.948909	-17.849415
1105.356312	-17.816034
1105.764015	-17.740556
1106.172019	-17.726228
1106.580324	-17.714674
1106.988931	-17.720562
1107.397840	-17.696749
1107.807051	-17.635985
1108.216564	-17.572086
1108.626380	-17.523145
1109.036500	-17.505560
1109.446923	-17.489109
1109.857649	-17.460679
1110.268680	-17.406650
1110.680016	-17.350562
1111.091657	-17.316241
1111.503602	-17.302152
1111.915854	-17.297927
1112.328411	-17.276090
1112.741275	-17.248369
1113.154445	-17.223578
1113.567922	-17.229914
1113.981706	-17.246756
1114.395798	-17.272837
1114.810198	-17.278925
1115.224906	-17.278713
1115.639923	-17.295076
1116.055249	-17.317224
1116.470884	-17.373244
1116.886829	-17.408555
1117.303084	-17.438011
1117.719650	-17.447470
1118.136526	-17.455723
1118.553713	-17.489485
1118.971212	-17.514938
1119.389022	-17.551107
1119.807145	-17.550176
1120.225580	-17.531605
1120.644328	-17.515468
1121.063389	-17.503751
1121.482763	-17.481408
1121.902452	-17.463382
1122.322454	-17.437318
1122.742771	-17.366972
1123.163404	-17.328230
1123.584351	-17.276198
1124.005614	-17.217328
1124.427193	-17.171885
1124.849089	-17.111252
1125.271301	-17.033941
1125.693830	-16.972298
1126.116677	-16.921347
1126.539842	-16.870139
1126.963324	-16.831701
1127.387126	-16.777303
1127.811246	-16.711375
1128.235685	-16.654139
1128.660444	-16.612631
1129.085522	-16.590982
1129.510922	-16.566454
1129.936641	-16.533922
1130.362682	-16.487082
1130.789044	-16.440549
1131.215728	-16.410062
1131.642734	-16.393987
1132.070063	-16.373801
1132.497714	-16.349522
1132.925689	-16.313690
1133.353987	-16.283832
1133.782610	-16.256213
1134.211556	-16.236208
1134.640827	-16.205383
1135.070424	-16.174461
1135.500345	-16.152601
1135.930593	-16.124601
1136.361166	-16.106243
1136.792067	-16.078579
1137.223294	-16.065193
1137.654848	-16.052683
1138.086730	-16.033712
1138.518940	-16.019973
1138.951479	-15.992849
1139.384346	-16.001406
1139.817543	-16.000386
1140.251069	-16.001609
1140.684925	-15.990801
1141.119111	-15.971996
1141.553628	-15.980655
1141.988475	-15.981830
1142.423655	-16.002119
1142.859166	-16.007738
1143.295009	-16.011009
1143.731185	-16.007647
1144.167694	-15.989073
1144.604536	-15.979791
1145.041711	-15.979802
1145.479221	-15.983298
1145.917065	-15.990875
1146.355245	-15.974080
1146.793759	-15.953791
1147.232609	-15.933968
1147.671795	-15.908015
1148.111317	-15.903514
1148.551177	-15.880483
1148.991373	-15.857622
1149.431907	-15.812084
1149.872779	-15.759829
1150.313989	-15.730533
1150.755538	-15.712658
1151.197426	-15.723104
1151.639653	-15.701384
1152.082220	-15.656077
1152.525128	-15.586589
1152.968376	-15.519823
1153.411966	-15.491408
1153.855897	-15.485040
1154.300169	-15.487931
1154.744784	-15.479135
1155.189742	-15.442961
1155.635042	-15.403349
1156.080687	-15.359163
1156.526674	-15.326307
1156.973007	-15.313073
1157.419683	-15.303230
1157.866705	-15.307517
1158.314072	-15.298291
1158.761786	-15.278317
1159.209845	-15.264698
1159.658251	-15.235640
1160.107004	-15.232045
1160.556104	-15.212893
1161.005553	-15.209899
1161.455349	-15.206466
1161.905494	-15.201202
1162.355989	-15.198356
1162.806832	-15.187161
1163.258026	-15.162479
1163.709570	-15.147021
1164.161464	-15.120570
1164.613710	-15.116041
1165.066307	-15.121146
1165.519256	-15.114469
1165.972558	-15.105719
1166.426212	-15.065453
1166.880219	-15.025370
1167.334580	-15.001986
1167.789295	-14.987417
1168.244364	-15.001128
1168.699788	-14.998324
1169.155567	-14.977139
1169.611702	-14.940462
1170.068193	-14.887724
1170.525041	-14.858985
1170.982245	-14.854523
1171.439807	-14.859401
1171.897726	-14.873928
1172.356004	-14.859052
1172.814640	-14.826937
1173.273635	-14.788805
1173.732989	-14.743373
1174.192703	-14.733709
1174.652778	-14.736087
1175.113213	-14.756304
1175.574009	-14.773103
1176.035167	-14.751164
1176.496687	-14.706631
1176.958569	-14.648104
1177.420814	-14.604449
1177.883422	-14.615413
1178.346394	-14.648476
1178.809730	-14.679109
1179.273430	-14.666276
1179.737496	-14.586070
1180.201927	-14.507892
1180.666723	-14.458176
1181.131886	-14.472207
1181.597416	-14.526061
1182.063312	-14.544957
1182.529576	-14.503214
1182.996209	-14.416631
1183.463209	-14.327785
1183.930579	-14.307967
1184.398317	-14.340219
1184.866426	-14.376807
1185.334904	-14.379801
1185.803754	-14.311470
1186.272974	-14.230832
1186.742566	-14.185696
1187.212529	-14.191275
1187.682865	-14.228751
1188.153574	-14.250809
1188.624656	-14.213855
1189.096112	-14.157241
1189.567942	-14.112581
1190.040147	-14.101571
1190.512726	-14.134302
1190.985681	-14.152408
1191.459012	-14.140732
1191.932720	-14.110377
1192.406804	-14.068139
1192.881265	-14.059619
1193.356104	-14.079428
1193.831322	-14.088101
1194.306918	-14.093759
1194.782893	-14.069657
1195.259248	-14.039717
1195.735982	-14.037505
1196.213097	-14.038939
1196.690593	-14.045771
1197.168471	-14.048731
1197.646730	-14.026373
1198.125371	-14.012932
1198.604395	-14.006071
1199.083803	-14.000231
1199.563594	-14.002961
1200.043769	-13.993212
1200.524329	-13.975673
1201.005273	-13.966645
1201.486604	-13.956795
1201.968320	-13.948788
1202.450422	-13.942972
1202.932912	-13.922934
1203.415789	-13.907294
1203.899054	-13.896404
1204.382707	-13.883481
1204.866748	-13.874663
1205.351179	-13.861099
1205.836000	-13.834204
1206.321211	-13.816921
1206.806812	-13.802636
1207.292805	-13.782877
1207.779189	-13.778452
1208.265965	-13.752713
1208.753134	-13.727036
1209.240696	-13.707553
1209.728651	-13.681460
1210.217000	-13.666667
1210.705744	-13.654864
1211.194883	-13.628479
1211.684417	-13.602034
1212.174347	-13.577233
1212.664673	-13.550644
1213.155396	-13.532072
1213.646516	-13.519305
1214.138034	-13.493954
1214.629951	-13.465679
1215.122266	-13.443008
1215.614980	-13.412318
1216.108095	-13.396696
1216.601609	-13.385318
1217.095524	-13.358649
1217.589841	-13.334972
1218.084559	-13.312612
1218.579679	-13.285509
1219.075202	-13.274473
1219.571128	-13.262958
1220.067458	-13.241319
1220.564191	-13.219918
1221.061330	-13.202886
1221.558874	-13.183265
1222.056823	-13.173933
1222.555178	-13.167375
1223.053940	-13.147061
1223.553109	-13.134533
1224.052686	-13.120533
1224.552671	-13.106848
1225.053065	-13.104136
1225.553867	-13.097486
1226.055079	-13.082023
1226.556702	-13.074242
1227.058735	-13.064756
1227.561179	-13.056284
1228.064035	-13.055721
1228.567303	-13.049691
1229.070983	-13.035568
1229.575077	-13.031907
1230.079585	-13.027024
1230.584506	-13.017497
1231.089842	-13.016199
1231.595594	-13.012360
1232.101761	-12.998027
1232.608345	-12.992239
1233.115345	-12.991153
1233.622762	-12.981057
1234.130597	-12.973851
1234.638851	-12.970187
1235.147523	-12.957009
1235.656615	-12.947522
1236.166126	-12.945851
1236.676058	-12.933247
1237.186411	-12.924229
1237.697185	-12.917631
1238.208381	-12.901482
1238.719999	-12.893680
1239.232040	-12.888170
1239.744505	-12.873037
1240.257394	-12.861608
1240.770708	-12.852530
1241.284446	-12.838428
1241.798610	-12.824507
1242.313201	-12.820249
1242.828218	-12.804752
1243.343662	-12.785123
1243.859534	-12.780144
1244.375834	-12.766030
1244.892563	-12.748986
1245.409721	-12.742332
1245.927309	-12.726410
1246.445327	-12.706774
1246.963777	-12.698738
1247.482657	-12.688138
1248.001970	-12.668735
1248.521716	-12.655748
1249.041894	-12.643975
1249.562506	-12.624664
1250.083553	-12.613981
1250.605034	-12.604588
1251.126950	-12.584199
1251.649302	-12.566487
1252.172091	-12.557803
1252.695316	-12.544363
1253.218979	-12.527474
1253.743079	-12.514491
1254.267619	-12.500170
1254.792597	-12.481786
1255.318015	-12.473329
1255.843874	-12.464281
1256.370173	-12.443526
1256.896913	-12.427951
1257.424095	-12.422087
1257.951720	-12.408802
1258.479787	-12.394296
1259.008298	-12.384995
1259.537254	-12.373238
1260.066654	-12.358440
1260.596499	-12.352878
1261.126790	-12.343485
1261.657527	-12.330634
1262.188711	-12.325375
1262.720342	-12.315402
1263.252422	-12.302401
1263.784950	-12.299953
1264.317928	-12.298752
1264.851355	-12.285993
1265.385232	-12.273277
1265.919560	-12.274425
1266.454340	-12.272805
1266.989572	-12.262055
1267.525256	-12.257640
1268.061394	-12.256482
1268.597985	-12.244621
1269.135031	-12.241214
1269.672531	-12.248317
1270.210487	-12.239460
1270.748899	-12.225067
1271.287768	-12.225437
1271.827094	-12.230011
1272.366877	-12.220672
1272.907119	-12.214451
1273.447820	-12.213429
1273.988981	-12.205326
1274.530601	-12.197352
1275.072683	-12.203315
1275.615226	-12.199434
1276.158230	-12.181946
1276.701697	-12.176415
1277.245627	-12.182233
1277.790021	-12.175033
1278.334879	-12.163920
1278.880202	-12.159600
1279.425991	-12.152835
1279.972245	-12.143861
1280.518966	-12.144165
1281.066155	-12.140717
1281.613811	-12.123652
1282.161936	-12.113838
1282.710529	-12.117098
1283.259593	-12.112104
1283.809126	-12.098144
1284.359131	-12.088799
1284.909607	-12.084696
1285.460555	-12.076337
1286.011976	-12.069277
1286.563870	-12.065489
1287.116237	-12.052877
1287.669080	-12.038372
1288.222397	-12.035157
1288.776191	-12.036795
1289.330460	-12.021219
1289.885207	-12.002364
1290.440431	-11.999531
1290.996133	-11.998964
1291.552314	-11.984913
1292.108975	-11.971026
1292.666115	-11.964378
1293.223737	-11.953956
1293.781839	-11.944755
1294.340424	-11.938560
1294.899491	-11.928629
1295.459041	-11.911343
1296.019075	-11.901897
1296.579593	-11.900279
1297.140597	-11.892854
1297.702086	-11.872681
1298.264061	-11.861110
1298.826524	-11.859770
1299.389474	-11.853070
1299.952912	-11.838017
1300.516839	-11.826749
1301.081255	-11.819427
1301.646162	-11.812354
1302.211559	-11.805347
1302.777448	-11.797891
1303.343829	-11.785088
1303.910702	-11.774187
1304.478069	-11.773749
1305.045930	-11.772675
1305.614285	-11.757345
1306.183136	-11.742840
1306.752483	-11.745548
1307.322326	-11.749249
1307.892666	-11.735129
1308.463504	-11.720028
1309.034841	-11.723193
1309.606677	-11.726852
1310.179012	-11.716306
1310.751849	-11.705453
1311.325186	-11.706660
1311.899025	-11.706904
1312.473366	-11.700119
1313.048211	-11.695370
1313.623559	-11.695205
1314.199412	-11.690825
1314.775770	-11.686141
1315.352634	-11.687102
1315.930004	-11.687311
1316.507881	-11.679819
1317.086266	-11.675190
1317.665159	-11.678995
1318.244562	-11.681771
1318.824474	-11.672774
1319.404897	-11.665926
1319.985831	-11.672632
1320.567276	-11.677623
1321.149234	-11.668014
1321.731706	-11.661114
1322.314691	-11.668506
1322.898190	-11.674394
1323.482205	-11.666577
1324.066736	-11.660658
1324.651783	-11.667618
1325.237347	-11.673620
1325.823430	-11.668280
1326.410031	-11.663739
1326.997151	-11.669204
1327.584791	-11.675845
1328.172952	-11.672195
1328.761634	-11.668377
1329.350839	-11.674779
1329.940566	-11.679085
1330.530817	-11.676213
1331.121592	-11.675243
1331.712891	-11.679091
1332.304716	-11.682338
1332.897068	-11.680376
1333.489946	-11.679165
1334.083352	-11.683298
1334.677287	-11.683735
1335.271750	-11.680216
1335.866744	-11.681774
1336.462268	-11.684690
1337.058323	-11.682567
1337.654910	-11.678680
1338.252029	-11.679934
1338.849682	-11.684265
1339.447869	-11.680041
1340.046591	-11.673266
1340.645848	-11.677116
1341.245641	-11.682273
1341.845972	-11.676559
1342.446840	-11.669637
1343.048246	-11.670760
1343.650191	-11.679189
1344.252677	-11.674822
1344.855702	-11.664712
1345.459269	-11.665499
1346.063379	-11.674815
1346.668030	-11.670379
1347.273226	-11.663670
1347.878965	-11.659091
1348.485250	-11.666892
1349.092080	-11.669951
1349.699456	-11.658266
1350.307380	-11.654823
1350.915851	-11.659565
1351.524871	-11.664875
1352.134441	-11.655304
1352.744560	-11.649479
1353.355231	-11.654804
1353.966453	-11.656934
1354.578227	-11.652195
1355.190555	-11.645542
1355.803436	-11.647629
1356.416872	-11.652868
1357.030863	-11.647054
1357.645411	-11.640397
1358.260515	-11.643332
1358.876177	-11.646640
1359.492397	-11.644030
1360.109176	-11.637811
1360.726516	-11.636698
1361.344416	-11.642941
1361.962877	-11.642064
1362.581901	-11.635761
1363.201487	-11.633261
1363.821637	-11.637638
1364.442352	-11.641466
1365.063632	-11.637246
1365.685478	-11.632189
1366.307891	-11.635114
1366.930871	-11.640778
1367.554420	-11.642248
1368.178538	-11.636235
1368.803226	-11.633769
1369.428485	-11.642637
1370.054315	-11.647551
1370.680717	-11.642133
1371.307693	-11.639982
1371.935242	-11.645869
1372.563366	-11.652883
1373.192065	-11.653039
1373.821341	-11.648992
1374.451193	-11.653527
1375.081623	-11.662528
1375.712632	-11.664160
1376.344221	-11.661636
1376.976389	-11.664420
1377.609139	-11.674041
1378.242470	-11.679402
1378.876384	-11.675282
1379.510881	-11.677494
1380.145963	-11.688820
1380.781629	-11.693489
1381.417881	-11.693161
1382.054720	-11.696424
1382.692147	-11.702214
1383.330161	-11.710606
1383.968765	-11.716302
1384.607959	-11.717641
1385.247743	-11.722426
1385.888119	-11.731125
1386.529087	-11.738427
1387.170648	-11.744304
1387.812804	-11.747822
1388.455554	-11.753528
1389.098899	-11.763287
1389.742842	-11.770679
1390.387381	-11.775273
1391.032519	-11.781650
1391.678256	-11.788679
1392.324592	-11.797035
1392.971529	-11.805697
1393.619068	-11.810954
1394.267208	-11.816065
1394.915952	-11.826343
1395.565300	-11.838004
1396.215253	-11.844241
1396.865812	-11.847879
1397.516977	-11.858557
1398.168749	-11.874738
1398.821130	-11.883512
1399.474120	-11.883952
1400.127719	-11.893336
1400.781930	-11.913536
1401.436752	-11.923504
1402.092186	-11.923190
1402.748234	-11.934517
1403.404897	-11.952732
1404.062174	-11.960831
1404.720067	-11.967498
1405.378577	-11.980480
1406.037705	-11.991100
1406.697451	-11.999462
1407.357817	-12.011746
1408.018803	-12.023365
1408.680410	-12.031455
1409.342639	-12.041291
1410.005492	-12.056115
1410.668968	-12.069762
1411.333068	-12.077045
1411.997795	-12.084991
1412.663147	-12.103320
1413.329127	-12.122464
1413.995736	-12.127794
1414.662973	-12.129988
1415.330840	-12.148507
1415.999339	-12.173305
1416.668469	-12.184070
1417.338232	-12.185918
1418.008628	-12.197623
1418.679659	-12.221739
1419.351325	-12.243009
1420.023628	-12.251244
1420.696568	-12.257316
1421.370145	-12.273313
1422.044362	-12.294992
1422.719219	-12.311203
1423.394717	-12.319208
1424.070856	-12.329692
1424.747638	-12.350681
1425.425064	-12.370281
1426.103134	-12.381850
1426.781850	-12.395884
1427.461212	-12.415512
1428.141221	-12.434976
1428.821878	-12.452146
1429.503185	-12.463254
1430.185141	-12.473947
1430.867749	-12.494910
1431.551008	-12.518073
1432.234920	-12.529435
1432.919486	-12.536964
1433.604707	-12.557239
1434.290583	-12.586182
1434.977116	-12.607257
1435.664307	-12.621239
1436.352156	-12.641093
1437.040664	-12.667143
1437.729833	-12.691099
1438.419663	-12.708367
1439.110156	-12.720116
1439.801312	-12.737988
1440.493132	-12.764715
1441.185617	-12.784465
1441.878768	-12.792271
1442.572586	-12.806509
1443.267072	-12.838308
1443.962228	-12.876086
1444.658053	-12.902805
1445.354549	-12.918086
1446.051717	-12.939261
1446.749558	-12.980062
1447.448073	-13.026211
1448.147263	-13.049770
1448.847128	-13.051039
1449.547671	-13.061928
1450.248891	-13.096560
1450.950789	-13.133280
1451.653368	-13.148530
1452.356627	-13.149070
1453.060568	-13.164010
1453.765192	-13.209121
1454.470500	-13.265638
1455.176492	-13.302729
1455.883170	-13.323793
1456.590534	-13.360514
1457.298586	-13.422231
1458.007327	-13.483910
1458.716758	-13.523191
1459.426880	-13.543169
1460.137693	-13.562427
1460.849199	-13.594358
1461.561398	-13.630741
1462.274293	-13.653009
1462.987883	-13.663583
1463.702170	-13.681699
1464.417155	-13.716624
1465.132838	-13.764524
1465.849222	-13.821028
1466.566306	-13.885224
1467.284093	-13.962185
1468.002582	-14.053134
1468.721775	-14.148312
1469.441674	-14.243566
1470.162278	-14.345697
1470.883590	-14.447956
1471.605609	-14.536206
1472.328338	-14.608177
1473.051777	-14.668867
1473.775928	-14.724426
1474.500790	-14.776148
1475.226367	-14.814671
1475.952657	-14.842377
1476.679663	-14.882215
1477.407386	-14.944659
1478.135826	-15.019771
1478.864985	-15.101372
1479.594863	-15.196971
1480.325463	-15.323273
1481.056784	-15.489296
1481.788828	-15.675565
1482.521597	-15.855383
1483.255090	-16.032083
1483.989309	-16.220075
1484.724256	-16.409303
1485.459931	-16.571542
1486.196336	-16.679953
1486.933471	-16.730180
1487.671337	-16.741997
1488.409937	-16.715716
1489.149270	-16.627682
1489.889337	-16.486547
1490.630141	-16.328670
1491.371682	-16.170169
1492.113961	-16.011396
1492.856979	-15.853945
1493.600738	-15.705899
1494.345238	-15.587918
1495.090481	-15.510292
1495.836467	-15.459590
1496.583198	-15.428951
1497.330675	-15.425515
1498.078899	-15.452858
1498.827872	-15.508403
1499.577593	-15.581679
1500.328065	-15.662734
1501.079289	-15.757185
1501.831265	-15.863522
1502.583995	-15.961737
1503.337480	-16.036632
1504.091721	-16.084273
1504.846719	-16.099004
1505.602475	-16.068444
1506.358991	-15.970669
1507.116268	-15.795177
1507.874306	-15.558283
1508.633108	-15.272801
1509.392673	-14.935980
1510.153004	-14.556409
1510.914101	-14.157660
1511.675965	-13.762621
1512.438599	-13.387525
1513.202002	-13.034754
1513.966176	-12.709828
1514.731122	-12.433116
1515.496842	-12.216391
1516.263336	-12.060550
1517.030607	-11.969243
1517.798654	-11.947693
1518.567479	-12.009163
1519.337083	-12.168768
1520.107468	-12.427810
1520.878634	-12.792860
1521.650584	-13.290206
1522.423317	-13.949553
1523.196836	-14.802668
1523.971141	-15.891569
1524.746233	-17.293005
1525.522115	-19.169047
1526.298786	-21.824413
1527.076249	-25.967869
1527.854504	-34.170553
1528.633553	-33.431834
1529.413397	-25.153523
1530.194037	-20.737376
1530.975474	-17.771335
1531.757709	-15.549856
1532.540745	-13.771432
1533.324581	-12.296072
1534.109220	-11.050980
1534.894662	-9.991216
1535.680909	-9.080254
1536.467961	-8.286648
1537.255821	-7.595586
1538.044489	-7.001649
1538.833967	-6.495352
1539.624256	-6.066782
1540.415357	-5.708977
1541.207271	-5.419910
1542.000000	-5.199207
1542.793545	-5.041697
1543.587907	-4.942483
1544.383087	-4.901593
1545.179088	-4.918794
1545.975909	-4.990871
1546.773552	-5.113905
1547.572019	-5.285718
1548.371311	-5.508415
1549.171428	-5.780762
1549.972373	-6.096433
1550.774147	-6.452522
1551.576751	-6.852616
1552.380185	-7.298825
1553.184453	-7.785682
1553.989554	-8.306542
1554.795490	-8.865660
1555.602263	-9.470457
1556.409873	-10.115509
1557.218322	-10.789924
1558.027612	-11.492058
1558.837743	-12.226431
1559.648717	-12.984388
1560.460536	-13.733675
1561.273200	-14.447388
1562.086710	-15.114812
1562.901069	-15.697765
1563.716278	-16.139136
1564.532337	-16.416466
1565.349249	-16.544727
1566.167014	-16.535433
1566.985634	-16.400231
1567.805111	-16.184120
1568.625444	-15.940126
1569.446637	-15.686258
1570.268690	-15.428108
1571.091605	-15.191141
1571.915382	-14.990891
1572.740024	-14.820277
1573.565532	-14.675337
1574.391907	-14.562574
1575.219150	-14.485294
1576.047262	-14.431091
1576.876246	-14.391262
1577.706103	-14.373151
1578.536833	-14.374545
1579.368439	-14.378694
1580.200922	-14.383205
1581.034282	-14.395993
1581.868522	-14.414221
1582.703643	-14.424462
1583.539646	-14.426296
1584.376532	-14.436540
1585.214304	-14.451818
1586.052962	-14.460014
1586.892508	-14.468417
1587.732943	-14.494851
1588.574269	-14.533461
1589.416487	-14.574365
1590.259599	-14.626267
1591.103605	-14.706063
1591.948508	-14.801744
1592.794309	-14.902021
1593.641009	-15.025198
1594.488609	-15.175460
1595.337112	-15.336227
1596.186518	-15.505717
1597.036829	-15.699583
1597.888047	-15.913847
1598.740172	-16.128993
1599.593207	-16.353297
1600.447153	-16.600966
1601.302010	-16.851543
1602.157782	-17.093379
1603.014469	-17.348933
1603.872072	-17.611037
1604.730593	-17.855696
1605.590034	-18.090179
1606.450397	-18.327737
1607.311681	-18.547523
1608.173890	-18.733134
1609.037024	-18.906471
1609.901085	-19.064611
1610.766075	-19.177678
1611.631995	-19.259802
1612.498846	-19.326399
1613.366630	-19.351605
1614.235349	-19.335983
1615.105004	-19.303093
1615.975596	-19.242806
1616.847128	-19.145701
1617.719600	-19.031821
1618.593014	-18.909786
1619.467372	-18.761929
1620.342675	-18.602152
1621.218924	-18.450037
1622.096122	-18.282575
1622.974270	-18.110016
1623.853369	-17.950710
1624.733420	-17.786885
1625.614427	-17.623159
1626.496389	-17.471088
1627.379308	-17.324109
1628.263187	-17.175786
1629.148026	-17.035999
1630.033828	-16.902904
1630.920593	-16.766335
1631.808324	-16.632800
1632.697022	-16.505184
1633.586688	-16.371427
1634.477324	-16.234900
1635.368932	-16.103870
1636.261514	-15.964200
1637.155070	-15.819821
1638.049602	-15.681153
1638.945113	-15.535659
1639.841603	-15.387239
1640.739075	-15.246290
1641.637529	-15.104572
1642.536968	-14.963378
1643.437393	-14.832577
1644.338806	-14.707122
1645.241209	-14.583664
1646.144602	-14.470813
1647.048988	-14.365069
1647.954368	-14.260755
1648.860744	-14.165955
1649.768118	-14.077256
1650.676491	-13.988552
1651.585865	-13.906346
1652.496241	-13.827714
1653.407621	-13.747920
1654.320008	-13.672243
1655.233401	-13.598210
1656.147804	-13.522750
1657.063218	-13.450579
1657.979645	-13.380970
1658.897085	-13.311893
1659.815542	-13.247683
1660.735016	-13.187217
1661.655509	-13.128110
1662.577023	-13.075101
1663.499560	-13.025608
1664.423121	-12.977532
1665.347709	-12.935547
1666.273324	-12.895058
1667.199969	-12.856033
1668.127645	-12.822398
1669.056353	-12.788237
1669.986097	-12.755968
1670.916877	-12.726952
1671.848695	-12.696547
1672.781553	-12.669023
1673.715452	-12.643612
1674.650395	-12.617341
1675.586383	-12.595075
1676.523418	-12.574339
1677.461501	-12.554535
1678.400635	-12.538669
1679.340821	-12.523395
1680.282061	-12.509365
1681.224357	-12.498301
1682.167710	-12.486775
1683.112122	-12.476270
1684.057595	-12.467978
1685.004132	-12.458209
1685.951732	-12.450335
1686.900400	-12.443809
1687.850135	-12.435330
1688.800940	-12.430163
1689.752818	-12.424692
1690.705768	-12.418395
1691.659795	-12.416078
1692.614898	-12.411403
1693.571081	-12.408458
1694.528345	-12.407666
1695.486691	-12.403783
1696.446122	-12.403580
1697.406640	-12.402176
1698.368245	-12.399800
1699.330941	-12.400688
1700.294729	-12.398782
1701.259611	-12.399271
1702.225588	-12.400524
1703.192664	-12.400177
1704.160838	-12.403366
1705.130114	-12.404541
1706.100493	-12.406853
1707.071977	-12.410377
1708.044568	-12.412051
1709.018268	-12.416544
1709.993079	-12.419488
1710.969003	-12.423067
1711.946041	-12.428324
1712.924196	-12.431754
1713.903469	-12.437842
1714.883862	-12.443157
1715.865378	-12.448774
1716.848017	-12.455930
1717.831783	-12.461336
1718.816677	-12.469093
1719.802701	-12.475855
1720.789857	-12.482907
1721.778147	-12.491563
1722.767573	-12.498676
1723.758136	-12.508042
1724.749840	-12.516482
1725.742685	-12.525821
1726.736673	-12.536471
1727.731808	-12.545790
1728.728090	-12.557779
1729.725521	-12.568413
1730.724105	-12.580100
1731.723842	-12.592511
1732.724735	-12.603702
1733.726785	-12.617008
1734.729995	-12.628216
1735.734366	-12.640893
1736.739902	-12.653497
1737.746603	-12.665403
1738.754472	-12.679185
1739.763510	-12.691061
1740.773721	-12.704422
1741.785105	-12.716366
1742.797665	-12.728065
1743.811403	-12.740150
1744.826321	-12.750904
1745.842422	-12.763439
1746.859706	-12.774873
1747.878177	-12.787578
1748.897835	-12.800424
1749.918685	-12.813117
1750.940726	-12.826505
1751.963963	-12.838947
1752.988395	-12.852460
1754.014027	-12.865165
1755.040860	-12.878954
1756.068895	-12.893024
1757.098135	-12.907453
1758.128583	-12.922652
1759.160240	-12.937459
1760.193109	-12.953214
1761.227191	-12.968447
1762.262488	-12.984622
1763.299004	-13.000272
1764.336740	-13.016125
1765.375697	-13.031335
1766.415880	-13.045994
1767.457288	-13.060594
1768.499926	-13.074519
1769.543794	-13.089299
1770.588895	-13.103473
1771.635231	-13.118415
1772.682805	-13.132483
1773.731619	-13.146534
1774.781674	-13.159643
1775.832973	-13.172362
1776.885519	-13.184904
1777.939312	-13.197280
1778.994357	-13.210407
1780.050654	-13.223793
1781.108207	-13.237954
1782.167017	-13.251820
1783.227087	-13.265991
1784.288418	-13.279427
1785.351013	-13.293277
1786.414875	-13.306925
1787.480006	-13.321516
1788.546407	-13.336388
1789.614082	-13.351862
1790.683032	-13.367640
1791.753259	-13.382980
1792.824767	-13.398479
1793.897557	-13.413277
1794.971632	-13.428732
1796.046994	-13.444121
1797.123645	-13.460592
1798.201588	-13.477179
1799.280824	-13.494281
1800.361357	-13.510888
1801.443188	-13.527107
1802.526320	-13.542775
1803.610756	-13.558402
1804.696497	-13.574183
1805.783546	-13.590348
1806.871906	-13.606730
1807.961578	-13.622657
1809.052565	-13.638296
1810.144870	-13.652855
1811.238494	-13.667123
1812.333441	-13.680335
1813.429713	-13.693817
1814.527311	-13.706750
1815.626239	-13.719948
1816.726499	-13.732527
1817.828094	-13.745080
1818.931025	-13.756781
1820.035295	-13.768563
1821.140906	-13.779562
1822.247862	-13.790790
1823.356165	-13.801121
1824.465816	-13.811403
1825.576819	-13.820646
1826.689175	-13.829856
1827.802888	-13.838653
1828.917960	-13.847599
1830.034394	-13.856320
1831.152191	-13.865177
1832.271354	-13.873783
1833.391887	-13.882250
1834.513790	-13.890191
1835.637068	-13.897777
1836.761722	-13.904890
1837.887755	-13.911648
1839.015169	-13.918395
1840.143968	-13.924847
1841.274153	-13.931395
1842.405727	-13.937379
1843.538693	-13.943153
1844.673053	-13.948184
1845.808810	-13.953141
1846.945966	-13.957560
1848.084525	-13.962226
1849.224488	-13.966740
1850.365858	-13.971809
1851.508638	-13.976424
1852.652831	-13.981044
1853.798438	-13.984859
1854.945463	-13.988355
1856.093909	-13.991224
1857.243777	-13.994156
1858.395071	-13.997058
1859.547794	-14.000026
1860.701947	-14.002790
1861.857533	-14.005102
1863.014556	-14.006569
1864.173018	-14.007239
1865.332922	-14.007429
1866.494270	-14.007372
1867.657065	-14.007160
1868.821309	-14.006645
1869.987006	-14.005725
1871.154158	-14.004022
1872.322768	-14.001574
1873.492839	-13.998331
1874.664373	-13.994502
1875.837373	-13.990189
1877.011841	-13.985456
1878.187782	-13.980042
1879.365197	-13.973867
1880.544089	-13.966909
1881.724460	-13.959306
1882.906315	-13.950846
1884.089655	-13.941965
1885.274483	-13.932842
1886.460803	-13.923812
1887.648616	-13.914532
1888.837927	-13.905024
1890.028736	-13.894891
1891.221049	-13.884359
1892.414866	-13.873425
1893.610192	-13.862603
1894.807028	-13.851501
1896.005379	-13.840304
1897.205246	-13.828673
1898.406633	-13.816922
1899.609542	-13.804877
1900.813977	-13.793059
1902.019940	-13.781549
1903.227434	-13.770559
1904.436462	-13.759646
1905.647028	-13.748858
1906.859133	-13.737951
1908.072781	-13.727211
1909.287976	-13.716695
1910.504719	-13.706666
1911.723013	-13.696867
1912.942863	-13.687017
1914.164270	-13.676859
1915.387238	-13.666404
1916.611770	-13.655842
1917.837868	-13.645196
1919.065536	-13.634428
1920.294777	-13.623371
1921.525594	-13.611959
1922.757989	-13.600170
1923.991967	-13.588068
1925.227529	-13.575682
1926.464679	-13.563025
1927.703420	-13.550072
1928.943755	-13.536819
1930.185688	-13.523182
1931.429221	-13.509275
1932.674356	-13.495152
1933.921099	-13.480881
1935.169451	-13.466496
1936.419415	-13.451974
1937.670996	-13.437233
1938.924195	-13.422475
1940.179017	-13.407915
1941.435463	-13.393334
1942.693538	-13.378403
1943.953245	-13.362726
1945.214586	-13.346480
1946.477566	-13.330149
1947.742186	-13.314186
1949.008451	-13.298544
1950.276363	-13.282880
1951.545926	-13.266718
1952.817143	-13.250262
1954.090017	-13.234047
1955.364551	-13.218534
1956.640749	-13.203795
1957.918615	-13.189623
1959.198150	-13.175826
1960.479359	-13.162415
1961.762244	-13.149607
1963.046810	-13.137531
1964.333059	-13.126053
1965.620995	-13.114804
1966.910621	-13.103453
1968.201940	-13.092064
1969.494956	-13.081047
1970.789672	-13.070494
1972.086091	-13.060133
1973.384217	-13.049576
1974.684053	-13.038640
1975.985602	-13.027694
1977.288869	-13.017163
1978.593855	-13.007076
1979.900566	-12.996783
1981.209003	-12.985667
1982.519171	-12.973494
1983.831073	-12.960997
1985.144712	-12.949030
1986.460093	-12.937851
1987.777217	-12.926601
1989.096089	-12.914606
1990.416713	-12.901931
1991.739092	-12.889043
1993.063228	-12.875869
1994.389127	-12.862131
1995.716791	-12.847906
1997.046223	-12.833571
1998.377428	-12.819480
1999.710409	-12.805376
2001.045169	-12.791013
2002.381713	-12.776398
2003.720043	-12.761944
2005.060163	-12.747962
2006.402077	-12.734667
2007.745788	-12.721979
2009.091301	-12.709736
2010.438618	-12.697747
2011.787743	-12.686350
2013.138680	-12.676397
2014.491433	-12.668219
2015.846005	-12.661053
2017.202399	-12.653992
2018.560621	-12.647127
2019.920673	-12.641038
2021.282558	-12.636147
2022.646281	-12.632389
2024.011846	-12.629439
2025.379256	-12.626562
2026.748515	-12.623537
2028.119626	-12.620992
2029.492594	-12.619412
2030.867422	-12.618556
2032.244114	-12.618068
2033.622673	-12.617722
2035.003104	-12.617426
2036.385411	-12.617087
2037.769597	-12.616486
2039.155665	-12.615475
2040.543621	-12.613961
2041.933467	-12.612083
2043.325208	-12.610043
2044.718847	-12.607562
2046.114389	-12.604306
2047.511837	-12.600446
2048.911195	-12.596572
2050.312467	-12.592726
2051.715657	-12.588519
2053.120769	-12.583695
2054.527807	-12.578558
2055.936775	-12.573579
2057.347677	-12.569426
2058.760516	-12.566239
2060.175297	-12.563335
2061.592025	-12.560180
2063.010701	-12.557237
2064.431332	-12.554939
2065.853921	-12.553399
2067.278472	-12.552645
2068.704988	-12.552573
2070.133475	-12.553178
2071.563936	-12.554567
2072.996375	-12.556811
2074.430796	-12.559730
2075.867204	-12.563217
2077.305603	-12.567627
2078.745996	-12.573173
2080.188389	-12.579504
2081.632784	-12.586659
2083.079187	-12.595079
2084.527601	-12.604697
2085.978030	-12.614872
2087.430480	-12.625110
2088.884954	-12.635653
2090.341455	-12.646964
2091.799990	-12.658909
2093.260561	-12.670916
2094.723173	-12.682813
2096.187831	-12.694826
2097.654538	-12.707012
2099.123300	-12.718962
2100.594119	-12.730338
2102.067001	-12.741183
2103.541950	-12.751554
2105.018971	-12.761547
2106.498067	-12.771181
2107.979243	-12.780490
2109.462503	-12.789496
2110.947853	-12.798045
2112.435295	-12.806077
2113.924836	-12.813978
2115.416478	-12.822529
2116.910227	-12.832204
2118.406087	-12.842739
2119.904063	-12.853433
2121.404158	-12.864179
2122.906378	-12.875241
2124.410727	-12.887340
2125.917210	-12.900891
2127.425831	-12.915221
2128.936594	-12.929687
2130.449505	-12.944819
2131.964567	-12.961453
2133.481786	-12.979072
2135.001166	-12.996752
2136.522711	-13.014665
2138.046427	-13.033546
2139.572317	-13.053904
2141.100388	-13.076009
2142.630642	-13.099072
2144.163085	-13.122372
2145.697722	-13.146885
2147.234558	-13.173445
2148.773596	-13.201086
2150.314842	-13.228857
2151.858301	-13.257520
2153.403977	-13.287047
2154.951875	-13.315318
2156.502000	-13.341686
2158.054357	-13.367816
2159.608950	-13.394334
2161.165785	-13.419648
2162.724866	-13.442895
2164.286198	-13.465605
2165.849786	-13.489497
2167.415635	-13.514459
2168.983749	-13.539792
2170.554134	-13.566098
2172.126795	-13.594574
2173.701737	-13.625099
2175.278964	-13.656357
2176.858481	-13.687918
2178.440294	-13.720597
2180.024408	-13.754570
2181.610827	-13.788259
2183.199557	-13.820729
2184.790602	-13.852401
2186.383968	-13.882719
2187.979660	-13.909931
2189.577683	-13.934567
2191.178041	-13.958964
2192.780741	-13.982974
2194.385787	-14.004659
2195.993185	-14.025134
2197.602939	-14.047901
2199.215054	-14.073411
2200.829537	-14.100059
2202.446392	-14.128617
2204.065624	-14.162081
2205.687239	-14.201034
2207.311242	-14.243998
2208.937638	-14.291288
2210.566433	-14.344521
2212.197631	-14.402916
2213.831239	-14.463824
2215.467261	-14.526778
2217.105703	-14.592058
2218.746570	-14.658168
2220.389867	-14.724456
2222.035601	-14.791615
2223.683776	-14.858851
2225.334398	-14.924843
2226.987472	-14.988936
2228.643004	-15.050785
2230.300999	-15.110660
2231.961463	-15.168000
2233.624402	-15.222415
2235.289820	-15.274964
2236.957723	-15.325332
2238.628118	-15.371170
2240.301009	-15.411939
2241.976402	-15.450244
2243.654303	-15.487124
2245.334717	-15.520511
2247.017650	-15.550354
2248.703108	-15.579253
2250.391096	-15.608529
2252.081620	-15.638418
2253.774686	-15.669937
2255.470300	-15.705963
2257.168467	-15.747873
2258.869193	-15.794126
2260.572484	-15.845462
2262.278345	-15.903912
2263.986783	-15.968784
2265.697804	-16.038803
2267.411412	-16.114093
2269.127615	-16.194470
2270.846417	-16.277886
2272.567826	-16.363107
2274.291846	-16.450068
2276.018484	-16.537130
2277.747745	-16.621311
2279.479637	-16.704278
2281.214164	-16.783610
2282.951333	-16.857605
2284.691149	-16.927172
2286.433619	-16.992798
2288.178750	-17.058057
2289.926546	-17.112183
2291.677014	-17.171025
2293.430161	-17.223279
2295.185992	-17.279591
2296.944513	-17.331361
2298.705732	-17.390478
2300.469653	-17.446367
2302.236283	-17.510229
2304.005629	-17.571600
2305.777696	-17.639931
2307.552492	-17.711757
2309.330022	-17.781832
2311.110292	-17.862481
2312.893310	-17.939538
2314.679080	-18.025571
2316.467611	-18.108971
2318.258907	-18.198549
2320.052976	-18.291285
2321.849824	-18.380757
2323.649457	-18.478724
2325.451883	-18.572630
2327.257106	-18.669145
2329.065135	-18.772745
2330.875975	-18.865889
2332.689633	-18.967686
2334.506116	-19.063866
2336.325430	-19.162481
2338.147581	-19.263248
2339.972578	-19.351547
2341.800425	-19.450941
2343.631130	-19.540936
2345.464700	-19.624715
2347.301141	-19.716670
2349.140461	-19.794776
2350.982665	-19.876550
2352.827760	-19.954153
2354.675754	-20.025146
2356.526653	-20.101401
2358.380464	-20.176050
2360.237195	-20.246923
2362.096851	-20.326851
2363.959440	-20.399179
2365.824968	-20.481398
2367.693444	-20.564735
2369.564873	-20.647922
2371.439263	-20.743529
2373.316620	-20.839202
2375.196953	-20.936770
2377.080267	-21.050073
2378.966570	-21.162994
2380.855869	-21.276725
2382.748171	-21.398776
2384.643484	-21.515420
2386.541815	-21.637846
2388.443170	-21.759624
2390.347557	-21.876498
2392.254984	-21.998486
2394.165457	-22.124848
2396.078984	-22.239753
2397.995572	-22.364347
2399.915229	-22.490896
2401.837961	-22.611083
2403.763777	-22.735834
2405.692684	-22.860053
2407.624689	-22.970720
2409.559800	-23.091681
2411.498023	-23.200240
2413.439368	-23.291950
2415.383840	-23.385282
2417.331449	-23.477554
2419.282201	-23.555583
2421.236104	-23.635380
2423.193165	-23.716027
2425.153393	-23.796666
2427.116795	-23.880440
2429.083378	-23.964218
2431.053151	-24.061990
2433.026121	-24.164717
2435.002297	-24.251738
2436.981685	-24.360786
2438.964293	-24.497561
2440.950131	-24.599615
2442.939204	-24.712577
2444.931522	-24.875048
2446.927092	-25.007409
2448.925923	-25.123545
2450.928022	-25.290252
2452.933397	-25.443865
2454.942056	-25.560172
2456.954008	-25.717465
2458.969260	-25.893689
2460.987821	-26.020937
2463.009699	-26.163912
2465.034902	-26.355868
2467.063437	-26.495424
2469.095315	-26.622580
2471.130542	-26.813116
2473.169127	-26.943729
2475.211078	-27.050405
2477.256404	-27.236156
2479.305112	-27.332798
2481.357212	-27.406042
2483.412713	-27.559668
2485.471621	-27.608528
2487.533946	-27.670595
2489.599696	-27.789305
2491.668880	-27.812317
2493.741507	-27.897948
2495.817585	-28.009190
2497.897122	-28.045001
2499.980127	-28.161172
2502.066609	-28.283430
2504.156578	-28.362775
2506.250040	-28.508249
2508.347006	-28.638542
2510.447483	-28.782760
2512.551482	-28.940121
2514.659010	-29.075076
2516.770076	-29.246132
2518.884690	-29.413278
2521.002861	-29.578059
2523.124597	-29.752035
2525.249907	-29.921591
2527.378801	-30.127360
2529.511287	-30.335263
2531.647375	-30.490890
2533.787074	-30.706346
2535.930393	-30.933796
2538.077340	-31.101566
2540.227927	-31.290222
2542.382160	-31.490775
2544.540051	-31.692071
2546.701608	-31.851751
2548.866840	-31.984502
2551.035757	-32.134162
2553.208369	-32.231049
2555.384684	-32.286908
2557.564713	-32.356794
2559.748465	-32.378174
2561.935948	-32.415453
2564.127174	-32.489515
2566.322152	-32.517314
2568.520890	-32.583116
2570.723399	-32.686283
2572.929689	-32.773918
2575.139769	-32.885196
2577.353649	-32.959143
2579.571340	-33.100808
2581.792849	-33.281000
2584.018189	-33.361624
2586.247368	-33.500955
2588.480396	-33.692196
2590.717284	-33.855820
2592.958041	-33.993612
2595.202678	-34.219787
2597.451204	-34.458521
2599.703630	-34.615083
2601.959966	-34.880883
2604.220222	-35.155593
2606.484408	-35.389392
2608.752535	-35.693632
2611.024612	-35.999611
2613.300651	-36.271544
2615.580661	-36.560741
2617.864653	-36.910392
2620.152638	-37.144048
2622.444625	-37.318395
2624.740626	-37.554476
2627.040651	-37.681318
2629.344710	-37.713420
2631.652814	-37.753071
2633.964974	-37.811313
2636.281200	-37.819444
2638.601504	-37.809691
2640.925896	-37.851823
2643.254386	-37.905754
2645.586987	-37.984309
2647.923707	-37.995534
2650.264559	-38.038452
2652.609554	-38.144291
2654.958702	-38.160919
2657.312015	-38.241422
2659.669503	-38.224227
2662.031178	-38.327009
2664.397051	-38.483644
2666.767132	-38.538288
2669.141434	-38.682643
2671.519968	-38.847839
2673.902745	-39.055276
2676.289776	-39.141915
2678.681072	-39.448185
2681.076646	-39.677011
2683.476508	-40.048944
2685.880671	-40.355569
2688.289145	-40.742353
2690.701942	-41.258578
2693.119075	-41.625046
2695.540554	-42.163036
2697.966391	-42.471564
2700.396599	-43.017529
2702.831189	-43.224929
2705.270172	-43.574821
2707.713561	-43.654800
2710.161368	-43.964445
2712.613605	-43.923200
2715.070283	-44.174198
2717.531416	-44.289976
2719.997014	-44.382882
2722.467090	-44.525921
2724.941657	-44.674815
2727.420726	-44.562685
2729.904310	-44.700340
2732.392421	-44.498471
2734.885072	-44.472606
2737.382275	-44.505886
2739.884042	-44.270274
2742.390387	-44.374635
2744.901321	-44.184689
2747.416857	-44.118562
2749.937008	-44.107909
2752.461787	-44.035989
2754.991206	-43.960810
2757.525279	-44.181121
2760.064017	-44.127814
2762.607434	-44.526107
2765.155544	-44.607551
2767.708358	-45.047325
2770.265890	-45.393210
2772.828153	-45.901408
2775.395160	-46.300566
2777.966924	-46.877020
2780.543459	-47.163225
2783.124778	-47.677609
2785.710894	-48.001808
2788.301821	-48.272962
2790.897572	-48.636227
2793.498160	-48.793065
2796.103599	-49.440387
2798.713903	-49.766633
2801.329085	-50.503649
2803.949159	-50.832346
2806.574139	-51.609354
2809.204038	-51.796189
2811.838871	-52.473028
2814.478650	-52.526738
2817.123391	-53.106316
2819.773107	-53.221769
2822.427812	-53.168914
2825.087521	-53.204629
2827.752247	-52.422309
2830.422005	-52.511401
2833.096808	-51.400963
2835.776672	-51.516359
2838.461611	-50.672284
2841.151638	-50.752477
2843.846769	-50.424360
2846.547019	-50.479590
2849.252401	-50.806487
2851.962930	-50.626359
2854.678621	-51.345288
2857.399489	-51.161325
2860.125549	-52.019899
2862.856815	-51.943757
2865.593302	-52.345382
2868.335026	-52.454189
2871.082002	-52.347396
2873.834244	-52.679032
2876.591767	-52.529273
2879.354588	-52.877320
2882.122721	-53.293279
2884.896181	-53.357617
2887.674984	-54.153645
2890.459146	-53.716944
2893.248681	-54.804660
2896.043606	-54.692178
2898.843937	-55.516703
2901.649687	-56.465280
2904.460875	-57.022658
2907.277515	-59.099818
2910.099623	-59.959425
2912.927215	-61.371378
2915.760308	-63.783602
2918.598916	-62.987736
2921.443057	-63.024828
2924.292747	-62.812376
2927.148002	-60.098477
2930.008837	-61.279520
2932.875270	-59.244928
2935.747318	-59.531701
2938.624995	-59.326081
2941.508320	-59.263370
2944.397308	-59.725647
2947.291977	-60.067021
2950.192343	-60.828653
2953.098423	-59.901509
2956.010234	-61.634085
2958.927792	-59.581753
2961.851116	-60.362267
2964.780221	-60.715152
2967.715126	-60.138639
2970.655847	-60.548903
2973.602402	-60.729190
2976.554808	-59.664247
2979.513083	-59.417934
2982.477243	-59.446284
2985.447308	-58.165138
2988.423293	-59.067793
2991.405218	-58.855394
2994.393099	-58.680935
2997.386955	-59.581134
