# 2022-03-21_13.44.43
# shape = sech2
# FWHM_ps = 0.1
# carrier_nm = 1542
# frep_MHz = 12126
# pow_mW = 8000
# GDD = 0.0
# propa_len = 0.09000000000000001
# untap_len = 0.01
# taper_len = 0.03
# waist_len = 0.02
# uptap_len = 0.02
# untap_scale = 1.0
# waist_scale = 0.2666666666666667
# workingDir = NL_20110305_12 (Spirou)
# axis = slow
# window_ps = 10.0
# steps = 200
# points = 13000
# 
# wavelength [nm]	 power spectral density [dB]
1000.248639	-24.824436
1000.582480	-24.805656
1000.916545	-24.792073
1001.250832	-24.776117
1001.585343	-24.754206
1001.920077	-24.725875
1002.255035	-24.693572
1002.590218	-24.661476
1002.925624	-24.633852
1003.261255	-24.612909
1003.597111	-24.597362
1003.933192	-24.583429
1004.269497	-24.566968
1004.606029	-24.544961
1004.942785	-24.516843
1005.279768	-24.485190
1005.616977	-24.454198
1005.954412	-24.427248
1006.292074	-24.405687
1006.629962	-24.388499
1006.968077	-24.372507
1007.306420	-24.354071
1007.644990	-24.331352
1007.983787	-24.304571
1008.322813	-24.275473
1008.662067	-24.246898
1009.001549	-24.221267
1009.341259	-24.198908
1009.681199	-24.178706
1010.021367	-24.159198
1010.361765	-24.138562
1010.702392	-24.115641
1011.043250	-24.090912
1011.384337	-24.065497
1011.725654	-24.040086
1012.067202	-24.015268
1012.408980	-23.991525
1012.750989	-23.968683
1013.093230	-23.946289
1013.435702	-23.924287
1013.778405	-23.902566
1014.121341	-23.880613
1014.464508	-23.857929
1014.807908	-23.834319
1015.151540	-23.809724
1015.495405	-23.784675
1015.839503	-23.760239
1016.183835	-23.737366
1016.528400	-23.716234
1016.873198	-23.696289
1017.218231	-23.676226
1017.563498	-23.654761
1017.908999	-23.631539
1018.254735	-23.606966
1018.600707	-23.582206
1018.946913	-23.558779
1019.293354	-23.537372
1019.640032	-23.517608
1019.986945	-23.498388
1020.334094	-23.478279
1020.681480	-23.456470
1021.029102	-23.433439
1021.376961	-23.410396
1021.725058	-23.388331
1022.073391	-23.367727
1022.421962	-23.348193
1022.770772	-23.328478
1023.119819	-23.307557
1023.469104	-23.285681
1023.818628	-23.263759
1024.168391	-23.242765
1024.518393	-23.223479
1024.868634	-23.205323
1025.219115	-23.186566
1025.569836	-23.165977
1025.920796	-23.143517
1026.271997	-23.120170
1026.623438	-23.097986
1026.975121	-23.078782
1027.327044	-23.062386
1027.679208	-23.046678
1028.031614	-23.029120
1028.384262	-23.007865
1028.737152	-22.983130
1029.090284	-22.957707
1029.443659	-22.935049
1029.797276	-22.916895
1030.151137	-22.902500
1030.505240	-22.888702
1030.859587	-22.871633
1031.214178	-22.849169
1031.569013	-22.822521
1031.924093	-22.795545
1032.279417	-22.772363
1032.634985	-22.754805
1032.990799	-22.741265
1033.346858	-22.727574
1033.703162	-22.709512
1034.059712	-22.685570
1034.416509	-22.657798
1034.773551	-22.630514
1035.130841	-22.607716
1035.488377	-22.590422
1035.846160	-22.576099
1036.204190	-22.560398
1036.562468	-22.539922
1036.920994	-22.514357
1037.279768	-22.486574
1037.638790	-22.460724
1037.998061	-22.439350
1038.357581	-22.421905
1038.717350	-22.405267
1039.077368	-22.385918
1039.437636	-22.362379
1039.798154	-22.335997
1040.158922	-22.309789
1040.519940	-22.286465
1040.881209	-22.266386
1041.242729	-22.247573
1041.604501	-22.227450
1041.966524	-22.204400
1042.328798	-22.178832
1042.691325	-22.153071
1043.054103	-22.129429
1043.417135	-22.108399
1043.780419	-22.088460
1044.143956	-22.067360
1044.507746	-22.043616
1044.871791	-22.017778
1045.236088	-21.991963
1045.600641	-21.968206
1045.965447	-21.947003
1046.330508	-21.927040
1046.695824	-21.905920
1047.061395	-21.882020
1047.427222	-21.855845
1047.793304	-21.829359
1048.159642	-21.804694
1048.526237	-21.782968
1048.893088	-21.763157
1049.260196	-21.742729
1049.627561	-21.719817
1049.995183	-21.694189
1050.363063	-21.667293
1050.731201	-21.641638
1051.099597	-21.618903
1051.468251	-21.598580
1051.837164	-21.578766
1052.206336	-21.557207
1052.575767	-21.532741
1052.945458	-21.506467
1053.315409	-21.480641
1053.685619	-21.456946
1054.056090	-21.435793
1054.426821	-21.415860
1054.797814	-21.394983
1055.169067	-21.371899
1055.540582	-21.346968
1055.912359	-21.321685
1056.284398	-21.297785
1056.656698	-21.275860
1057.029262	-21.255176
1057.402088	-21.234366
1057.775177	-21.212188
1058.148530	-21.188545
1058.522146	-21.164346
1058.896027	-21.140684
1059.270171	-21.118204
1059.644580	-21.096813
1060.019254	-21.075623
1060.394193	-21.053724
1060.769397	-21.030882
1061.144867	-21.007443
1061.520602	-20.984135
1061.896604	-20.961657
1062.272872	-20.939937
1062.649407	-20.918368
1063.026210	-20.896333
1063.403279	-20.873607
1063.780616	-20.850528
1064.158221	-20.827680
1064.536094	-20.805420
1064.914235	-20.783672
1065.292645	-20.761927
1065.671325	-20.739568
1066.050273	-20.716753
1066.429491	-20.694071
1066.808979	-20.671902
1067.188738	-20.650214
1067.568766	-20.628478
1067.949066	-20.606228
1068.329636	-20.583520
1068.710478	-20.560851
1069.091592	-20.538927
1069.472977	-20.517944
1069.854635	-20.497143
1070.236565	-20.475597
1070.618768	-20.453021
1071.001243	-20.429900
1071.383993	-20.407475
1071.767016	-20.386613
1072.150313	-20.366877
1072.533884	-20.346907
1072.917730	-20.325519
1073.301850	-20.302774
1073.686246	-20.280035
1074.070917	-20.258896
1074.455864	-20.239596
1074.841087	-20.220709
1075.226586	-20.200428
1075.612362	-20.178194
1075.998415	-20.155450
1076.384745	-20.134513
1076.771353	-20.116149
1077.158238	-20.098847
1077.545401	-20.080092
1077.932843	-20.058339
1078.320564	-20.035017
1078.708564	-20.013294
1079.096842	-19.994958
1079.485401	-19.979241
1079.874240	-19.962909
1080.263358	-19.943222
1080.652757	-19.920815
1081.042438	-19.898579
1081.432399	-19.879432
1081.822641	-19.863587
1082.213166	-19.848136
1082.603972	-19.830317
1082.995061	-19.809740
1083.386433	-19.788792
1083.778087	-19.770464
1084.170025	-19.755018
1084.562246	-19.740093
1084.954751	-19.722753
1085.347541	-19.702559
1085.740615	-19.682130
1086.133973	-19.664473
1086.527617	-19.650424
1086.921546	-19.637317
1087.315761	-19.621632
1087.710262	-19.602426
1088.105050	-19.581951
1088.500124	-19.563926
1088.895485	-19.549814
1089.291134	-19.537425
1089.687070	-19.523217
1090.083294	-19.505312
1090.479806	-19.485673
1090.876607	-19.468170
1091.273696	-19.454725
1091.671075	-19.443312
1092.068744	-19.429521
1092.466702	-19.410897
1092.864950	-19.389692
1093.263489	-19.371170
1093.662319	-19.358879
1094.061440	-19.350556
1094.460852	-19.339609
1094.860555	-19.321180
1095.260551	-19.297112
1095.660840	-19.274963
1096.061421	-19.260895
1096.462295	-19.253467
1096.863462	-19.244842
1097.264923	-19.228137
1097.666678	-19.204334
1098.068727	-19.181263
1098.471071	-19.165483
1098.873710	-19.155693
1099.276644	-19.144501
1099.679874	-19.126512
1100.083400	-19.103804
1100.487222	-19.083349
1100.891340	-19.069048
1101.295756	-19.057400
1101.700468	-19.042004
1102.105478	-19.020554
1102.510787	-18.997587
1102.916393	-18.979099
1103.322298	-18.965602
1103.728502	-18.952391
1104.135005	-18.934423
1104.541807	-18.912069
1104.948909	-18.889991
1105.356312	-18.871550
1105.764015	-18.856051
1106.172019	-18.839786
1106.580324	-18.820708
1106.988931	-18.799729
1107.397840	-18.779093
1107.807051	-18.759968
1108.216564	-18.741833
1108.626380	-18.723651
1109.036500	-18.704603
1109.446923	-18.684408
1109.857649	-18.663243
1110.268680	-18.642389
1110.680016	-18.623049
1111.091657	-18.605312
1111.503602	-18.587513
1111.915854	-18.567262
1112.328411	-18.544411
1112.741275	-18.521366
1113.154445	-18.501118
1113.567922	-18.484079
1113.981706	-18.467524
1114.395798	-18.447912
1114.810198	-18.424411
1115.224906	-18.399885
1115.639923	-18.378066
1116.055249	-18.360379
1116.470884	-18.344344
1116.886829	-18.325918
1117.303084	-18.303050
1117.719650	-18.277821
1118.136526	-18.254667
1118.553713	-18.236106
1118.971212	-18.220143
1119.389022	-18.201893
1119.807145	-18.178913
1120.225580	-18.153783
1120.644328	-18.131287
1121.063389	-18.113155
1121.482763	-18.096015
1121.902452	-18.075767
1122.322454	-18.052191
1122.742771	-18.028899
1123.163404	-18.008688
1123.584351	-17.990305
1124.005614	-17.970455
1124.427193	-17.948095
1124.849089	-17.925555
1125.271301	-17.904935
1125.693830	-17.885567
1126.116677	-17.865068
1126.539842	-17.842993
1126.963324	-17.821106
1127.387126	-17.800834
1127.811246	-17.781083
1128.235685	-17.759865
1128.660444	-17.737361
1129.085522	-17.715578
1129.510922	-17.695843
1129.936641	-17.676396
1130.362682	-17.654877
1130.789044	-17.631545
1131.215728	-17.609210
1131.642734	-17.589447
1132.070063	-17.570444
1132.497714	-17.549183
1132.925689	-17.525571
1133.353987	-17.502452
1133.782610	-17.481941
1134.211556	-17.462657
1134.640827	-17.441777
1135.070424	-17.418576
1135.500345	-17.395167
1135.930593	-17.373655
1136.361166	-17.353469
1136.792067	-17.332453
1137.223294	-17.309733
1137.654848	-17.286542
1138.086730	-17.264452
1138.518940	-17.243241
1138.951479	-17.221597
1139.384346	-17.199008
1139.817543	-17.176163
1140.251069	-17.153949
1140.684925	-17.132067
1141.119111	-17.109822
1141.553628	-17.087104
1141.988475	-17.064447
1142.423655	-17.042187
1142.859166	-17.020021
1143.295009	-16.997546
1143.731185	-16.974861
1144.167694	-16.952270
1144.604536	-16.929877
1145.041711	-16.907605
1145.479221	-16.885353
1145.917065	-16.862970
1146.355245	-16.840461
1146.793759	-16.818020
1147.232609	-16.795870
1147.671795	-16.774094
1148.111317	-16.752211
1148.551177	-16.729888
1148.991373	-16.707432
1149.431907	-16.685605
1149.872779	-16.664507
1150.313989	-16.643229
1150.755538	-16.621097
1151.197426	-16.598771
1151.639653	-16.577392
1152.082220	-16.556941
1152.525128	-16.536089
1152.968376	-16.514261
1153.411966	-16.492314
1153.855897	-16.471453
1154.300169	-16.451265
1154.744784	-16.430520
1155.189742	-16.408883
1155.635042	-16.387550
1156.080687	-16.367138
1156.526674	-16.346899
1156.973007	-16.325787
1157.419683	-16.304197
1157.866705	-16.283301
1158.314072	-16.263255
1158.761786	-16.242752
1159.209845	-16.221090
1159.658251	-16.199289
1160.107004	-16.178602
1160.556104	-16.158586
1161.005553	-16.137595
1161.455349	-16.115396
1161.905494	-16.093532
1162.355989	-16.072843
1162.806832	-16.052338
1163.258026	-16.030647
1163.709570	-16.008286
1164.161464	-15.986653
1164.613710	-15.965880
1165.066307	-15.944637
1165.519256	-15.922414
1165.972558	-15.900264
1166.426212	-15.879133
1166.880219	-15.858346
1167.334580	-15.836663
1167.789295	-15.814338
1168.244364	-15.792767
1168.699788	-15.772366
1169.155567	-15.751829
1169.611702	-15.730215
1170.068193	-15.708481
1170.525041	-15.688007
1170.982245	-15.668405
1171.439807	-15.648212
1171.897726	-15.627306
1172.356004	-15.606936
1172.814640	-15.587773
1173.273635	-15.568850
1173.732989	-15.549243
1174.192703	-15.529525
1174.652778	-15.510783
1175.113213	-15.492838
1175.574009	-15.474542
1176.035167	-15.455586
1176.496687	-15.437097
1176.958569	-15.419727
1177.420814	-15.402616
1177.883422	-15.384674
1178.346394	-15.366366
1178.809730	-15.348919
1179.273430	-15.332375
1179.737496	-15.315436
1180.201927	-15.297561
1180.666723	-15.279753
1181.131886	-15.262977
1181.597416	-15.246557
1182.063312	-15.229179
1182.529576	-15.211140
1182.996209	-15.193787
1183.463209	-15.177355
1183.930579	-15.160381
1184.398317	-15.142303
1184.866426	-15.124321
1185.334904	-15.107477
1185.803754	-15.090862
1186.272974	-15.073172
1186.742566	-15.054858
1187.212529	-15.037415
1187.682865	-15.020958
1188.153574	-15.004012
1188.624656	-14.986058
1189.096112	-14.968364
1189.567942	-14.951862
1190.040147	-14.935661
1190.512726	-14.918538
1190.985681	-14.901178
1191.459012	-14.884885
1191.932720	-14.869332
1192.406804	-14.853142
1192.881265	-14.836407
1193.356104	-14.820514
1193.831322	-14.805603
1194.306918	-14.790409
1194.782893	-14.774366
1195.259248	-14.758712
1195.735982	-14.744203
1196.213097	-14.729807
1196.690593	-14.714476
1197.168471	-14.699011
1197.646730	-14.684465
1198.125371	-14.670287
1198.604395	-14.655474
1199.083803	-14.640259
1199.563594	-14.625528
1200.043769	-14.611138
1200.524329	-14.596380
1201.005273	-14.581305
1201.486604	-14.566508
1201.968320	-14.551940
1202.450422	-14.537083
1202.932912	-14.522038
1203.415789	-14.507309
1203.899054	-14.492821
1204.382707	-14.478127
1204.866748	-14.463422
1205.351179	-14.449088
1205.836000	-14.434936
1206.321211	-14.420708
1206.806812	-14.406799
1207.292805	-14.393390
1207.779189	-14.379977
1208.265965	-14.366391
1208.753134	-14.353378
1209.240696	-14.341248
1209.728651	-14.328996
1210.217000	-14.316204
1210.705744	-14.303958
1211.194883	-14.292896
1211.684417	-14.281826
1212.174347	-14.269881
1212.664673	-14.258176
1213.155396	-14.247708
1213.646516	-14.237356
1214.138034	-14.225893
1214.629951	-14.214398
1215.122266	-14.204145
1215.614980	-14.194003
1216.108095	-14.182499
1216.601609	-14.170766
1217.095524	-14.160516
1217.589841	-14.150428
1218.084559	-14.138620
1218.579679	-14.126476
1219.075202	-14.116099
1219.571128	-14.106145
1220.067458	-14.094322
1220.564191	-14.082005
1221.061330	-14.071661
1221.558874	-14.061987
1222.056823	-14.050567
1222.555178	-14.038641
1223.053940	-14.028686
1223.553109	-14.019514
1224.052686	-14.008698
1224.552671	-13.997433
1225.053065	-13.988176
1225.553867	-13.979573
1226.055079	-13.969182
1226.556702	-13.958379
1227.058735	-13.949641
1227.561179	-13.941373
1228.064035	-13.931010
1228.567303	-13.920172
1229.070983	-13.911393
1229.575077	-13.902884
1230.079585	-13.892113
1230.584506	-13.880894
1231.089842	-13.871587
1231.595594	-13.862299
1232.101761	-13.850881
1232.608345	-13.839278
1233.115345	-13.829388
1233.622762	-13.819211
1234.130597	-13.807272
1234.638851	-13.795602
1235.147523	-13.785490
1235.656615	-13.774830
1236.166126	-13.762721
1236.676058	-13.751318
1237.186411	-13.741350
1237.697185	-13.730604
1238.208381	-13.718609
1238.719999	-13.707581
1239.232040	-13.697665
1239.744505	-13.686719
1240.257394	-13.674783
1240.770708	-13.663760
1241.284446	-13.653270
1241.798610	-13.641633
1242.313201	-13.629364
1242.828218	-13.617747
1243.343662	-13.605969
1243.859534	-13.593116
1244.375834	-13.580104
1244.892563	-13.567399
1245.409721	-13.554119
1245.927309	-13.540148
1246.445327	-13.526363
1246.963777	-13.512674
1247.482657	-13.498411
1248.001970	-13.483932
1248.521716	-13.469803
1249.041894	-13.455631
1249.562506	-13.441183
1250.083553	-13.426924
1250.605034	-13.412866
1251.126950	-13.398592
1251.649302	-13.384391
1252.172091	-13.370537
1252.695316	-13.356431
1253.218979	-13.341949
1253.743079	-13.327866
1254.267619	-13.313939
1254.792597	-13.299224
1255.318015	-13.284225
1255.843874	-13.269825
1256.370173	-13.255158
1256.896913	-13.239522
1257.424095	-13.224069
1257.951720	-13.209244
1258.479787	-13.193820
1259.008298	-13.177750
1259.537254	-13.162496
1260.066654	-13.147730
1260.596499	-13.132148
1261.126790	-13.116661
1261.657527	-13.102392
1262.188711	-13.088120
1262.720342	-13.073110
1263.252422	-13.058844
1263.784950	-13.045600
1264.317928	-13.031707
1264.851355	-13.017305
1265.385232	-13.003939
1265.919560	-12.990861
1266.454340	-12.976689
1266.989572	-12.962485
1267.525256	-12.949192
1268.061394	-12.935443
1268.597985	-12.920787
1269.135031	-12.906632
1269.672531	-12.893021
1270.210487	-12.878711
1270.748899	-12.864073
1271.287768	-12.850282
1271.827094	-12.836756
1272.366877	-12.822642
1272.907119	-12.808789
1273.447820	-12.795793
1273.988981	-12.782698
1274.530601	-12.769169
1275.072683	-12.756100
1275.615226	-12.743513
1276.158230	-12.730449
1276.701697	-12.716979
1277.245627	-12.703929
1277.790021	-12.690868
1278.334879	-12.677017
1278.880202	-12.662981
1279.425991	-12.649357
1279.972245	-12.635370
1280.518966	-12.620720
1281.066155	-12.606397
1281.613811	-12.592511
1282.161936	-12.578068
1282.710529	-12.563476
1283.259593	-12.549724
1283.809126	-12.536089
1284.359131	-12.521825
1284.909607	-12.507986
1285.460555	-12.494870
1286.011976	-12.481140
1286.563870	-12.466978
1287.116237	-12.453519
1287.669080	-12.439959
1288.222397	-12.425444
1288.776191	-12.411069
1289.330460	-12.397152
1289.885207	-12.382534
1290.440431	-12.367529
1290.996133	-12.353214
1291.552314	-12.338935
1292.108975	-12.324130
1292.666115	-12.309827
1293.223737	-12.296202
1293.781839	-12.282274
1294.340424	-12.268360
1294.899491	-12.255235
1295.459041	-12.242182
1296.019075	-12.228641
1296.579593	-12.215463
1297.140597	-12.202662
1297.702086	-12.189280
1298.264061	-12.175675
1298.826524	-12.162546
1299.389474	-12.149255
1299.952912	-12.135489
1300.516839	-12.122102
1301.081255	-12.109175
1301.646162	-12.095964
1302.211559	-12.082902
1302.777448	-12.070634
1303.343829	-12.058444
1303.910702	-12.046060
1304.478069	-12.034315
1305.045930	-12.022896
1305.614285	-12.010948
1306.183136	-11.999126
1306.752483	-11.987723
1307.322326	-11.975761
1307.892666	-11.963418
1308.463504	-11.951546
1309.034841	-11.939509
1309.606677	-11.926906
1310.179012	-11.914744
1310.751849	-11.902988
1311.325186	-11.890780
1311.899025	-11.878783
1312.473366	-11.867476
1313.048211	-11.855855
1313.623559	-11.844024
1314.199412	-11.832689
1314.775770	-11.821105
1315.352634	-11.808909
1315.930004	-11.796845
1316.507881	-11.784662
1317.086266	-11.771792
1317.665159	-11.758868
1318.244562	-11.746156
1318.824474	-11.733062
1319.404897	-11.719905
1319.985831	-11.707279
1320.567276	-11.694662
1321.149234	-11.681885
1321.731706	-11.669599
1322.314691	-11.657505
1322.898190	-11.644996
1323.482205	-11.632604
1324.066736	-11.620419
1324.651783	-11.607713
1325.237347	-11.594829
1325.823430	-11.582247
1326.410031	-11.569449
1326.997151	-11.556507
1327.584791	-11.544098
1328.172952	-11.531930
1328.761634	-11.519773
1329.350839	-11.508175
1329.940566	-11.496982
1330.530817	-11.485714
1331.121592	-11.474659
1331.712891	-11.463837
1332.304716	-11.452677
1332.897068	-11.441361
1333.489946	-11.430149
1334.083352	-11.418596
1334.677287	-11.406852
1335.271750	-11.395370
1335.866744	-11.383870
1336.462268	-11.372324
1337.058323	-11.361161
1337.654910	-11.350187
1338.252029	-11.339075
1338.849682	-11.328080
1339.447869	-11.317145
1340.046591	-11.305768
1340.645848	-11.294109
1341.245641	-11.282405
1341.845972	-11.270240
1342.446840	-11.257759
1343.048246	-11.245482
1343.650191	-11.233132
1344.252677	-11.220705
1344.855702	-11.208784
1345.459269	-11.197074
1346.063379	-11.185290
1346.668030	-11.173936
1347.273226	-11.162685
1347.878965	-11.151071
1348.485250	-11.139692
1349.092080	-11.128305
1349.699456	-11.116521
1350.307380	-11.105111
1350.915851	-11.093948
1351.524871	-11.082673
1352.134441	-11.072061
1352.744560	-11.061902
1353.355231	-11.051691
1353.966453	-11.042051
1354.578227	-11.032591
1355.190555	-11.022783
1355.803436	-11.013176
1356.416872	-11.003431
1357.030863	-10.993242
1357.645411	-10.983213
1358.260515	-10.973165
1358.876177	-10.962978
1359.492397	-10.953133
1360.109176	-10.943456
1360.726516	-10.933753
1361.344416	-10.924249
1361.962877	-10.914663
1362.581901	-10.904799
1363.201487	-10.894809
1363.821637	-10.884570
1364.442352	-10.874108
1365.063632	-10.863629
1365.685478	-10.853237
1366.307891	-10.843038
1366.930871	-10.833133
1367.554420	-10.823593
1368.178538	-10.814344
1368.803226	-10.805244
1369.428485	-10.796336
1370.054315	-10.787429
1370.680717	-10.778416
1371.307693	-10.769531
1371.935242	-10.760678
1372.563366	-10.751933
1373.192065	-10.743632
1373.821341	-10.735601
1374.451193	-10.727857
1375.081623	-10.720535
1375.712632	-10.713234
1376.344221	-10.705907
1376.976389	-10.698589
1377.609139	-10.690948
1378.242470	-10.683156
1378.876384	-10.675372
1379.510881	-10.667501
1380.145963	-10.659815
1380.781629	-10.652445
1381.417881	-10.645193
1382.054720	-10.638178
1382.692147	-10.631318
1383.330161	-10.624313
1383.968765	-10.617336
1384.607959	-10.610345
1385.247743	-10.603290
1385.888119	-10.596541
1386.529087	-10.590136
1387.170648	-10.584106
1387.812804	-10.578696
1388.455554	-10.573710
1389.098899	-10.569024
1389.742842	-10.564650
1390.387381	-10.560335
1391.032519	-10.556060
1391.678256	-10.551953
1392.324592	-10.547999
1392.971529	-10.544325
1393.619068	-10.541095
1394.267208	-10.538209
1394.915952	-10.535600
1395.565300	-10.533232
1396.215253	-10.530849
1396.865812	-10.528373
1397.516977	-10.525923
1398.168749	-10.523406
1398.821130	-10.521046
1399.474120	-10.519112
1400.127719	-10.517479
1400.781930	-10.516362
1401.436752	-10.515707
1402.092186	-10.515178
1402.748234	-10.514946
1403.404897	-10.514831
1404.062174	-10.514748
1404.720067	-10.515131
1405.378577	-10.515848
1406.037705	-10.517055
1406.697451	-10.519011
1407.357817	-10.521235
1408.018803	-10.523849
1408.680410	-10.526663
1409.342639	-10.529261
1410.005492	-10.532035
1410.668968	-10.534777
1411.333068	-10.537646
1411.997795	-10.541052
1412.663147	-10.544683
1413.329127	-10.548756
1413.995736	-10.553112
1414.662973	-10.557389
1415.330840	-10.561762
1415.999339	-10.566066
1416.668469	-10.570424
1417.338232	-10.575204
1418.008628	-10.580390
1418.679659	-10.586135
1419.351325	-10.592447
1420.023628	-10.598988
1420.696568	-10.605697
1421.370145	-10.612449
1422.044362	-10.619118
1422.719219	-10.626015
1423.394717	-10.633228
1424.070856	-10.640847
1424.747638	-10.649097
1425.425064	-10.657652
1426.103134	-10.666430
1426.781850	-10.675309
1427.461212	-10.684025
1428.141221	-10.692868
1428.821878	-10.701911
1429.503185	-10.711293
1430.185141	-10.721299
1430.867749	-10.731622
1431.551008	-10.742192
1432.234920	-10.752755
1432.919486	-10.762963
1433.604707	-10.772993
1434.290583	-10.782801
1434.977116	-10.792587
1435.664307	-10.802612
1436.352156	-10.812683
1437.040664	-10.822874
1437.729833	-10.832982
1438.419663	-10.842888
1439.110156	-10.852905
1439.801312	-10.863150
1440.493132	-10.874125
1441.185617	-10.886180
1441.878768	-10.899366
1442.572586	-10.913868
1443.267072	-10.929469
1443.962228	-10.946154
1444.658053	-10.964052
1445.354549	-10.983190
1446.051717	-11.003845
1446.749558	-11.025993
1447.448073	-11.049400
1448.147263	-11.073816
1448.847128	-11.098719
1449.547671	-11.123850
1450.248891	-11.149150
1450.950789	-11.174521
1451.653368	-11.200193
1452.356627	-11.225998
1453.060568	-11.251740
1453.765192	-11.277242
1454.470500	-11.302103
1455.176492	-11.326552
1455.883170	-11.350666
1456.590534	-11.374836
1457.298586	-11.399402
1458.007327	-11.424263
1458.716758	-11.449541
1459.426880	-11.474969
1460.137693	-11.500759
1460.849199	-11.527311
1461.561398	-11.555125
1462.274293	-11.584914
1462.987883	-11.616930
1463.702170	-11.651423
1464.417155	-11.688451
1465.132838	-11.728210
1465.849222	-11.771253
1466.566306	-11.818214
1467.284093	-11.869792
1468.002582	-11.926339
1468.721775	-11.987871
1469.441674	-12.054206
1470.162278	-12.125260
1470.883590	-12.201209
1471.605609	-12.282563
1472.328338	-12.369759
1473.051777	-12.463017
1473.775928	-12.562191
1474.500790	-12.666836
1475.226367	-12.776799
1475.952657	-12.892034
1476.679663	-13.012940
1477.407386	-13.139663
1478.135826	-13.271919
1478.864985	-13.408958
1479.594863	-13.549559
1480.325463	-13.692867
1481.056784	-13.838165
1481.788828	-13.985135
1482.521597	-14.133204
1483.255090	-14.281266
1483.989309	-14.427861
1484.724256	-14.571326
1485.459931	-14.710519
1486.196336	-14.844642
1486.933471	-14.972957
1487.671337	-15.094286
1488.409937	-15.206634
1489.149270	-15.307806
1489.889337	-15.395715
1490.630141	-15.468994
1491.371682	-15.526639
1492.113961	-15.567544
1492.856979	-15.590277
1493.600738	-15.593235
1494.345238	-15.575487
1495.090481	-15.536942
1495.836467	-15.478295
1496.583198	-15.400188
1497.330675	-15.302991
1498.078899	-15.186888
1498.827872	-15.052686
1499.577593	-14.902032
1500.328065	-14.737249
1501.079289	-14.560655
1501.831265	-14.374230
1502.583995	-14.179989
1503.337480	-13.980288
1504.091721	-13.778243
1504.846719	-13.577013
1505.602475	-13.379483
1506.358991	-13.187842
1507.116268	-13.004055
1507.874306	-12.830335
1508.633108	-12.669154
1509.392673	-12.523017
1510.153004	-12.393743
1510.914101	-12.282579
1511.675965	-12.190361
1512.438599	-12.118050
1513.202002	-12.066569
1513.966176	-12.036212
1514.731122	-12.026083
1515.496842	-12.033820
1516.263336	-12.056088
1517.030607	-12.088840
1517.798654	-12.127410
1518.567479	-12.165944
1519.337083	-12.197019
1520.107468	-12.211872
1520.878634	-12.201218
1521.650584	-12.156509
1522.423317	-12.070588
1523.196836	-11.938232
1523.971141	-11.756153
1524.746233	-11.523505
1525.522115	-11.242165
1526.298786	-10.916877
1527.076249	-10.554550
1527.854504	-10.163074
1528.633553	-9.750257
1529.413397	-9.323240
1530.194037	-8.888700
1530.975474	-8.452952
1531.757709	-8.022002
1532.540745	-7.601074
1533.324581	-7.194484
1534.109220	-6.805725
1534.894662	-6.437996
1535.680909	-6.094462
1536.467961	-5.778174
1537.255821	-5.491749
1538.044489	-5.237204
1538.833967	-5.016194
1539.624256	-4.830272
1540.415357	-4.680975
1541.207271	-4.569484
1542.000000	-4.496418
1542.793545	-4.461849
1543.587907	-4.465671
1544.383087	-4.507777
1545.179088	-4.587942
1545.975909	-4.705576
1546.773552	-4.859718
1547.572019	-5.049364
1548.371311	-5.273641
1549.171428	-5.531676
1549.972373	-5.822173
1550.774147	-6.143378
1551.576751	-6.493304
1552.380185	-6.869990
1553.184453	-7.271199
1553.989554	-7.693954
1554.795490	-8.134383
1555.602263	-8.587973
1556.409873	-9.049628
1557.218322	-9.513199
1558.027612	-9.971194
1558.837743	-10.415385
1559.648717	-10.838069
1560.460536	-11.232743
1561.273200	-11.594182
1562.086710	-11.918916
1562.901069	-12.206489
1563.716278	-12.460069
1564.532337	-12.685353
1565.349249	-12.889235
1566.167014	-13.079663
1566.985634	-13.266099
1567.805111	-13.458524
1568.625444	-13.665580
1569.446637	-13.893933
1570.268690	-14.149578
1571.091605	-14.438743
1571.915382	-14.766881
1572.740024	-15.137356
1573.565532	-15.552257
1574.391907	-16.014631
1575.219150	-16.528755
1576.047262	-17.097759
1576.876246	-17.721756
1577.706103	-18.399261
1578.536833	-19.128731
1579.368439	-19.905706
1580.200922	-20.716184
1581.034282	-21.532646
1581.868522	-22.313264
1582.703643	-22.998049
1583.539646	-23.504303
1584.376532	-23.744639
1585.214304	-23.673080
1586.052962	-23.313498
1586.892508	-22.737372
1587.732943	-22.026431
1588.574269	-21.251994
1589.416487	-20.465903
1590.259599	-19.698305
1591.103605	-18.963800
1591.948508	-18.270178
1592.794309	-17.622112
1593.641009	-17.020585
1594.488609	-16.463459
1595.337112	-15.948131
1596.186518	-15.472868
1597.036829	-15.035846
1597.888047	-14.634541
1598.740172	-14.266693
1599.593207	-13.930854
1600.447153	-13.625445
1601.302010	-13.348078
1602.157782	-13.096404
1603.014469	-12.868836
1603.872072	-12.663846
1604.730593	-12.479247
1605.590034	-12.313028
1606.450397	-12.164215
1607.311681	-12.031935
1608.173890	-11.914146
1609.037024	-11.808340
1609.901085	-11.713183
1610.766075	-11.628194
1611.631995	-11.552121
1612.498846	-11.482926
1613.366630	-11.419350
1614.235349	-11.360975
1615.105004	-11.306621
1615.975596	-11.254174
1616.847128	-11.202364
1617.719600	-11.151246
1618.593014	-11.100531
1619.467372	-11.048903
1620.342675	-10.995536
1621.218924	-10.940765
1622.096122	-10.884691
1622.974270	-10.826583
1623.853369	-10.766370
1624.733420	-10.705308
1625.614427	-10.644471
1626.496389	-10.583808
1627.379308	-10.523283
1628.263187	-10.463713
1629.148026	-10.405969
1630.033828	-10.350478
1630.920593	-10.297794
1631.808324	-10.248608
1632.697022	-10.202964
1633.586688	-10.160489
1634.477324	-10.121306
1635.368932	-10.085806
1636.261514	-10.053809
1637.155070	-10.024910
1638.049602	-9.999094
1638.945113	-9.976179
1639.841603	-9.955367
1640.739075	-9.936116
1641.637529	-9.918567
1642.536968	-9.902628
1643.437393	-9.887728
1644.338806	-9.873699
1645.241209	-9.860628
1646.144602	-9.847954
1647.048988	-9.835162
1647.954368	-9.822889
1648.860744	-9.811796
1649.768118	-9.801212
1650.676491	-9.790421
1651.585865	-9.780033
1652.496241	-9.770632
1653.407621	-9.761596
1654.320008	-9.752550
1655.233401	-9.744229
1656.147804	-9.736924
1657.063218	-9.729837
1657.979645	-9.722602
1658.897085	-9.715795
1659.815542	-9.709777
1660.735016	-9.704366
1661.655509	-9.699435
1662.577023	-9.694937
1663.499560	-9.690840
1664.423121	-9.687407
1665.347709	-9.684886
1666.273324	-9.683114
1667.199969	-9.681997
1668.127645	-9.681678
1669.056353	-9.681923
1669.986097	-9.682368
1670.916877	-9.683330
1671.848695	-9.685199
1672.781553	-9.687489
1673.715452	-9.689580
1674.650395	-9.691655
1675.586383	-9.694074
1676.523418	-9.696744
1677.461501	-9.699559
1678.400635	-9.702606
1679.340821	-9.705767
1680.282061	-9.708869
1681.224357	-9.712191
1682.167710	-9.716134
1683.112122	-9.720538
1684.057595	-9.724985
1685.004132	-9.729577
1685.951732	-9.734565
1686.900400	-9.739655
1687.850135	-9.744739
1688.800940	-9.750255
1689.752818	-9.755624
1690.705768	-9.759464
1691.659795	-9.762724
1692.614898	-9.768353
1693.571081	-9.776554
1694.528345	-9.784265
1695.486691	-9.790159
1696.446122	-9.795949
1697.406640	-9.802569
1698.368245	-9.809168
1699.330941	-9.815590
1700.294729	-9.822391
1701.259611	-9.829315
1702.225588	-9.836252
1703.192664	-9.843952
1704.160838	-9.852202
1705.130114	-9.859965
1706.100493	-9.867636
1707.071977	-9.876004
1708.044568	-9.884449
1709.018268	-9.892781
1709.993079	-9.901647
1710.969003	-9.910550
1711.946041	-9.919261
1712.924196	-9.928785
1713.903469	-9.938775
1714.883862	-9.948361
1715.865378	-9.958287
1716.848017	-9.968693
1717.831783	-9.979037
1718.816677	-9.989919
1719.802701	-10.001033
1720.789857	-10.011637
1721.778147	-10.022816
1722.767573	-10.034589
1723.758136	-10.045860
1724.749840	-10.057403
1725.742685	-10.069251
1726.736673	-10.080577
1727.731808	-10.092513
1728.728090	-10.104909
1729.725521	-10.116434
1730.724105	-10.128196
1731.723842	-10.140462
1732.724735	-10.152239
1733.726785	-10.164247
1734.729995	-10.176191
1735.734366	-10.187509
1736.739902	-10.199386
1737.746603	-10.211271
1738.754472	-10.222489
1739.763510	-10.233964
1740.773721	-10.245154
1741.785105	-10.256136
1742.797665	-10.267580
1743.811403	-10.278280
1744.826321	-10.288680
1745.842422	-10.299664
1746.859706	-10.310212
1747.878177	-10.320687
1748.897835	-10.331235
1749.918685	-10.341397
1750.940726	-10.352063
1751.963963	-10.362705
1752.988395	-10.372970
1754.014027	-10.383584
1755.040860	-10.394024
1756.068895	-10.404788
1757.098135	-10.415776
1758.128583	-10.426112
1759.160240	-10.437146
1760.193109	-10.448529
1761.227191	-10.459530
1762.262488	-10.471107
1763.299004	-10.482557
1764.336740	-10.494312
1765.375697	-10.506645
1766.415880	-10.518432
1767.457288	-10.530713
1768.499926	-10.543192
1769.543794	-10.555579
1770.588895	-10.568580
1771.635231	-10.580970
1772.682805	-10.593815
1773.731619	-10.607353
1774.781674	-10.620139
1775.832973	-10.633399
1776.885519	-10.646733
1777.939312	-10.660003
1778.994357	-10.673588
1780.050654	-10.686575
1781.108207	-10.700034
1782.167017	-10.713520
1783.227087	-10.726810
1784.288418	-10.740473
1785.351013	-10.753661
1786.414875	-10.767546
1787.480006	-10.781382
1788.546407	-10.794655
1789.614082	-10.808603
1790.683032	-10.822268
1791.753259	-10.836075
1792.824767	-10.849742
1793.897557	-10.863421
1794.971632	-10.877822
1796.046994	-10.891776
1797.123645	-10.906219
1798.201588	-10.920900
1799.280824	-10.935649
1800.361357	-10.950844
1801.443188	-10.965527
1802.526320	-10.980702
1803.610756	-10.996049
1804.696497	-11.011117
1805.783546	-11.026498
1806.871906	-11.042242
1807.961578	-11.058325
1809.052565	-11.074460
1810.144870	-11.091004
1811.238494	-11.107808
1812.333441	-11.124697
1813.429713	-11.141362
1814.527311	-11.158063
1815.626239	-11.174854
1816.726499	-11.191403
1817.828094	-11.207971
1818.931025	-11.224724
1820.035295	-11.242013
1821.140906	-11.258982
1822.247862	-11.276432
1823.356165	-11.294149
1824.465816	-11.311588
1825.576819	-11.329018
1826.689175	-11.346224
1827.802888	-11.363632
1828.917960	-11.380444
1830.034394	-11.397723
1831.152191	-11.414915
1832.271354	-11.432567
1833.391887	-11.450309
1834.513790	-11.468087
1835.637068	-11.486441
1836.761722	-11.504166
1837.887755	-11.522549
1839.015169	-11.540770
1840.143968	-11.559337
1841.274153	-11.577592
1842.405727	-11.596634
1843.538693	-11.615730
1844.673053	-11.634977
1845.808810	-11.654706
1846.945966	-11.674529
1848.084525	-11.694733
1849.224488	-11.714702
1850.365858	-11.735504
1851.508638	-11.756061
1852.652831	-11.777223
1853.798438	-11.798295
1854.945463	-11.820273
1856.093909	-11.841631
1857.243777	-11.863777
1858.395071	-11.885809
1859.547794	-11.908021
1860.701947	-11.930202
1861.857533	-11.953021
1863.014556	-11.975639
1864.173018	-11.998732
1865.332922	-12.022067
1866.494270	-12.045567
1867.657065	-12.069256
1868.821309	-12.092924
1869.987006	-12.117274
1871.154158	-12.141030
1872.322768	-12.165836
1873.492839	-12.190387
1874.664373	-12.215612
1875.837373	-12.240624
1877.011841	-12.266726
1878.187782	-12.291956
1879.365197	-12.318504
1880.544089	-12.344430
1881.724460	-12.371372
1882.906315	-12.397850
1884.089655	-12.425552
1885.274483	-12.452500
1886.460803	-12.480472
1887.648616	-12.507851
1888.837927	-12.535901
1890.028736	-12.563278
1891.221049	-12.591607
1892.414866	-12.619260
1893.610192	-12.647587
1894.807028	-12.675844
1896.005379	-12.704135
1897.205246	-12.732449
1898.406633	-12.760951
1899.609542	-12.789204
1900.813977	-12.817901
1902.019940	-12.846673
1903.227434	-12.875548
1904.436462	-12.904990
1905.647028	-12.933867
1906.859133	-12.963737
1908.072781	-12.992449
1909.287976	-13.022701
1910.504719	-13.051946
1911.723013	-13.082770
1912.942863	-13.113194
1914.164270	-13.144871
1915.387238	-13.175622
1916.611770	-13.207935
1917.837868	-13.238163
1919.065536	-13.270357
1920.294777	-13.300948
1921.525594	-13.332937
1922.757989	-13.364851
1923.991967	-13.397407
1925.227529	-13.429880
1926.464679	-13.463084
1927.703420	-13.495183
1928.943755	-13.528321
1930.185688	-13.560617
1931.429221	-13.593640
1932.674356	-13.626926
1933.921099	-13.660419
1935.169451	-13.694327
1936.419415	-13.728435
1937.670996	-13.762831
1938.924195	-13.797504
1940.179017	-13.833645
1941.435463	-13.868924
1942.693538	-13.907291
1943.953245	-13.942875
1945.214586	-13.981799
1946.477566	-14.017742
1947.742186	-14.056502
1949.008451	-14.094494
1950.276363	-14.134714
1951.545926	-14.175873
1952.817143	-14.217680
1954.090017	-14.259371
1955.364551	-14.299222
1956.640749	-14.336196
1957.918615	-14.383482
1959.198150	-14.428646
1960.479359	-14.469453
1961.762244	-14.511523
1963.046810	-14.555064
1964.333059	-14.598761
1965.620995	-14.643654
1966.910621	-14.688203
1968.201940	-14.732127
1969.494956	-14.776839
1970.789672	-14.820915
1972.086091	-14.866112
1973.384217	-14.912413
1974.684053	-14.956954
1975.985602	-15.004262
1977.288869	-15.048123
1978.593855	-15.094964
1979.900566	-15.140964
1981.209003	-15.187015
1982.519171	-15.235455
1983.831073	-15.280791
1985.144712	-15.329121
1986.460093	-15.375209
1987.777217	-15.422408
1989.096089	-15.470006
1990.416713	-15.517030
1991.739092	-15.564929
1993.063228	-15.612418
1994.389127	-15.660343
1995.716791	-15.708022
1997.046223	-15.757362
1998.377428	-15.805345
1999.710409	-15.855452
2001.045169	-15.904638
2002.381713	-15.953534
2003.720043	-16.004647
2005.060163	-16.053509
2006.402077	-16.105705
2007.745788	-16.156898
2009.091301	-16.208506
2010.438618	-16.261404
2011.787743	-16.312527
2013.138680	-16.365947
2014.491433	-16.418261
2015.846005	-16.471772
2017.202399	-16.525870
2018.560621	-16.578382
2019.920673	-16.633627
2021.282558	-16.687054
2022.646281	-16.742738
2024.011846	-16.800349
2025.379256	-16.856262
2026.748515	-16.915229
2028.119626	-16.972161
2029.492594	-17.030145
2030.867422	-17.089272
2032.244114	-17.149526
2033.622673	-17.211787
2035.003104	-17.273195
2036.385411	-17.336727
2037.769597	-17.398181
2039.155665	-17.459518
2040.543621	-17.524464
2041.933467	-17.587335
2043.325208	-17.651899
2044.718847	-17.718856
2046.114389	-17.781659
2047.511837	-17.846756
2048.911195	-17.912815
2050.312467	-17.978930
2051.715657	-18.046082
2053.120769	-18.114752
2054.527807	-18.182902
2055.936775	-18.249461
2057.347677	-18.316946
2058.760516	-18.386792
2060.175297	-18.453682
2061.592025	-18.522629
2063.010701	-18.593587
2064.431332	-18.661219
2065.853921	-18.729446
2067.278472	-18.800719
2068.704988	-18.869435
2070.133475	-18.938926
2071.563936	-19.009009
2072.996375	-19.079053
2074.430796	-19.149352
2075.867204	-19.219171
2077.305603	-19.289642
2078.745996	-19.362054
2080.188389	-19.430709
2081.632784	-19.500660
2083.079187	-19.573601
2084.527601	-19.644137
2085.978030	-19.713826
2087.430480	-19.785868
2088.884954	-19.855847
2090.341455	-19.926366
2091.799990	-19.995731
2093.260561	-20.065493
2094.723173	-20.137488
2096.187831	-20.208026
2097.654538	-20.276706
2099.123300	-20.349708
2100.594119	-20.423083
2102.067001	-20.494805
2103.541950	-20.568876
2105.018971	-20.644790
2106.498067	-20.722119
2107.979243	-20.801151
2109.462503	-20.880714
2110.947853	-20.959926
2112.435295	-21.043311
2113.924836	-21.127521
2115.416478	-21.210436
2116.910227	-21.294740
2118.406087	-21.381626
2119.904063	-21.466974
2121.404158	-21.552766
2122.906378	-21.640790
2124.410727	-21.728085
2125.917210	-21.818182
2127.425831	-21.909233
2128.936594	-21.997306
2130.449505	-22.084910
2131.964567	-22.176856
2133.481786	-22.269260
2135.001166	-22.359650
2136.522711	-22.450102
2138.046427	-22.539448
2139.572317	-22.630121
2141.100388	-22.723292
2142.630642	-22.816721
2144.163085	-22.905568
2145.697722	-22.993503
2147.234558	-23.087198
2148.773596	-23.183001
2150.314842	-23.278042
2151.858301	-23.372023
2153.403977	-23.464629
2154.951875	-23.554790
2156.502000	-23.646191
2158.054357	-23.741418
2159.608950	-23.835050
2161.165785	-23.927358
2162.724866	-24.020316
2164.286198	-24.112986
2165.849786	-24.204668
2167.415635	-24.296174
2168.983749	-24.389362
2170.554134	-24.478943
2172.126795	-24.562581
2173.701737	-24.652997
2175.278964	-24.746390
2176.858481	-24.836674
2178.440294	-24.925864
2180.024408	-25.015027
2181.610827	-25.104418
2183.199557	-25.192232
2184.790602	-25.282355
2186.383968	-25.377095
2187.979660	-25.472213
2189.577683	-25.565028
2191.178041	-25.656229
2192.780741	-25.749775
2194.385787	-25.845643
2195.993185	-25.940411
2197.602939	-26.038176
2199.215054	-26.134768
