# 2022-03-21_14.04.09
# shape = sech2
# FWHM_ps = 0.1
# carrier_nm = 1542
# frep_MHz = 12126
# pow_mW = 8000
# GDD = 0.0
# propa_len = 0.11333333333333334
# untap_len = 0.01
# taper_len = 0.05333333333333333
# waist_len = 0.02
# uptap_len = 0.02
# untap_scale = 1.0
# waist_scale = 0.1
# workingDir = NL_20110305_12 (Spirou)
# axis = slow
# window_ps = 10.0
# steps = 200
# points = 13000
# 
# wavelength [nm]	 power spectral density [dB]
1000.248639	-24.898006
1000.582480	-24.839592
1000.916545	-24.703986
1001.250832	-24.803684
1001.585343	-24.775824
1001.920077	-24.640545
1002.255035	-24.711778
1002.590218	-24.711983
1002.925624	-24.584305
1003.261255	-24.625727
1003.597111	-24.641441
1003.933192	-24.538951
1004.269497	-24.537873
1004.606029	-24.577871
1004.942785	-24.489307
1005.279768	-24.459451
1005.616977	-24.512913
1005.954412	-24.439926
1006.292074	-24.386040
1006.629962	-24.452046
1006.968077	-24.380906
1007.306420	-24.327403
1007.644990	-24.381935
1007.983787	-24.327883
1008.322813	-24.266632
1008.662067	-24.315956
1009.001549	-24.268091
1009.341259	-24.211230
1009.681199	-24.247212
1010.021367	-24.208547
1010.361765	-24.152874
1010.702392	-24.181592
1011.043250	-24.140545
1011.384337	-24.099633
1011.725654	-24.110971
1012.067202	-24.070344
1012.408980	-24.045915
1012.750989	-24.034949
1013.093230	-24.001307
1013.435702	-23.986360
1013.778405	-23.957638
1014.121341	-23.929134
1014.464508	-23.923026
1014.807908	-23.877188
1015.151540	-23.855412
1015.495405	-23.851920
1015.839503	-23.798842
1016.183835	-23.772845
1016.528400	-23.783415
1016.873198	-23.712705
1017.218231	-23.689272
1017.563498	-23.712689
1017.908999	-23.619447
1018.254735	-23.610311
1018.600707	-23.632667
1018.946913	-23.526701
1019.293354	-23.530468
1019.640032	-23.548876
1019.986945	-23.432380
1020.334094	-23.450491
1020.681480	-23.460452
1021.029102	-23.339472
1021.376961	-23.369793
1021.725058	-23.370077
1022.073391	-23.244186
1022.421962	-23.292007
1022.770772	-23.276314
1023.119819	-23.150243
1023.469104	-23.219137
1023.818628	-23.171791
1024.168391	-23.068181
1024.518393	-23.139255
1024.868634	-23.072741
1025.219115	-22.990896
1025.569836	-23.051992
1025.920796	-22.981876
1026.271997	-22.910443
1026.623438	-22.974892
1026.975121	-22.888065
1027.327044	-22.835130
1027.679208	-22.898451
1028.031614	-22.793193
1028.384262	-22.774934
1028.737152	-22.814316
1029.090284	-22.707484
1029.443659	-22.714428
1029.797276	-22.728585
1030.151137	-22.638107
1030.505240	-22.647017
1030.859587	-22.653025
1031.214178	-22.562044
1031.569013	-22.588065
1031.924093	-22.582696
1032.279417	-22.486201
1032.634985	-22.540224
1032.990799	-22.496431
1033.346858	-22.431589
1033.703162	-22.484429
1034.059712	-22.416397
1034.416509	-22.384832
1034.773551	-22.415311
1035.130841	-22.354337
1035.488377	-22.327375
1035.846160	-22.361251
1036.204190	-22.279377
1036.562468	-22.284046
1036.920994	-22.298041
1037.279768	-22.206946
1037.638790	-22.253714
1037.998061	-22.208733
1038.357581	-22.168763
1038.717350	-22.192650
1039.077368	-22.140155
1039.437636	-22.120817
1039.798154	-22.128991
1040.158922	-22.078532
1040.519940	-22.065079
1040.881209	-22.073185
1041.242729	-21.999713
1041.604501	-22.031092
1041.966524	-21.985824
1042.328798	-21.953971
1042.691325	-21.967268
1043.054103	-21.910559
1043.417135	-21.905845
1043.780419	-21.890489
1044.143956	-21.849998
1044.507746	-21.842002
1044.871791	-21.824723
1045.236088	-21.772216
1045.600641	-21.792523
1045.965447	-21.734281
1046.330508	-21.721199
1046.695824	-21.715695
1047.061395	-21.657493
1047.427222	-21.659226
1047.793304	-21.636223
1048.159642	-21.580345
1048.526237	-21.597305
1048.893088	-21.545948
1049.260196	-21.510387
1049.627561	-21.526766
1049.995183	-21.446715
1050.363063	-21.457423
1050.731201	-21.429566
1051.099597	-21.369184
1051.468251	-21.386943
1051.837164	-21.334803
1052.206336	-21.292877
1052.575767	-21.318636
1052.945458	-21.227826
1053.315409	-21.239623
1053.685619	-21.217178
1054.056090	-21.151281
1054.426821	-21.171309
1054.797814	-21.121216
1055.169067	-21.078378
1055.540582	-21.100535
1055.912359	-21.019572
1056.284398	-21.025503
1056.656698	-21.009285
1057.029262	-20.941209
1057.402088	-20.961976
1057.775177	-20.916323
1058.148530	-20.870516
1058.522146	-20.899581
1058.896027	-20.818278
1059.270171	-20.822607
1059.644580	-20.809106
1060.019254	-20.741609
1060.394193	-20.768435
1060.769397	-20.715922
1061.144867	-20.683825
1061.520602	-20.702828
1061.896604	-20.624655
1062.272872	-20.640693
1062.649407	-20.615405
1063.026210	-20.563823
1063.403279	-20.584838
1063.780616	-20.533291
1064.158221	-20.513288
1064.536094	-20.520835
1064.914235	-20.459356
1065.292645	-20.474884
1065.671325	-20.443224
1066.050273	-20.407267
1066.429491	-20.426346
1066.808979	-20.370809
1067.188738	-20.370197
1067.568766	-20.361144
1067.949066	-20.312908
1068.329636	-20.331041
1068.710478	-20.288084
1069.091592	-20.276724
1069.472977	-20.271094
1069.854635	-20.227614
1070.236565	-20.232504
1070.618768	-20.203790
1071.001243	-20.178562
1071.383993	-20.177680
1071.767016	-20.138322
1072.150313	-20.127121
1072.533884	-20.110886
1072.917730	-20.075330
1073.301850	-20.074239
1073.686246	-20.035955
1074.070917	-20.019759
1074.455864	-20.004574
1074.841087	-19.964406
1075.226586	-19.962754
1075.612362	-19.925792
1075.998415	-19.905000
1076.384745	-19.888246
1076.771353	-19.851550
1077.158238	-19.843073
1077.545401	-19.808072
1077.932843	-19.786377
1078.320564	-19.768197
1078.708564	-19.730241
1079.096842	-19.720009
1079.485401	-19.687385
1079.874240	-19.660064
1080.263358	-19.643971
1080.652757	-19.600654
1081.042438	-19.595851
1081.432399	-19.552204
1081.822641	-19.533355
1082.213166	-19.509867
1082.603972	-19.465121
1082.995061	-19.459340
1083.386433	-19.412056
1083.778087	-19.398177
1084.170025	-19.363961
1084.562246	-19.328123
1084.954751	-19.311105
1085.347541	-19.272746
1085.740615	-19.245480
1086.133973	-19.227678
1086.527617	-19.177370
1086.921546	-19.171192
1087.315761	-19.125090
1087.710262	-19.105229
1088.105050	-19.084871
1088.500124	-19.036428
1088.895485	-19.037751
1089.291134	-18.985712
1089.687070	-18.977767
1090.083294	-18.948950
1090.479806	-18.914995
1090.876607	-18.909051
1091.273696	-18.869028
1091.671075	-18.858150
1092.068744	-18.837262
1092.466702	-18.801833
1092.864950	-18.801122
1093.263489	-18.763233
1093.662319	-18.756660
1094.061440	-18.736985
1094.460852	-18.703336
1094.860555	-18.707353
1095.260551	-18.664396
1095.660840	-18.667478
1096.061421	-18.640841
1096.462295	-18.616399
1096.863462	-18.613420
1097.264923	-18.573193
1097.666678	-18.578303
1098.068727	-18.544532
1098.471071	-18.528716
1098.873710	-18.516854
1099.276644	-18.482309
1099.679874	-18.481428
1100.083400	-18.446483
1100.487222	-18.434481
1100.891340	-18.415013
1101.295756	-18.386507
1101.700468	-18.379973
1102.105478	-18.345419
1102.510787	-18.333511
1102.916393	-18.309887
1103.322298	-18.286915
1103.728502	-18.276010
1104.135005	-18.242767
1104.541807	-18.231830
1104.948909	-18.204884
1105.356312	-18.186125
1105.764015	-18.172737
1106.172019	-18.140540
1106.580324	-18.132639
1106.988931	-18.100741
1107.397840	-18.090347
1107.807051	-18.067181
1108.216564	-18.043518
1108.626380	-18.032366
1109.036500	-18.000755
1109.446923	-17.994810
1109.857649	-17.961861
1110.268680	-17.949049
1110.680016	-17.926276
1111.091657	-17.906709
1111.503602	-17.890083
1111.915854	-17.861389
1112.328411	-17.844600
1112.741275	-17.822814
1113.154445	-17.802519
1113.567922	-17.781520
1113.981706	-17.755293
1114.395798	-17.734147
1114.810198	-17.714395
1115.224906	-17.688532
1115.639923	-17.669258
1116.055249	-17.639184
1116.470884	-17.623736
1116.886829	-17.596956
1117.303084	-17.572848
1117.719650	-17.552147
1118.136526	-17.525016
1118.553713	-17.511169
1118.971212	-17.478217
1119.389022	-17.465807
1119.807145	-17.432141
1120.225580	-17.427263
1120.644328	-17.391123
1121.063389	-17.384559
1121.482763	-17.349985
1121.902452	-17.343604
1122.322454	-17.321104
1122.742771	-17.299418
1123.163404	-17.288867
1123.584351	-17.260705
1124.005614	-17.260238
1124.427193	-17.230424
1124.849089	-17.219262
1125.271301	-17.206497
1125.693830	-17.186001
1126.116677	-17.183947
1126.539842	-17.152853
1126.963324	-17.146847
1127.387126	-17.136906
1127.811246	-17.112017
1128.235685	-17.118017
1128.660444	-17.072642
1129.085522	-17.089138
1129.510922	-17.053724
1129.936641	-17.048981
1130.362682	-17.035296
1130.789044	-17.004476
1131.215728	-17.012275
1131.642734	-16.969392
1132.070063	-16.971114
1132.497714	-16.949550
1132.925689	-16.921662
1133.353987	-16.921927
1133.782610	-16.870568
1134.211556	-16.888634
1134.640827	-16.843694
1135.070424	-16.827430
1135.500345	-16.814852
1135.930593	-16.767419
1136.361166	-16.794554
1136.792067	-16.713840
1137.223294	-16.741862
1137.654848	-16.679946
1138.086730	-16.682336
1138.518940	-16.660057
1138.951479	-16.608172
1139.384346	-16.634177
1139.817543	-16.550913
1140.251069	-16.593364
1140.684925	-16.513056
1141.119111	-16.531615
1141.553628	-16.489739
1141.988475	-16.461530
1142.423655	-16.472451
1142.859166	-16.401804
1143.295009	-16.438019
1143.731185	-16.356188
1144.167694	-16.389386
1144.604536	-16.338023
1145.041711	-16.325114
1145.479221	-16.316617
1145.917065	-16.267434
1146.355245	-16.300102
1146.793759	-16.221670
1147.232609	-16.256245
1147.671795	-16.197267
1148.111317	-16.209384
1148.551177	-16.179796
1148.991373	-16.153391
1149.431907	-16.164051
1149.872779	-16.109036
1150.313989	-16.135620
1150.755538	-16.078218
1151.197426	-16.096965
1151.639653	-16.053847
1152.082220	-16.053443
1152.525128	-16.037058
1152.968376	-16.008148
1153.411966	-16.011295
1153.855897	-15.974043
1154.300169	-15.981814
1154.744784	-15.939138
1155.189742	-15.946451
1155.635042	-15.914057
1156.080687	-15.906506
1156.526674	-15.881865
1156.973007	-15.871278
1157.419683	-15.854174
1157.866705	-15.827513
1158.314072	-15.821582
1158.761786	-15.793014
1159.209845	-15.786911
1159.658251	-15.750363
1160.107004	-15.752175
1160.556104	-15.714009
1161.005553	-15.710727
1161.455349	-15.677556
1161.905494	-15.667160
1162.355989	-15.640968
1162.806832	-15.624966
1163.258026	-15.604378
1163.709570	-15.574868
1164.161464	-15.570179
1164.613710	-15.534202
1165.066307	-15.523636
1165.519256	-15.491902
1165.972558	-15.485740
1166.426212	-15.450249
1166.880219	-15.437073
1167.334580	-15.414603
1167.789295	-15.393230
1168.244364	-15.373290
1168.699788	-15.350856
1169.155567	-15.333174
1169.611702	-15.309462
1170.068193	-15.293849
1170.525041	-15.268747
1170.982245	-15.251864
1171.439807	-15.234606
1171.897726	-15.209996
1172.356004	-15.194520
1172.814640	-15.176357
1173.273635	-15.156263
1173.732989	-15.136734
1174.192703	-15.122862
1174.652778	-15.101997
1175.113213	-15.084103
1175.574009	-15.070570
1176.035167	-15.048433
1176.496687	-15.037258
1176.958569	-15.016039
1177.420814	-15.002187
1177.883422	-14.986196
1178.346394	-14.969735
1178.809730	-14.952775
1179.273430	-14.939521
1179.737496	-14.923632
1180.201927	-14.905261
1180.666723	-14.895503
1181.131886	-14.874403
1181.597416	-14.864809
1182.063312	-14.845886
1182.529576	-14.832079
1182.996209	-14.818894
1183.463209	-14.801556
1183.930579	-14.788236
1184.398317	-14.772219
1184.866426	-14.760249
1185.334904	-14.739508
1185.803754	-14.733300
1186.272974	-14.708277
1186.742566	-14.702851
1187.212529	-14.680505
1187.682865	-14.670155
1188.153574	-14.652474
1188.624656	-14.637837
1189.096112	-14.623926
1189.567942	-14.606576
1190.040147	-14.592493
1190.512726	-14.576303
1190.985681	-14.563092
1191.459012	-14.541874
1191.932720	-14.535049
1192.406804	-14.509117
1192.881265	-14.503100
1193.356104	-14.479743
1193.831322	-14.468653
1194.306918	-14.449868
1194.782893	-14.436170
1195.259248	-14.418624
1195.735982	-14.402799
1196.213097	-14.388008
1196.690593	-14.370419
1197.168471	-14.355735
1197.646730	-14.338215
1198.125371	-14.324600
1198.604395	-14.304977
1199.083803	-14.294506
1199.563594	-14.271522
1200.043769	-14.263153
1200.524329	-14.241496
1201.005273	-14.229547
1201.486604	-14.212090
1201.968320	-14.197404
1202.450422	-14.182100
1202.932912	-14.166670
1203.415789	-14.151745
1203.899054	-14.136330
1204.382707	-14.123027
1204.866748	-14.105878
1205.351179	-14.094710
1205.836000	-14.076303
1206.321211	-14.067419
1206.806812	-14.047238
1207.292805	-14.040504
1207.779189	-14.019148
1208.265965	-14.014146
1208.753134	-13.992817
1209.240696	-13.986709
1209.728651	-13.968499
1210.217000	-13.959315
1210.705744	-13.945445
1211.194883	-13.932322
1211.684417	-13.922202
1212.174347	-13.907158
1212.664673	-13.898987
1213.155396	-13.882545
1213.646516	-13.875531
1214.138034	-13.859060
1214.629951	-13.852086
1215.122266	-13.836215
1215.614980	-13.827945
1216.108095	-13.814218
1216.601609	-13.804049
1217.095524	-13.791647
1217.589841	-13.780397
1218.084559	-13.768529
1218.579679	-13.757372
1219.075202	-13.744749
1219.571128	-13.733872
1220.067458	-13.720808
1220.564191	-13.710228
1221.061330	-13.696389
1221.558874	-13.685747
1222.056823	-13.671868
1222.555178	-13.660597
1223.053940	-13.647467
1223.553109	-13.634097
1224.052686	-13.622629
1224.552671	-13.607742
1225.053065	-13.596728
1225.553867	-13.581544
1226.055079	-13.569558
1226.556702	-13.555470
1227.058735	-13.542260
1227.561179	-13.528506
1228.064035	-13.514713
1228.567303	-13.501333
1229.070983	-13.487215
1229.575077	-13.473651
1230.079585	-13.459436
1230.584506	-13.445713
1231.089842	-13.431948
1231.595594	-13.417570
1232.101761	-13.404263
1232.608345	-13.389304
1233.115345	-13.376702
1233.622762	-13.361262
1234.130597	-13.348672
1234.638851	-13.333434
1235.147523	-13.320662
1235.656615	-13.305683
1236.166126	-13.292479
1236.676058	-13.277848
1237.186411	-13.264297
1237.697185	-13.250068
1238.208381	-13.236033
1238.719999	-13.221705
1239.232040	-13.207990
1239.744505	-13.193082
1240.257394	-13.179637
1240.770708	-13.164117
1241.284446	-13.150759
1241.798610	-13.135147
1242.313201	-13.121210
1242.828218	-13.105680
1243.343662	-13.091028
1243.859534	-13.075702
1244.375834	-13.060598
1244.892563	-13.044693
1245.409721	-13.029474
1245.927309	-13.013302
1246.445327	-12.997606
1246.963777	-12.981063
1247.482657	-12.965077
1248.001970	-12.947974
1248.521716	-12.932221
1249.041894	-12.914359
1249.562506	-12.898237
1250.083553	-12.880318
1250.605034	-12.863865
1251.126950	-12.845826
1251.649302	-12.828770
1252.172091	-12.810919
1252.695316	-12.793447
1253.218979	-12.775819
1253.743079	-12.757706
1254.267619	-12.740544
1254.792597	-12.721894
1255.318015	-12.705072
1255.843874	-12.686654
1256.370173	-12.669177
1256.896913	-12.651418
1257.424095	-12.633999
1257.951720	-12.616349
1258.479787	-12.598865
1259.008298	-12.581823
1259.537254	-12.564271
1260.066654	-12.547719
1260.596499	-12.530097
1261.126790	-12.514342
1261.657527	-12.496451
1262.188711	-12.481128
1262.720342	-12.464169
1263.252422	-12.447983
1263.784950	-12.432450
1264.317928	-12.415865
1264.851355	-12.401205
1265.385232	-12.384475
1265.919560	-12.370171
1266.454340	-12.354314
1266.989572	-12.339646
1267.525256	-12.324571
1268.061394	-12.309596
1268.597985	-12.295983
1269.135031	-12.279882
1269.672531	-12.267679
1270.210487	-12.251509
1270.748899	-12.239217
1271.287768	-12.224100
1271.827094	-12.211360
1272.366877	-12.197428
1272.907119	-12.183754
1273.447820	-12.171234
1273.988981	-12.157524
1274.530601	-12.145064
1275.072683	-12.132175
1275.615226	-12.119219
1276.158230	-12.107880
1276.701697	-12.094244
1277.245627	-12.083852
1277.790021	-12.070360
1278.334879	-12.060238
1278.880202	-12.047792
1279.425991	-12.036883
1279.972245	-12.026069
1280.518966	-12.014828
1281.066155	-12.004393
1281.613811	-11.994243
1282.161936	-11.983129
1282.710529	-11.974491
1283.259593	-11.962890
1283.809126	-11.954949
1284.359131	-11.944128
1284.909607	-11.935423
1285.460555	-11.926383
1286.011976	-11.916665
1286.563870	-11.908741
1287.116237	-11.899423
1287.669080	-11.890565
1288.222397	-11.883189
1288.776191	-11.873191
1289.330460	-11.866723
1289.885207	-11.856799
1290.440431	-11.849905
1290.996133	-11.841519
1291.552314	-11.833304
1292.108975	-11.825775
1292.666115	-11.817711
1293.223737	-11.809909
1293.781839	-11.802460
1294.340424	-11.794358
1294.899491	-11.786945
1295.459041	-11.779421
1296.019075	-11.771862
1296.579593	-11.764390
1297.140597	-11.756972
1297.702086	-11.749897
1298.264061	-11.742382
1298.826524	-11.735420
1299.389474	-11.728403
1299.952912	-11.721279
1300.516839	-11.714518
1301.081255	-11.708181
1301.646162	-11.700660
1302.211559	-11.695303
1302.777448	-11.687993
1303.343829	-11.682283
1303.910702	-11.675775
1304.478069	-11.670211
1305.045930	-11.663603
1305.614285	-11.658684
1306.183136	-11.651986
1306.752483	-11.647587
1307.322326	-11.640937
1307.892666	-11.636490
1308.463504	-11.630643
1309.034841	-11.625760
1309.606677	-11.620236
1310.179012	-11.615657
1310.751849	-11.609833
1311.325186	-11.605813
1311.899025	-11.599756
1312.473366	-11.595778
1313.048211	-11.590097
1313.623559	-11.585644
1314.199412	-11.580521
1314.775770	-11.575723
1315.352634	-11.570645
1315.930004	-11.566040
1316.507881	-11.560807
1317.086266	-11.556205
1317.665159	-11.551360
1318.244562	-11.545645
1318.824474	-11.542093
1319.404897	-11.535674
1319.985831	-11.531772
1320.567276	-11.526093
1321.149234	-11.521569
1321.731706	-11.516034
1322.314691	-11.511602
1322.898190	-11.505622
1323.482205	-11.501593
1324.066736	-11.495171
1324.651783	-11.491100
1325.237347	-11.484952
1325.823430	-11.480207
1326.410031	-11.474023
1326.997151	-11.469763
1327.584791	-11.462638
1328.172952	-11.458468
1328.761634	-11.451727
1329.350839	-11.446252
1329.940566	-11.440470
1330.530817	-11.434225
1331.121592	-11.427879
1331.712891	-11.422103
1332.304716	-11.415406
1332.897068	-11.408655
1333.489946	-11.402822
1334.083352	-11.395045
1334.677287	-11.389063
1335.271750	-11.381557
1335.866744	-11.374889
1336.462268	-11.366959
1337.058323	-11.361006
1337.654910	-11.351741
1338.252029	-11.346201
1338.849682	-11.337149
1339.447869	-11.330193
1340.046591	-11.322042
1340.645848	-11.314865
1341.245641	-11.305723
1341.845972	-11.299247
1342.446840	-11.290064
1343.048246	-11.282410
1343.650191	-11.274356
1344.252677	-11.266147
1344.855702	-11.257480
1345.459269	-11.249995
1346.063379	-11.241312
1346.668030	-11.232504
1347.273226	-11.225514
1347.878965	-11.215559
1348.485250	-11.208431
1349.092080	-11.199336
1349.699456	-11.191535
1350.307380	-11.182250
1350.915851	-11.175352
1351.524871	-11.165436
1352.134441	-11.158215
1352.744560	-11.149551
1353.355231	-11.141291
1353.966453	-11.132952
1354.578227	-11.125596
1355.190555	-11.116072
1355.803436	-11.109657
1356.416872	-11.100687
1357.030863	-11.093158
1357.645411	-11.085330
1358.260515	-11.078018
1358.876177	-11.069987
1359.492397	-11.062665
1360.109176	-11.056109
1360.726516	-11.047358
1361.344416	-11.042223
1361.962877	-11.033668
1362.581901	-11.028135
1363.201487	-11.020468
1363.821637	-11.015408
1364.442352	-11.007522
1365.063632	-11.002940
1365.685478	-10.996254
1366.307891	-10.990719
1366.930871	-10.985337
1367.554420	-10.980300
1368.178538	-10.974627
1368.803226	-10.970339
1369.428485	-10.965672
1370.054315	-10.960921
1370.680717	-10.957156
1371.307693	-10.953066
1371.935242	-10.949539
1372.563366	-10.945572
1373.192065	-10.943533
1373.821341	-10.938920
1374.451193	-10.937827
1375.081623	-10.934101
1375.712632	-10.932721
1376.344221	-10.929713
1376.976389	-10.929132
1377.609139	-10.926380
1378.242470	-10.925568
1378.876384	-10.924582
1379.510881	-10.923312
1380.145963	-10.922671
1380.781629	-10.922494
1381.417881	-10.922129
1382.054720	-10.921752
1382.692147	-10.922747
1383.330161	-10.922314
1383.968765	-10.923528
1384.607959	-10.923721
1385.247743	-10.925796
1385.888119	-10.925174
1386.529087	-10.928376
1387.170648	-10.928534
1387.812804	-10.930737
1388.455554	-10.932259
1389.098899	-10.934692
1389.742842	-10.936238
1390.387381	-10.938688
1391.032519	-10.941757
1391.678256	-10.943495
1392.324592	-10.946740
1392.971529	-10.949673
1393.619068	-10.952923
1394.267208	-10.955135
1394.915952	-10.959871
1395.565300	-10.961944
1396.215253	-10.966058
1396.865812	-10.969035
1397.516977	-10.973538
1398.168749	-10.975843
1398.821130	-10.980579
1399.474120	-10.984129
1400.127719	-10.987750
1400.781930	-10.991795
1401.436752	-10.996111
1402.092186	-11.000123
1402.748234	-11.003778
1403.404897	-11.009111
1404.062174	-11.012510
1404.720067	-11.017262
1405.378577	-11.021264
1406.037705	-11.026576
1406.697451	-11.029386
1407.357817	-11.035078
1408.018803	-11.038638
1408.680410	-11.043216
1409.342639	-11.047012
1410.005492	-11.051953
1410.668968	-11.055835
1411.333068	-11.059860
1411.997795	-11.064976
1412.663147	-11.068902
1413.329127	-11.073269
1413.995736	-11.077893
1414.662973	-11.082908
1415.330840	-11.086148
1415.999339	-11.091841
1416.668469	-11.095225
1417.338232	-11.100385
1418.008628	-11.103027
1418.679659	-11.108713
1419.351325	-11.111332
1420.023628	-11.115105
1420.696568	-11.119318
1421.370145	-11.122241
1422.044362	-11.126094
1422.719219	-11.128994
1423.394717	-11.133714
1424.070856	-11.136028
1424.747638	-11.140489
1425.425064	-11.144153
1426.103134	-11.148201
1426.781850	-11.151160
1427.461212	-11.156202
1428.141221	-11.158953
1428.821878	-11.162773
1429.503185	-11.165549
1430.185141	-11.169076
1430.867749	-11.170851
1431.551008	-11.172612
1432.234920	-11.175250
1432.919486	-11.175219
1433.604707	-11.176793
1434.290583	-11.176918
1434.977116	-11.178346
1435.664307	-11.177683
1436.352156	-11.179245
1437.040664	-11.179951
1437.729833	-11.181387
1438.419663	-11.182310
1439.110156	-11.185584
1439.801312	-11.187176
1440.493132	-11.189969
1441.185617	-11.193233
1441.878768	-11.195936
1442.572586	-11.199119
1443.267072	-11.200358
1443.962228	-11.204244
1444.658053	-11.203554
1445.354549	-11.204926
1446.051717	-11.203721
1446.749558	-11.202665
1447.448073	-11.199297
1448.147263	-11.195816
1448.847128	-11.192044
1449.547671	-11.186599
1450.248891	-11.181639
1450.950789	-11.176893
1451.653368	-11.172761
1452.356627	-11.168234
1453.060568	-11.166831
1453.765192	-11.165120
1454.470500	-11.166590
1455.176492	-11.167763
1455.883170	-11.173457
1456.590534	-11.178697
1457.298586	-11.186191
1458.007327	-11.195474
1458.716758	-11.205076
1459.426880	-11.215911
1460.137693	-11.225707
1460.849199	-11.237006
1461.561398	-11.245943
1462.274293	-11.254352
1462.987883	-11.261065
1463.702170	-11.266463
1464.417155	-11.268669
1465.132838	-11.269824
1465.849222	-11.268169
1466.566306	-11.265697
1467.284093	-11.260193
1468.002582	-11.255222
1468.721775	-11.249435
1469.441674	-11.243798
1470.162278	-11.240172
1470.883590	-11.237909
1471.605609	-11.240110
1472.328338	-11.244408
1473.051777	-11.255352
1473.775928	-11.270149
1474.500790	-11.292009
1475.226367	-11.318785
1475.952657	-11.353416
1476.679663	-11.393172
1477.407386	-11.439462
1478.135826	-11.491278
1478.864985	-11.547903
1479.594863	-11.609069
1480.325463	-11.671579
1481.056784	-11.737854
1481.788828	-11.802264
1482.521597	-11.867008
1483.255090	-11.926963
1483.989309	-11.984141
1484.724256	-12.034232
1485.459931	-12.077544
1486.196336	-12.112671
1486.933471	-12.139514
1487.671337	-12.157909
1488.409937	-12.167831
1489.149270	-12.172000
1489.889337	-12.169940
1490.630141	-12.166164
1491.371682	-12.160419
1492.113961	-12.159166
1492.856979	-12.161759
1493.600738	-12.174263
1494.345238	-12.198163
1495.090481	-12.237476
1495.836467	-12.294451
1496.583198	-12.371152
1497.330675	-12.471298
1498.078899	-12.594908
1498.827872	-12.744513
1499.577593	-12.920143
1500.328065	-13.123679
1501.079289	-13.353436
1501.831265	-13.610486
1502.583995	-13.892268
1503.337480	-14.199249
1504.091721	-14.525797
1504.846719	-14.871289
1505.602475	-15.229342
1506.358991	-15.594562
1507.116268	-15.959582
1507.874306	-16.315085
1508.633108	-16.654345
1509.392673	-16.963938
1510.153004	-17.238815
1510.914101	-17.469639
1511.675965	-17.655238
1512.438599	-17.791444
1513.202002	-17.883475
1513.966176	-17.934179
1514.731122	-17.950902
1515.496842	-17.935136
1516.263336	-17.893106
1517.030607	-17.824029
1517.798654	-17.724465
1518.567479	-17.590822
1519.337083	-17.412807
1520.107468	-17.187175
1520.878634	-16.900777
1521.650584	-16.553994
1522.423317	-16.142804
1523.196836	-15.670995
1523.971141	-15.144781
1524.746233	-14.572446
1525.522115	-13.965616
1526.298786	-13.332435
1527.076249	-12.684982
1527.854504	-12.030365
1528.633553	-11.378130
1529.413397	-10.732974
1530.194037	-10.102990
1530.975474	-9.492009
1531.757709	-8.905122
1532.540745	-8.346556
1533.324581	-7.819673
1534.109220	-7.328883
1534.894662	-6.875660
1535.680909	-6.464339
1536.467961	-6.096168
1537.255821	-5.774191
1538.044489	-5.499388
1538.833967	-5.274014
1539.624256	-5.099102
1540.415357	-4.975683
1541.207271	-4.904660
1542.000000	-4.886605
1542.793545	-4.922395
1543.587907	-5.011571
1544.383087	-5.155442
1545.179088	-5.353292
1545.975909	-5.606444
1546.773552	-5.914200
1547.572019	-6.278175
1548.371311	-6.698953
1549.171428	-7.177839
1549.972373	-7.717211
1550.774147	-8.319506
1551.576751	-8.989417
1552.380185	-9.730959
1553.184453	-10.552038
1553.989554	-11.460562
1554.795490	-12.468558
1555.602263	-13.587790
1556.409873	-14.835288
1557.218322	-16.222946
1558.027612	-17.754894
1558.837743	-19.391170
1559.648717	-20.988858
1560.460536	-22.193931
1561.273200	-22.531996
1562.086710	-21.893594
1562.901069	-20.690971
1563.716278	-19.351645
1564.532337	-18.084674
1565.349249	-16.954918
1566.167014	-15.968952
1566.985634	-15.116012
1567.805111	-14.379295
1568.625444	-13.744309
1569.446637	-13.197227
1570.268690	-12.728508
1571.091605	-12.327118
1571.915382	-11.987085
1572.740024	-11.699811
1573.565532	-11.461755
1574.391907	-11.265639
1575.219150	-11.108226
1576.047262	-10.984631
1576.876246	-10.890897
1577.706103	-10.823612
1578.536833	-10.777997
1579.368439	-10.752167
1580.200922	-10.741014
1581.034282	-10.742645
1581.868522	-10.752566
1582.703643	-10.769217
1583.539646	-10.788626
1584.376532	-10.809171
1585.214304	-10.828101
1586.052962	-10.844270
1586.892508	-10.856089
1587.732943	-10.862437
1588.574269	-10.863864
1589.416487	-10.859342
1590.259599	-10.850842
1591.103605	-10.837697
1591.948508	-10.822891
1592.794309	-10.806393
1593.641009	-10.790803
1594.488609	-10.777008
1595.337112	-10.766948
1596.186518	-10.761863
1597.036829	-10.762685
1597.888047	-10.770820
1598.740172	-10.786451
1599.593207	-10.810742
1600.447153	-10.842954
1601.302010	-10.884258
1602.157782	-10.933344
1603.014469	-10.990979
1603.872072	-11.055513
1604.730593	-11.127498
1605.590034	-11.205460
1606.450397	-11.289190
1607.311681	-11.377722
1608.173890	-11.470476
1609.037024	-11.566966
1609.901085	-11.666073
1610.766075	-11.767824
1611.631995	-11.870902
1612.498846	-11.975720
1613.366630	-12.080499
1614.235349	-12.186039
1615.105004	-12.290448
1615.975596	-12.394603
1616.847128	-12.496599
1617.719600	-12.597085
1618.593014	-12.694935
1619.467372	-12.790140
1620.342675	-12.882419
1621.218924	-12.971298
1622.096122	-13.057545
1622.974270	-13.140310
1623.853369	-13.220902
1624.733420	-13.298607
1625.614427	-13.375134
1626.496389	-13.449697
1627.379308	-13.524100
1628.263187	-13.597606
1629.148026	-13.672061
1630.033828	-13.746568
1630.920593	-13.822508
1631.808324	-13.899431
1632.697022	-13.977880
1633.586688	-14.057967
1634.477324	-14.139074
1635.368932	-14.222206
1636.261514	-14.305855
1637.155070	-14.391233
1638.049602	-14.476512
1638.945113	-14.562889
1639.841603	-14.648675
1640.739075	-14.734426
1641.637529	-14.818898
1642.536968	-14.902417
1643.437393	-14.983922
1644.338806	-15.063424
1645.241209	-15.140247
1646.144602	-15.214443
1647.048988	-15.285692
1647.954368	-15.353570
1648.860744	-15.418644
1649.768118	-15.480169
1650.676491	-15.539313
1651.585865	-15.594799
1652.496241	-15.648374
1653.407621	-15.698963
1654.320008	-15.747865
1655.233401	-15.794394
1656.147804	-15.839402
1657.063218	-15.882862
1657.979645	-15.924790
1658.897085	-15.965349
1659.815542	-16.004387
1660.735016	-16.042110
1661.655509	-16.078074
1662.577023	-16.112267
1663.499560	-16.144378
1664.423121	-16.174461
1665.347709	-16.201751
1666.273324	-16.226630
1667.199969	-16.248200
1668.127645	-16.267131
1669.056353	-16.282348
1669.986097	-16.294572
1670.916877	-16.303226
1671.848695	-16.308706
1672.781553	-16.310877
1673.715452	-16.309719
1674.650395	-16.305736
1675.586383	-16.298707
1676.523418	-16.289017
1677.461501	-16.276639
1678.400635	-16.261871
1679.340821	-16.244836
1680.282061	-16.225524
1681.224357	-16.204113
1682.167710	-16.180740
1683.112122	-16.155250
1684.057595	-16.127990
1685.004132	-16.098464
1685.951732	-16.067444
1686.900400	-16.034167
1687.850135	-15.999402
1688.800940	-15.962584
1689.752818	-15.924368
1690.705768	-15.884447
1691.659795	-15.843069
1692.614898	-15.800331
1693.571081	-15.756418
1694.528345	-15.711421
1695.486691	-15.665392
1696.446122	-15.618511
1697.406640	-15.570987
1698.368245	-15.522791
1699.330941	-15.474005
1700.294729	-15.424865
1701.259611	-15.375250
1702.225588	-15.325538
1703.192664	-15.275174
1704.160838	-15.224956
1705.130114	-15.174172
1706.100493	-15.123554
1707.071977	-15.072366
1708.044568	-15.021413
1709.018268	-14.970155
1709.993079	-14.919045
1710.969003	-14.867807
1711.946041	-14.816819
1712.924196	-14.765917
1713.903469	-14.715236
1714.883862	-14.664700
1715.865378	-14.614512
1716.848017	-14.564571
1717.831783	-14.514885
1718.816677	-14.465564
1719.802701	-14.416553
1720.789857	-14.368092
1721.778147	-14.319829
1722.767573	-14.272310
1723.758136	-14.225077
1724.749840	-14.178714
1725.742685	-14.132631
1726.736673	-14.087485
1727.731808	-14.042793
1728.728090	-13.998980
1729.725521	-13.955675
1730.724105	-13.913279
1731.723842	-13.871550
1732.724735	-13.830633
1733.726785	-13.790408
1734.729995	-13.750969
1735.734366	-13.712209
1736.739902	-13.674103
1737.746603	-13.636569
1738.754472	-13.599671
1739.763510	-13.563287
1740.773721	-13.527354
1741.785105	-13.491964
1742.797665	-13.456971
1743.811403	-13.422513
1744.826321	-13.388308
1745.842422	-13.354643
1746.859706	-13.321140
1747.878177	-13.288060
1748.897835	-13.255009
1749.918685	-13.222310
1750.940726	-13.189596
1751.963963	-13.157130
1752.988395	-13.124628
1754.014027	-13.092384
1755.040860	-13.060115
1756.068895	-13.028073
1757.098135	-12.996001
1758.128583	-12.964227
1759.160240	-12.932480
1760.193109	-12.901052
1761.227191	-12.869715
1762.262488	-12.838786
1763.299004	-12.808094
1764.336740	-12.777790
1765.375697	-12.747833
1766.415880	-12.718375
1767.457288	-12.689408
1768.499926	-12.660987
1769.543794	-12.633141
1770.588895	-12.605974
1771.635231	-12.579473
1772.682805	-12.553569
1773.731619	-12.528304
1774.781674	-12.503676
1775.832973	-12.479641
1776.885519	-12.456083
1777.939312	-12.433078
1778.994357	-12.410612
1780.050654	-12.388675
1781.108207	-12.367168
1782.167017	-12.346251
1783.227087	-12.325825
1784.288418	-12.305978
1785.351013	-12.286572
1786.414875	-12.267807
1787.480006	-12.249485
1788.546407	-12.231691
1789.614082	-12.214246
1790.683032	-12.197270
1791.753259	-12.180547
1792.824767	-12.164157
1793.897557	-12.147979
1794.971632	-12.132126
1796.046994	-12.116449
1797.123645	-12.101072
1798.201588	-12.085858
1799.280824	-12.070906
1800.361357	-12.056039
1801.443188	-12.041383
1802.526320	-12.026780
1803.610756	-12.012361
1804.696497	-11.998009
1805.783546	-11.983875
1806.871906	-11.969882
1807.961578	-11.956148
1809.052565	-11.942604
1810.144870	-11.929369
1811.238494	-11.916367
1812.333441	-11.903672
1813.429713	-11.891257
1814.527311	-11.879173
1815.626239	-11.867364
1816.726499	-11.855867
1817.828094	-11.844634
1818.931025	-11.833701
1820.035295	-11.822977
1821.140906	-11.812491
1822.247862	-11.802179
1823.356165	-11.792086
1824.465816	-11.782145
1825.576819	-11.772394
1826.689175	-11.762842
1827.802888	-11.753509
1828.917960	-11.744371
1830.034394	-11.735428
1831.152191	-11.726667
1832.271354	-11.718040
1833.391887	-11.709515
1834.513790	-11.701092
1835.637068	-11.692805
1836.761722	-11.684672
1837.887755	-11.676730
1839.015169	-11.669054
1840.143968	-11.661666
1841.274153	-11.654569
1842.405727	-11.647716
1843.538693	-11.641106
1844.673053	-11.634651
1845.808810	-11.628323
1846.945966	-11.622105
1848.084525	-11.616054
1849.224488	-11.610204
1850.365858	-11.604622
1851.508638	-11.599374
1852.652831	-11.594510
1853.798438	-11.590031
1854.945463	-11.585905
1856.093909	-11.582122
1857.243777	-11.578637
1858.395071	-11.575369
1859.547794	-11.572321
1860.701947	-11.569504
1861.857533	-11.566949
1863.014556	-11.564687
1864.173018	-11.562777
1865.332922	-11.561220
1866.494270	-11.560011
1867.657065	-11.559125
1868.821309	-11.558542
1869.987006	-11.558181
1871.154158	-11.558012
1872.322768	-11.557968
1873.492839	-11.558007
1874.664373	-11.558092
1875.837373	-11.558245
1877.011841	-11.558500
1878.187782	-11.558950
1879.365197	-11.559636
1880.544089	-11.560641
1881.724460	-11.561953
1882.906315	-11.563548
1884.089655	-11.565339
1885.274483	-11.567241
1886.460803	-11.569166
1887.648616	-11.571060
1888.837927	-11.572894
1890.028736	-11.574725
1891.221049	-11.576583
1892.414866	-11.578541
1893.610192	-11.580606
1894.807028	-11.582774
1896.005379	-11.584971
1897.205246	-11.587125
1898.406633	-11.589138
1899.609542	-11.590964
1900.813977	-11.592563
1902.019940	-11.594004
1903.227434	-11.595397
1904.436462	-11.596891
1905.647028	-11.598614
1906.859133	-11.600709
1908.072781	-11.603199
1909.287976	-11.606096
1910.504719	-11.609348
1911.723013	-11.612893
1912.942863	-11.616682
1914.164270	-11.620699
1915.387238	-11.624967
1916.611770	-11.629542
1917.837868	-11.634496
1919.065536	-11.639879
1920.294777	-11.645715
1921.525594	-11.651967
1922.757989	-11.658564
1923.991967	-11.665395
1925.227529	-11.672378
1926.464679	-11.679426
1927.703420	-11.686552
1928.943755	-11.693770
1930.185688	-11.701166
1931.429221	-11.708818
1932.674356	-11.716825
1933.921099	-11.725214
1935.169451	-11.733998
1936.419415	-11.743138
1937.670996	-11.752579
1938.924195	-11.762248
1940.179017	-11.772110
1941.435463	-11.782140
1942.693538	-11.792345
1943.953245	-11.802771
1945.214586	-11.813481
1946.477566	-11.824536
1947.742186	-11.835954
1949.008451	-11.847690
1950.276363	-11.859626
1951.545926	-11.871632
1952.817143	-11.883562
1954.090017	-11.895370
1955.364551	-11.907078
1956.640749	-11.918760
1957.918615	-11.930493
1959.198150	-11.942336
1960.479359	-11.954271
1961.762244	-11.966261
1963.046810	-11.978236
1964.333059	-11.990156
1965.620995	-12.002006
1966.910621	-12.013806
1968.201940	-12.025605
1969.494956	-12.037439
1970.789672	-12.049354
1972.086091	-12.061370
1973.384217	-12.073501
1974.684053	-12.085762
1975.985602	-12.098192
1977.288869	-12.110824
1978.593855	-12.123705
1979.900566	-12.136852
1981.209003	-12.150242
1982.519171	-12.163877
1983.831073	-12.177776
1985.144712	-12.192007
1986.460093	-12.206647
1987.777217	-12.221767
1989.096089	-12.237356
1990.416713	-12.253335
1991.739092	-12.269649
1993.063228	-12.286328
1994.389127	-12.303429
1995.716791	-12.321038
1997.046223	-12.339216
1998.377428	-12.357963
1999.710409	-12.377221
2001.045169	-12.396929
2002.381713	-12.417060
2003.720043	-12.437613
2005.060163	-12.458618
2006.402077	-12.480119
2007.745788	-12.502085
2009.091301	-12.524442
2010.438618	-12.547098
2011.787743	-12.569971
2013.138680	-12.593093
2014.491433	-12.616582
2015.846005	-12.640580
2017.202399	-12.665183
2018.560621	-12.690399
2019.920673	-12.716127
2021.282558	-12.742230
2022.646281	-12.768601
2024.011846	-12.795203
2025.379256	-12.822031
2026.748515	-12.849035
2028.119626	-12.876181
2029.492594	-12.903388
2030.867422	-12.930618
2032.244114	-12.957919
2033.622673	-12.985307
2035.003104	-13.012773
2036.385411	-13.040257
2037.769597	-13.067710
2039.155665	-13.095149
2040.543621	-13.122687
2041.933467	-13.150448
2043.325208	-13.178514
2044.718847	-13.206876
2046.114389	-13.235418
2047.511837	-13.264080
2048.911195	-13.292833
2050.312467	-13.321748
2051.715657	-13.351000
2053.120769	-13.380751
2054.527807	-13.411095
2055.936775	-13.441996
2057.347677	-13.473394
2058.760516	-13.505302
2060.175297	-13.537843
2061.592025	-13.571253
2063.010701	-13.605739
2064.431332	-13.641356
2065.853921	-13.677968
2067.278472	-13.715311
2068.704988	-13.753182
2070.133475	-13.791454
2071.563936	-13.830170
2072.996375	-13.869513
2074.430796	-13.909629
2075.867204	-13.950595
2077.305603	-13.992350
2078.745996	-14.034734
2080.188389	-14.077605
2081.632784	-14.120825
2083.079187	-14.164291
2084.527601	-14.208006
2085.978030	-14.252087
2087.430480	-14.296792
2088.884954	-14.342397
2090.341455	-14.388961
2091.799990	-14.436242
2093.260561	-14.483803
2094.723173	-14.531244
2096.187831	-14.578465
2097.654538	-14.625679
2099.123300	-14.673223
2100.594119	-14.721315
2102.067001	-14.769817
2103.541950	-14.818322
2105.018971	-14.866395
2106.498067	-14.913790
2107.979243	-14.960652
2109.462503	-15.007409
2110.947853	-15.054462
2112.435295	-15.101983
2113.924836	-15.149747
2115.416478	-15.197226
2116.910227	-15.243941
2118.406087	-15.289768
2119.904063	-15.335049
2121.404158	-15.380442
2122.906378	-15.426543
2124.410727	-15.473579
2125.917210	-15.521411
2127.425831	-15.569735
2128.936594	-15.618329
2130.449505	-15.667245
2131.964567	-15.716798
2133.481786	-15.767436
2135.001166	-15.819560
2136.522711	-15.873327
2138.046427	-15.928493
2139.572317	-15.984557
2141.100388	-16.041255
2142.630642	-16.098877
2144.163085	-16.158123
2145.697722	-16.219588
2147.234558	-16.283264
2148.773596	-16.348449
2150.314842	-16.414221
2151.858301	-16.480083
2153.403977	-16.546179
2154.951875	-16.613084
2156.502000	-16.681334
2158.054357	-16.750994
2159.608950	-16.821659
2161.165785	-16.892795
2162.724866	-16.964017
2164.286198	-17.035151
2165.849786	-17.106193
2167.415635	-17.177253
2168.983749	-17.248585
2170.554134	-17.320470
2172.126795	-17.392979
2173.701737	-17.465875
2175.278964	-17.538709
2176.858481	-17.611163
2178.440294	-17.683361
2180.024408	-17.755637
2181.610827	-17.828200
2183.199557	-17.901048
2184.790602	-17.973937
2186.383968	-18.046570
2187.979660	-18.118811
2189.577683	-18.190640
2191.178041	-18.262151
2192.780741	-18.333439
2194.385787	-18.404422
2195.993185	-18.474954
2197.602939	-18.544865
2199.215054	-18.607831
