# 2022-03-22_01.58.26
# shape = sech2
# FWHM_ps = 0.1
# carrier_nm = 1542
# frep_MHz = 12126
# pow_mW = 8000
# GDD = 0.0
# propa_len = 0.16
# untap_len = 0.01
# taper_len = 0.1
# waist_len = 0.02
# uptap_len = 0.02
# untap_scale = 1.0
# waist_scale = 0.1
# workingDir = NL_20110305_12 (Spirou)
# axis = slow
# window_ps = 10.0
# steps = 200
# points = 21700
# 
# wavelength [nm]	 power spectral density [dB]
600.043425	-84.291400
600.163550	-85.663799
600.283723	-87.158446
600.403943	-87.161648
600.524212	-88.991812
600.644529	-90.760653
600.764895	-91.501617
600.885308	-96.283491
601.005770	-95.335491
601.126280	-100.522665
601.246839	-98.900139
601.367446	-95.244941
601.488101	-96.177738
601.608804	-94.877974
601.729557	-98.152193
601.850357	-98.855480
601.971206	-92.040550
602.092104	-94.147550
602.213050	-95.970871
602.334045	-92.628430
602.455089	-94.771822
602.576181	-96.400725
602.697322	-96.587420
602.818511	-104.104132
602.939749	-102.340016
603.061036	-98.541495
603.182372	-99.239663
603.303757	-95.714899
603.425191	-97.657092
603.546673	-104.277842
603.668204	-97.489593
603.789785	-95.751277
603.911414	-95.030771
604.033092	-89.263366
604.154820	-89.469859
604.276596	-88.889659
604.398422	-86.933341
604.520297	-88.548112
604.642220	-87.700267
604.764193	-88.077364
604.886216	-88.425968
605.008287	-87.467891
605.130408	-88.453916
605.252578	-87.236651
605.374798	-89.565027
605.497066	-90.155113
605.619385	-89.008468
605.741752	-90.992013
605.864169	-88.815408
605.986636	-90.265607
606.109152	-89.913532
606.231718	-89.325864
606.354333	-88.430978
606.476998	-87.400878
606.599712	-87.998325
606.722476	-86.510319
606.845290	-87.931357
606.968154	-89.468644
607.091067	-89.082217
607.214030	-90.666461
607.337043	-91.695189
607.460106	-92.685802
607.583219	-94.998403
607.706381	-97.791292
607.829594	-97.376617
607.952856	-102.114219
608.076169	-92.967918
608.199531	-94.448516
608.322944	-92.603278
608.446407	-90.886003
608.569920	-91.806357
608.693483	-89.196080
608.817096	-88.347679
608.940759	-86.213769
609.064473	-87.473376
609.188237	-85.674677
609.312051	-86.213876
609.435916	-86.115848
609.559831	-84.695706
609.683796	-86.798842
609.807812	-85.053157
609.931878	-87.195103
610.055995	-88.011911
610.180162	-87.513754
610.304380	-88.329629
610.428648	-89.146977
610.552967	-89.721301
610.677337	-92.293294
610.801757	-93.289192
610.926228	-96.766504
611.050750	-97.537087
611.175323	-109.527045
611.299946	-101.691711
611.424620	-96.234030
611.549345	-93.600257
611.674121	-92.225576
611.798948	-91.104732
611.923826	-90.530251
612.048755	-91.531657
612.173734	-91.257791
612.298765	-95.787756
612.423847	-94.426344
612.548980	-96.336123
612.674165	-98.310662
612.799400	-94.839344
612.924687	-94.454797
613.050025	-93.662502
613.175414	-96.054805
613.300854	-93.951178
613.426346	-99.215417
613.551889	-102.300640
613.677484	-99.369351
613.803130	-104.640670
613.928827	-99.016270
614.054576	-116.622884
614.180377	-102.008850
614.306229	-96.812598
614.432132	-97.087501
614.558087	-96.966407
614.684094	-91.530091
614.810153	-92.723037
614.936263	-90.658116
615.062425	-87.712665
615.188639	-90.121954
615.314904	-88.417260
615.441222	-89.324301
615.567591	-88.436848
615.694012	-89.024182
615.820486	-90.643700
615.947011	-89.471133
616.073588	-90.528315
616.200217	-90.562571
616.326898	-90.032906
616.453632	-88.052106
616.580417	-88.592175
616.707255	-87.660284
616.834144	-87.263517
616.961086	-87.328937
617.088081	-87.415454
617.215127	-87.324251
617.342226	-86.987056
617.469378	-88.569908
617.596581	-91.623658
617.723837	-93.688838
617.851146	-102.379370
617.978507	-103.529370
618.105920	-100.423285
618.233386	-91.312130
618.360905	-87.212803
618.488476	-88.530722
618.616100	-84.983891
618.743777	-85.140427
618.871506	-84.096281
618.999288	-82.528055
619.127123	-83.127498
619.255011	-81.739122
619.382951	-82.281076
619.510945	-83.228491
619.638991	-82.251720
619.767090	-83.769644
619.895243	-84.616192
620.023448	-84.877683
620.151706	-86.258315
620.280017	-86.473295
620.408382	-86.285629
620.536799	-85.213862
620.665270	-87.476247
620.793794	-87.030478
620.922371	-88.670840
621.051002	-89.493731
621.179686	-90.486020
621.308423	-93.717925
621.437213	-93.520891
621.566057	-94.204674
621.694954	-95.004132
621.823905	-95.789685
621.952909	-97.671986
622.081967	-96.740039
622.211079	-97.101610
622.340244	-93.665871
622.469462	-94.005703
622.598735	-88.917856
622.728061	-92.794875
622.857441	-91.313770
622.986874	-93.135999
623.116361	-88.959411
623.245903	-91.651833
623.375498	-88.128029
623.505147	-86.753074
623.634850	-87.965660
623.764606	-86.045138
623.894417	-85.368945
624.024282	-88.957849
624.154201	-85.270419
624.284174	-87.232791
624.414202	-86.830268
624.544283	-85.914934
624.674419	-87.699649
624.804609	-85.676593
624.934853	-83.716818
625.065151	-84.628355
625.195504	-81.832612
625.325911	-81.971424
625.456373	-80.800761
625.586889	-82.137694
625.717460	-80.566309
625.848085	-82.465035
625.978764	-82.670931
626.109498	-82.082164
626.240287	-82.449301
626.371131	-84.470949
626.502029	-82.962116
626.632982	-84.393631
626.763989	-82.115795
626.895052	-83.318865
627.026169	-79.936632
627.157341	-83.957205
627.288568	-80.651277
627.419850	-85.564081
627.551187	-83.359206
627.682579	-88.936550
627.814026	-83.516517
627.945528	-85.645431
628.077085	-82.472362
628.208697	-83.195428
628.340364	-81.435108
628.472087	-83.000024
628.603865	-79.502100
628.735698	-84.573476
628.867586	-81.544140
628.999530	-84.896765
629.131529	-81.994237
629.263584	-87.099663
629.395694	-83.465764
629.527859	-83.577474
629.660080	-81.933973
629.792357	-81.034660
629.924689	-81.011923
630.057077	-79.792952
630.189520	-78.743954
630.322019	-78.596167
630.454574	-78.994972
630.587184	-77.749717
630.719851	-78.131779
630.852573	-77.546636
630.985351	-78.303286
631.118185	-77.116992
631.251075	-78.259854
631.384021	-76.226007
631.517023	-77.876419
631.650081	-77.434982
631.783195	-77.925441
631.916365	-78.817402
632.049592	-79.700669
632.182874	-81.602441
632.316213	-82.849882
632.449608	-85.712747
632.583059	-84.734077
632.716567	-89.764885
632.850131	-94.309196
632.983751	-89.720040
633.117428	-87.223962
633.251161	-82.462061
633.384951	-81.674127
633.518797	-82.788895
633.652700	-82.268408
633.786660	-80.693952
633.920676	-82.026389
634.054749	-80.312368
634.188879	-81.460590
634.323065	-80.635722
634.457308	-80.475902
634.591608	-78.673277
634.725965	-79.745818
634.860379	-79.704425
634.994850	-78.045185
635.129377	-79.584059
635.263962	-79.588585
635.398604	-81.094003
635.533303	-81.272769
635.668058	-83.999700
635.802872	-83.541431
635.937742	-87.322512
636.072669	-94.738558
636.207654	-87.787099
636.342696	-88.311744
636.477796	-84.985142
636.612953	-81.970954
636.748167	-84.691155
636.883439	-83.073411
637.018768	-82.629965
637.154155	-83.763780
637.289599	-80.450107
637.425101	-81.402613
637.560660	-80.847746
637.696277	-80.821892
637.831952	-80.861529
637.967685	-80.920182
638.103475	-80.729967
638.239324	-79.347953
638.375230	-80.612117
638.511194	-79.074874
638.647215	-79.798874
638.783295	-80.057685
638.919433	-79.542047
639.055629	-79.840422
639.191883	-81.544065
639.328195	-85.020586
639.464565	-83.530368
639.600994	-84.098874
639.737481	-85.645925
639.874025	-86.050899
640.010629	-88.641156
640.147290	-95.336798
640.284010	-95.105582
640.420789	-95.321257
640.557625	-91.537117
640.694521	-90.128159
640.831474	-86.227622
640.968487	-81.269993
641.105558	-79.921225
641.242687	-78.627056
641.379876	-77.798274
641.517123	-76.343747
641.654429	-77.759085
641.791793	-76.028635
641.929216	-76.355255
642.066699	-77.002070
642.204240	-76.265141
642.341840	-76.487579
642.479499	-76.611662
642.617217	-76.395060
642.754994	-75.253887
642.892830	-76.420328
643.030726	-76.198427
643.168680	-75.191375
643.306694	-75.561366
643.444767	-75.705256
643.582899	-75.816052
643.721091	-76.249077
643.859342	-77.057730
643.997652	-75.643620
644.136022	-75.457024
644.274451	-75.712014
644.412940	-76.262726
644.551488	-75.138023
644.690096	-75.447282
644.828763	-75.291420
644.967490	-75.185855
645.106277	-77.874316
645.245124	-79.777668
645.384030	-79.643484
645.522997	-80.289637
645.662023	-83.252218
645.801109	-84.568216
645.940255	-86.573641
646.079460	-90.758896
646.218726	-88.104535
646.358052	-92.376562
646.497438	-96.268167
646.636884	-98.420592
646.776391	-96.667556
646.915957	-96.391778
647.055584	-101.655319
647.195271	-88.059592
647.335019	-83.916603
647.474826	-84.265579
647.614695	-84.116230
647.754623	-82.196645
647.894612	-84.015486
648.034662	-81.419224
648.174772	-83.767841
648.314943	-86.064447
648.455174	-83.007988
648.595466	-85.013111
648.735819	-84.093455
648.876233	-85.154943
649.016707	-85.288806
649.157242	-84.063887
649.297838	-82.330159
649.438495	-82.683954
649.579213	-87.979166
649.719992	-82.784658
649.860832	-83.639086
650.001733	-86.180553
650.142695	-89.982824
650.283718	-84.605945
650.424803	-87.437574
650.565949	-92.528690
650.707156	-89.407212
650.848424	-87.006209
650.989754	-104.216258
651.131145	-97.331713
651.272597	-99.779603
651.414111	-84.088749
651.555687	-84.215379
651.697324	-83.600439
651.839022	-80.531612
651.980782	-78.559339
652.122604	-79.507538
652.264488	-77.430884
652.406433	-76.454578
652.548441	-76.762800
652.690510	-74.668322
652.832640	-73.845041
652.974833	-73.461978
653.117088	-71.525028
653.259405	-71.815163
653.401784	-71.110171
653.544224	-71.339971
653.686727	-71.045409
653.829293	-72.103028
653.971920	-72.871750
654.114609	-74.237078
654.257361	-76.647413
654.400175	-74.957022
654.543052	-76.399631
654.685991	-75.743955
654.828992	-74.298252
654.972056	-74.281656
655.115183	-73.529413
655.258372	-73.088941
655.401623	-72.803478
655.544937	-73.808494
655.688314	-72.999115
655.831754	-74.827263
655.975256	-77.096670
656.118822	-79.830531
656.262450	-85.472721
656.406141	-80.876840
656.549894	-80.419059
656.693711	-81.256452
656.837591	-79.508267
656.981534	-80.737318
657.125540	-81.325666
657.269610	-81.027526
657.413742	-80.242326
657.557938	-81.941812
657.702196	-82.171428
657.846519	-82.812668
657.990904	-92.192703
658.135353	-86.004030
658.279866	-86.355235
658.424441	-83.593061
658.569081	-84.617959
658.713784	-81.336661
658.858550	-80.313379
659.003381	-80.208133
659.148274	-78.314884
659.293232	-78.562412
659.438253	-77.503011
659.583339	-79.704349
659.728488	-78.817263
659.873701	-80.255753
660.018978	-80.346080
660.164318	-77.149137
660.309723	-77.215010
660.455192	-75.429865
660.600725	-76.384896
660.746323	-77.103762
660.891984	-77.645775
661.037710	-80.491462
661.183500	-80.005127
661.329354	-82.376683
661.475272	-82.840900
661.621255	-91.010808
661.767303	-89.707251
661.913415	-86.508234
662.059591	-84.687885
662.205833	-80.236061
662.352138	-78.228843
662.498509	-76.053851
662.644944	-77.292177
662.791443	-76.678779
662.938008	-79.388200
663.084638	-78.589875
663.231332	-79.392529
663.378091	-76.134539
663.524915	-74.505218
663.671804	-74.571483
663.818759	-75.225578
663.965778	-77.153951
664.112863	-78.625322
664.260012	-79.442889
664.407227	-81.886332
664.554507	-79.013812
664.701853	-79.717830
664.849264	-80.572282
664.996740	-80.225698
665.144282	-80.906270
665.291889	-79.243855
665.439561	-76.114072
665.587300	-74.511627
665.735103	-74.697454
665.882973	-74.887278
666.030908	-75.691498
666.178909	-81.003158
666.326976	-82.171805
666.475109	-86.157968
666.623307	-82.563416
666.771571	-80.540434
666.919902	-78.434240
667.068298	-81.761595
667.216761	-81.671377
667.365289	-79.570801
667.513884	-78.974253
667.662545	-75.280669
667.811272	-76.101239
667.960065	-76.823897
668.108925	-76.594048
668.257851	-78.675282
668.406843	-87.960715
668.555902	-94.231721
668.705027	-81.242879
668.854219	-76.059029
669.003478	-79.718079
669.152803	-76.634485
669.302195	-77.516411
669.451653	-83.467640
669.601179	-76.069309
669.750771	-75.274487
669.900430	-76.062280
670.050156	-73.116789
670.199949	-74.746074
670.349808	-77.045344
670.499735	-76.569802
670.649729	-76.914525
670.799790	-72.914330
670.949918	-71.446850
671.100114	-70.089281
671.250377	-69.276283
671.400707	-70.943327
671.551104	-71.436389
671.701569	-73.393757
671.852101	-78.157170
672.002700	-74.617858
672.153368	-74.834843
672.304102	-73.001062
672.454905	-72.308857
672.605775	-74.004212
672.756713	-75.519048
672.907718	-77.357223
673.058791	-83.434911
673.209933	-79.113185
673.361142	-75.976849
673.512419	-73.588695
673.663764	-75.441003
673.815177	-73.867679
673.966658	-77.578893
674.118207	-79.635130
674.269825	-82.925979
674.421510	-94.928489
674.573264	-91.946429
674.725086	-93.113531
674.876977	-80.460009
675.028936	-82.659263
675.180963	-85.979004
675.333059	-93.558390
675.485224	-78.856801
675.637457	-79.139369
675.789758	-84.074054
675.942129	-79.399199
676.094568	-82.391288
676.247075	-82.815564
676.399652	-78.134993
676.552298	-81.554425
676.705012	-77.831618
676.857795	-82.049927
677.010648	-86.640947
677.163569	-98.175683
677.316560	-80.513778
677.469619	-76.532646
677.622748	-79.048180
677.775946	-79.692191
677.929214	-78.319276
678.082551	-81.717717
678.235957	-81.191685
678.389432	-76.751759
678.542977	-75.315997
678.696592	-74.856200
678.850276	-73.998051
679.004030	-75.814564
679.157853	-83.202631
679.311746	-93.286644
679.465709	-83.922486
679.619742	-74.920570
679.773844	-72.747468
679.928017	-74.489945
680.082259	-74.846277
680.236571	-75.678918
680.390954	-80.540281
680.545406	-73.597281
680.699929	-74.889755
680.854522	-74.404440
681.009185	-74.389856
681.163918	-76.354746
681.318722	-80.389941
681.473596	-79.787967
681.628540	-76.365545
681.783555	-78.038284
681.938641	-83.034250
682.093797	-78.252819
682.249023	-82.410727
682.404321	-82.438606
682.559689	-77.810888
682.715128	-78.527368
682.870637	-73.655973
683.026218	-73.337057
683.181869	-80.775764
683.337591	-87.981401
683.493385	-79.962891
683.649249	-81.590650
683.805185	-75.989418
683.961191	-75.840588
684.117269	-76.641797
684.273418	-79.181429
684.429639	-82.982202
684.585930	-75.759988
684.742294	-72.409813
684.898728	-74.602359
685.055234	-75.718050
685.211812	-74.192082
685.368461	-76.260274
685.525182	-79.901236
685.681975	-81.956929
685.838839	-84.472883
685.995775	-77.262855
686.152783	-77.305781
686.309863	-83.510685
686.467014	-80.962437
686.624238	-76.588587
686.781534	-73.430556
686.938902	-70.648356
687.096342	-70.029938
687.253854	-70.591248
687.411438	-74.848046
687.569095	-73.864459
687.726824	-72.959651
687.884626	-76.463584
688.042499	-78.070933
688.200446	-81.307633
688.358465	-75.949849
688.516556	-74.685928
688.674720	-73.497551
688.832957	-73.115649
688.991266	-73.940928
689.149649	-73.680600
689.308104	-80.206512
689.466632	-85.447895
689.625233	-78.562244
689.783906	-77.277524
689.942653	-71.570770
690.101473	-73.204718
690.260367	-79.793198
690.419333	-78.786861
690.578372	-76.728617
690.737485	-92.311096
690.896672	-79.412385
691.055931	-76.552512
691.215264	-76.351457
691.374671	-89.813934
691.534151	-78.523744
691.693704	-75.996306
691.853332	-78.014421
692.013033	-75.813507
692.172807	-74.697461
692.332656	-75.484170
692.492578	-78.333961
692.652575	-80.693752
692.812645	-75.595146
692.972789	-78.153217
693.133007	-81.042521
693.293300	-76.756699
693.453666	-81.802032
693.614107	-78.474484
693.774622	-78.150422
693.935211	-80.548157
694.095875	-77.159975
694.256613	-79.092198
694.417426	-78.786687
694.578313	-78.308180
694.739274	-78.255765
694.900311	-77.952721
695.061421	-74.180958
695.222607	-71.867477
695.383868	-73.195494
695.545203	-76.806271
695.706613	-75.215779
695.868098	-75.483831
696.029658	-71.601517
696.191293	-70.566929
696.353003	-72.534270
696.514789	-74.664123
696.676649	-83.120645
696.838585	-77.717968
697.000596	-73.916304
697.162682	-75.609372
697.324844	-77.387344
697.487081	-79.528317
697.649394	-72.119299
697.811782	-70.322407
697.974246	-67.331545
698.136786	-69.403500
698.299401	-69.213985
698.462092	-72.658302
698.624859	-75.353508
698.787702	-86.104188
698.950621	-84.610873
699.113616	-76.596112
699.276686	-75.534271
699.439833	-71.570800
699.603056	-74.557610
699.766355	-76.993795
699.929731	-103.786099
700.093183	-82.210006
700.256711	-76.559717
700.420315	-77.688191
700.583996	-81.052885
700.747754	-85.843438
700.911588	-74.801121
701.075499	-74.322350
701.239486	-70.447808
701.403550	-71.677803
701.567691	-71.740555
701.731909	-76.605420
701.896203	-77.087178
702.060575	-71.450110
702.225024	-73.161545
702.389549	-78.560840
702.554152	-87.455328
702.718832	-75.543469
702.883589	-74.467354
703.048424	-72.412190
703.213335	-74.923577
703.378324	-75.092318
703.543391	-77.175600
703.708535	-77.039260
703.873757	-89.211192
704.039056	-79.976159
704.204433	-78.939192
704.369887	-87.767983
704.535420	-88.136706
704.701030	-77.551714
704.866718	-78.550170
705.032484	-80.847662
705.198328	-76.030991
705.364250	-69.657676
705.530250	-71.884194
705.696328	-73.357830
705.862485	-78.488744
706.028720	-71.295308
706.195033	-72.154957
706.361424	-71.167055
706.527894	-74.624090
706.694442	-71.878515
706.861069	-74.865715
707.027775	-79.789721
707.194559	-79.320140
707.361422	-75.719218
707.528363	-70.062048
707.695384	-77.112338
707.862483	-81.494005
708.029661	-76.205956
708.196918	-70.116418
708.364254	-67.661476
708.531670	-69.100766
708.699164	-69.454732
708.866738	-73.502969
709.034391	-74.154255
709.202123	-77.711332
709.369935	-70.480827
709.537826	-73.598925
709.705796	-76.195960
709.873847	-77.127129
710.041976	-79.934377
710.210186	-70.494652
710.378475	-72.901339
710.546844	-75.043909
710.715292	-83.387876
710.883821	-74.189518
711.052429	-68.926590
711.221118	-67.942028
711.389887	-68.120296
711.558735	-69.219121
711.727664	-68.511827
711.896673	-71.248278
712.065763	-70.791836
712.234932	-73.515967
712.404183	-73.131281
712.573513	-84.017955
712.742924	-79.761951
712.912416	-71.138429
713.081988	-68.294400
713.251641	-66.724716
713.421375	-69.042392
713.591190	-70.852988
713.761085	-72.394914
713.931061	-69.856906
714.101119	-71.270422
714.271257	-72.607774
714.441476	-72.637579
714.611777	-67.415636
714.782159	-66.865369
714.952622	-68.688075
715.123166	-70.589527
715.293792	-70.071252
715.464499	-73.446959
715.635288	-73.495511
715.806158	-70.909353
715.977110	-71.405525
716.148143	-68.973884
716.319259	-71.282785
716.490456	-72.792010
716.661735	-72.929242
716.833096	-76.256221
717.004538	-71.879291
717.176063	-72.351558
717.347670	-65.665600
717.519359	-65.307763
717.691130	-64.420688
717.862984	-65.630681
718.034920	-65.833183
718.206938	-67.911618
718.379039	-71.189799
718.551222	-66.459629
718.723488	-66.626065
718.895836	-63.968670
719.068267	-67.841371
719.240781	-69.365050
719.413377	-80.099222
719.586057	-77.262122
719.758819	-72.204072
719.931664	-81.970462
720.104593	-70.802744
720.277604	-67.635045
720.450699	-64.845791
720.623876	-66.295584
720.797137	-66.523098
720.970482	-66.418957
721.143910	-65.769253
721.317421	-64.646446
721.491016	-65.618051
721.664694	-64.953088
721.838456	-66.695685
722.012302	-66.969784
722.186231	-73.298118
722.360244	-76.719877
722.534342	-69.176420
722.708523	-67.754056
722.882788	-66.817946
723.057137	-66.895029
723.231570	-64.464885
723.406088	-65.050420
723.580689	-64.169590
723.755375	-67.867861
723.930146	-69.923741
724.105000	-71.000282
724.279940	-68.624328
724.454963	-70.996456
724.630072	-73.548745
724.805265	-66.653295
724.980543	-66.300011
725.155905	-63.421774
725.331353	-64.212114
725.506885	-62.883073
725.682503	-63.239021
725.858205	-61.738639
726.033993	-63.258365
726.209865	-65.204541
726.385823	-65.814719
726.561866	-68.080796
726.737995	-70.952180
726.914209	-74.278587
727.090508	-68.758675
727.266893	-65.670428
727.443364	-66.558660
727.619920	-66.177594
727.796562	-68.473404
727.973290	-64.108028
728.150103	-65.617042
728.327003	-66.620553
728.503988	-79.525269
728.681060	-73.125141
728.858218	-65.881223
729.035461	-64.797053
729.212791	-62.889215
729.390208	-63.846282
729.567710	-62.203090
729.745299	-64.100446
729.922975	-64.326873
730.100737	-65.870220
730.278586	-65.603657
730.456521	-65.925686
730.634543	-67.691637
730.812652	-66.172789
730.990848	-67.301599
731.169130	-65.540466
731.347500	-72.010435
731.525957	-68.133288
731.704500	-63.472127
731.883131	-61.156715
732.061850	-60.396195
732.240655	-62.432784
732.419548	-65.270321
732.598528	-72.144610
732.777596	-68.918260
732.956751	-67.988913
733.135994	-65.439468
733.315325	-65.413399
733.494744	-63.890400
733.674250	-62.367222
733.853844	-62.795557
734.033526	-62.188244
734.213296	-65.475018
734.393154	-67.186824
734.573101	-74.332039
734.753135	-67.996525
734.933258	-65.526129
735.113469	-64.522249
735.293769	-64.313443
735.474157	-67.751668
735.654633	-63.629027
735.835198	-63.907572
736.015852	-61.719568
736.196594	-65.913447
736.377426	-67.797233
736.558346	-70.292183
736.739355	-67.875861
736.920453	-63.242486
737.101640	-65.448986
737.282916	-63.284301
737.464282	-65.156365
737.645736	-62.025027
737.827280	-63.007054
738.008914	-63.508444
738.190637	-66.013481
738.372449	-71.511892
738.554351	-66.946161
738.736342	-64.846922
738.918424	-61.500824
739.100595	-62.211676
739.282855	-63.547239
739.465206	-65.497391
739.647647	-71.319622
739.830178	-65.759880
740.012799	-68.653448
740.195510	-64.969423
740.378311	-69.132893
740.561203	-64.509919
740.744185	-63.875454
740.927258	-62.164975
741.110421	-61.350484
741.293674	-62.713541
741.477018	-63.182383
741.660453	-70.696754
741.843979	-68.346465
742.027596	-71.665038
742.211303	-65.538710
742.395102	-63.343841
742.578991	-63.541077
742.762972	-63.132953
742.947044	-65.950331
743.131207	-64.806444
743.315461	-72.353132
743.499807	-68.506647
743.684244	-71.973034
743.868773	-70.421765
744.053394	-66.795163
744.238106	-65.271066
744.422910	-61.673276
744.607805	-63.814255
744.792793	-61.730632
744.977872	-66.469269
745.163044	-70.937767
745.348307	-72.697337
745.533663	-67.173896
745.719111	-62.004635
745.904651	-62.909391
746.090283	-60.526204
746.276008	-65.392631
746.461826	-65.364583
746.647735	-68.887824
746.833738	-70.233990
747.019833	-64.561665
747.206021	-66.286609
747.392302	-63.036076
747.578676	-64.580083
747.765143	-62.903900
747.951703	-65.016079
748.138356	-65.359623
748.325102	-70.622117
748.511941	-75.301154
748.698874	-67.418930
748.885900	-65.963582
749.073019	-62.643746
749.260232	-66.444977
749.447539	-67.940376
749.634939	-67.410595
749.822433	-67.877570
750.010021	-62.326130
750.197703	-65.760925
750.385479	-63.645915
750.573348	-68.607154
750.761312	-66.726766
750.949370	-64.938476
751.137523	-66.376333
751.325769	-69.595580
751.514110	-73.027128
751.702545	-66.931639
751.891075	-67.369937
752.079700	-63.098738
752.268419	-68.253237
752.457233	-70.142534
752.646142	-63.784970
752.835145	-64.594439
753.024244	-62.720214
753.213437	-67.726694
753.402726	-71.103195
753.592110	-69.127092
753.781589	-64.399549
753.971163	-62.228661
754.160833	-65.652302
754.350598	-65.716567
754.540459	-74.226974
754.730415	-69.062484
754.920467	-64.158457
755.110615	-62.903678
755.300858	-63.435981
755.491198	-64.080981
755.681633	-63.844093
755.872164	-70.598081
756.062792	-69.682780
756.253515	-68.035103
756.444335	-65.629360
756.635252	-64.498233
756.826264	-62.684248
757.017373	-62.110999
757.208579	-66.745156
757.399881	-64.343003
757.591280	-66.593004
757.782776	-66.902572
757.974368	-63.128394
758.166058	-61.983002
758.357844	-60.463472
758.549728	-61.967597
758.741708	-62.430751
758.933786	-64.430154
759.125961	-63.261659
759.318233	-64.328065
759.510603	-62.050117
759.703071	-63.164702
759.895635	-63.746211
760.088298	-61.179514
760.281058	-62.819568
760.473916	-64.158836
760.666872	-67.744741
760.859926	-64.139055
761.053078	-62.892012
761.246328	-60.225832
761.439676	-58.640405
761.633122	-61.204055
761.826667	-60.367313
762.020310	-62.861115
762.214052	-61.179421
762.407892	-61.037297
762.601831	-59.333352
762.795868	-58.502763
762.990004	-58.810823
763.184239	-58.135803
763.378573	-60.725994
763.573006	-60.356372
763.767538	-63.385518
763.962169	-60.821681
764.156900	-60.328945
764.351729	-60.676838
764.546658	-59.863166
764.741687	-62.180939
764.936815	-59.999502
765.132042	-61.193791
765.327370	-58.339317
765.522797	-58.739136
765.718324	-58.765647
765.913950	-57.701230
766.109677	-59.058890
766.305504	-58.903165
766.501431	-63.418560
766.697458	-61.023198
766.893586	-60.430276
767.089814	-57.721166
767.286142	-58.845239
767.482571	-57.708486
767.679100	-57.106394
767.875730	-57.902082
768.072461	-56.233888
768.269293	-59.197862
768.466225	-59.661868
768.663259	-58.684545
768.860393	-57.373661
769.057629	-55.191595
769.254966	-57.122971
769.452404	-57.749713
769.649944	-58.744314
769.847585	-56.375845
770.045328	-55.651657
770.243172	-56.320032
770.441118	-57.362067
770.639166	-58.876116
770.837315	-55.811345
771.035567	-57.287055
771.233920	-56.677625
771.432376	-57.160656
771.630934	-56.426079
771.829594	-56.504741
772.028356	-58.056453
772.227220	-55.737255
772.426188	-56.323688
772.625257	-55.978734
772.824430	-57.101305
773.023705	-54.599015
773.223083	-55.595465
773.422563	-56.504891
773.622147	-55.424288
773.821834	-56.098503
774.021624	-54.894902
774.221517	-56.399535
774.421513	-54.587343
774.621613	-55.541618
774.821816	-54.605943
775.022122	-55.709856
775.222532	-55.419837
775.423046	-55.145062
775.623664	-55.875025
775.824385	-55.899392
776.025211	-57.266778
776.226140	-54.337943
776.427173	-55.845838
776.628311	-53.192510
776.829553	-54.144042
777.030899	-55.066818
777.232350	-54.435678
777.433905	-56.635022
777.635564	-54.391152
777.837328	-55.780957
778.039197	-52.873311
778.241171	-53.492478
778.443250	-55.157153
778.645433	-53.614862
778.847722	-56.117038
779.050116	-53.698229
779.252615	-52.919192
779.455219	-52.683252
779.657929	-53.950310
779.860744	-55.174022
780.063665	-54.820681
780.266691	-54.203284
780.469823	-53.398680
780.673061	-54.168912
780.876405	-53.818648
781.079855	-56.348037
781.283410	-53.827163
781.487072	-54.439604
781.690840	-54.922717
781.894715	-51.946471
782.098695	-53.651349
782.302783	-51.816425
782.506976	-52.571796
782.711277	-53.943825
782.915684	-54.735089
783.120198	-54.626238
783.324818	-53.110361
783.529546	-52.991653
783.734381	-53.190908
783.939322	-53.214031
784.144372	-52.916169
784.349528	-53.824822
784.554792	-51.781628
784.760163	-53.129153
784.965642	-53.833082
785.171228	-53.223079
785.376922	-55.544732
785.582724	-53.710051
785.788634	-53.610116
785.994651	-51.677172
786.200777	-52.582557
786.407011	-51.977899
786.613353	-53.655372
786.819804	-53.757090
787.026363	-52.356335
787.233030	-53.023651
787.439806	-52.415236
787.646691	-52.029833
787.853684	-52.496124
788.060786	-53.382372
788.267997	-53.482815
788.475317	-53.871945
788.682746	-53.833744
788.890285	-50.939375
789.097932	-52.266664
789.305689	-52.547552
789.513555	-53.800434
789.721531	-54.574926
789.929617	-51.921519
790.137812	-51.899381
790.346117	-51.591030
790.554531	-51.763442
790.763056	-51.310067
790.971691	-53.278530
791.180436	-52.755690
791.389291	-52.644998
791.598256	-52.928466
791.807332	-51.411395
792.016518	-53.720089
792.225815	-50.587154
792.435222	-51.475553
792.644740	-51.764593
792.854369	-53.095080
793.064109	-54.066210
793.273960	-51.520264
793.483922	-51.794213
793.693995	-51.819480
793.904180	-52.463742
794.114475	-51.438248
794.324882	-51.634956
794.535401	-50.369188
794.746031	-51.506480
794.956774	-51.201413
795.167627	-53.358124
795.378593	-54.248710
795.589671	-50.712344
795.800861	-50.890368
796.012162	-49.370556
796.223577	-52.100996
796.435103	-51.019644
796.646742	-51.885171
796.858493	-51.776029
797.070357	-51.496914
797.282334	-52.187868
797.494423	-50.914831
797.706626	-52.551276
797.918941	-52.066597
798.131369	-51.914479
798.343911	-50.914131
798.556566	-49.585087
798.769334	-49.739588
798.982215	-49.308249
799.195210	-50.246955
799.408319	-51.017739
799.621541	-51.962817
799.834877	-51.415790
800.048327	-50.617677
800.261890	-50.897143
800.475568	-50.745670
800.689360	-52.222707
800.903266	-51.242770
801.117287	-49.868923
801.331422	-48.936510
801.545671	-49.324689
801.760036	-50.601554
801.974514	-50.094052
802.189108	-49.969493
802.403816	-50.124510
802.618640	-51.584696
802.833578	-50.771224
803.048632	-50.402162
803.263800	-49.329453
803.479085	-50.091385
803.694484	-50.594898
803.909999	-50.836782
804.125630	-50.882564
804.341376	-49.600568
804.557239	-49.405092
804.773217	-48.779680
804.989311	-49.021113
805.205521	-48.706528
805.421847	-49.844404
805.638290	-50.468286
805.854849	-50.261734
806.071524	-49.039329
806.288316	-49.341427
806.505225	-49.670841
806.722250	-48.895038
806.939393	-48.880428
807.156652	-49.040318
807.374028	-49.749255
807.591521	-49.376500
807.809132	-49.709609
808.026859	-49.126210
808.244705	-49.140804
808.462667	-48.306236
808.680748	-48.481484
808.898946	-48.447771
809.117261	-48.923738
809.335695	-49.925627
809.554246	-49.977588
809.772916	-48.294719
809.991704	-47.627544
810.210610	-48.722834
810.429634	-49.556557
810.648777	-49.576794
810.868039	-48.675177
811.087419	-48.165530
811.306918	-47.881027
811.526535	-48.160233
811.746272	-48.436780
811.966127	-48.995692
812.186102	-48.491488
812.406196	-48.413890
812.626409	-48.258208
812.846742	-47.840273
813.067194	-47.791893
813.287766	-48.772390
813.508457	-48.527368
813.729269	-47.846935
813.950200	-47.810444
814.171251	-48.476331
814.392422	-48.486280
814.613714	-47.533110
814.835126	-47.303737
815.056658	-47.429490
815.278311	-47.960325
815.500084	-48.379399
815.721978	-47.798065
815.943993	-47.646541
816.166128	-47.904408
816.388385	-48.129184
816.610762	-47.726095
816.833261	-47.367316
817.055881	-47.952155
817.278623	-48.581332
817.501486	-47.654731
817.724471	-47.004165
817.947577	-46.914823
818.170805	-47.766754
818.394155	-48.298505
818.617627	-47.711310
818.841221	-46.891219
819.064937	-47.213183
819.288775	-47.553686
819.512736	-46.843026
819.736819	-47.059204
819.961025	-47.164532
820.185354	-47.979602
820.409805	-47.547755
820.634379	-47.256148
820.859076	-47.204375
821.083897	-47.309602
821.308840	-47.098879
821.533907	-46.590099
821.759097	-47.170220
821.984411	-47.410007
822.209848	-47.718293
822.435409	-46.876016
822.661093	-46.381593
822.886902	-46.977751
823.112834	-47.891553
823.338891	-47.196642
823.565072	-46.363965
823.791377	-46.461586
824.017807	-46.969926
824.244361	-47.230997
824.471039	-46.901599
824.697843	-46.869689
824.924771	-46.670700
825.151824	-47.154450
825.379002	-47.496477
825.606306	-46.419987
825.833734	-46.745936
826.061288	-46.350153
826.288967	-47.994738
826.516772	-47.148104
826.744703	-46.779874
826.972759	-45.793654
827.200941	-46.532689
827.429249	-46.986305
827.657683	-47.339471
827.886243	-46.345637
828.114930	-46.377005
828.343743	-47.038009
828.572682	-46.367583
828.801748	-46.303635
829.030941	-45.827004
829.260260	-47.613504
829.489706	-47.820742
829.719280	-47.522976
829.948980	-45.208943
830.178808	-45.763570
830.408763	-46.016638
830.638845	-47.526757
830.869055	-46.617408
831.099393	-45.741477
831.329858	-46.061305
831.560451	-46.837295
831.791173	-47.423615
832.022022	-45.759611
832.252999	-46.447510
832.484105	-45.539897
832.715339	-47.031300
832.946702	-46.010045
833.178193	-46.265861
833.409813	-45.585802
833.641561	-47.665911
833.873439	-46.498512
834.105445	-46.323155
834.337581	-44.531227
834.569846	-46.462621
834.802241	-45.309043
835.034764	-47.177840
835.267418	-44.880900
835.500201	-46.674230
835.733114	-45.495635
835.966157	-46.848012
836.199329	-44.905905
836.432632	-46.239178
836.666065	-45.094461
836.899629	-47.203967
837.133323	-45.290299
837.367147	-46.120257
837.601102	-44.883648
837.835188	-45.542577
838.069405	-45.286386
838.303752	-45.960200
838.538231	-45.546920
838.772841	-45.421936
839.007582	-44.598843
839.242455	-44.576212
839.477459	-46.217563
839.712595	-45.490310
839.947863	-45.619640
840.183263	-43.995178
840.418794	-44.485409
840.654458	-44.363324
840.890254	-45.360724
841.126182	-44.621747
841.362242	-44.733854
841.598435	-45.319047
841.834761	-44.164375
842.071220	-45.476490
842.307811	-43.169028
842.544536	-45.110899
842.781393	-43.785230
843.018384	-45.335609
843.255508	-43.882830
843.492765	-43.703538
843.730156	-44.730409
843.967681	-42.828573
844.205339	-45.414887
844.443132	-42.875770
844.681058	-44.395041
844.919118	-43.506255
845.157313	-43.561215
845.395642	-43.760746
845.634105	-42.924183
845.872703	-43.335193
846.111436	-43.854996
846.350303	-43.368453
846.589306	-43.846948
846.828443	-42.113562
847.067716	-42.465349
847.307124	-43.644690
847.546667	-42.299087
847.786345	-44.465070
848.026160	-41.737561
848.266110	-42.298035
848.506195	-43.599308
848.746417	-42.687144
848.986775	-42.485353
849.227269	-41.942827
849.467899	-41.031714
849.708666	-42.936517
849.949569	-42.949419
850.190609	-41.333157
850.431785	-42.687526
850.673099	-41.246552
850.914549	-42.079004
851.156137	-42.314807
851.397861	-41.718377
851.639723	-41.202043
851.881723	-41.886985
852.123860	-40.844410
852.366135	-41.643864
852.608547	-41.991221
852.851098	-41.103107
853.093786	-41.311565
853.336613	-40.788502
853.579578	-40.947727
853.822681	-40.783345
854.065923	-41.135723
854.309304	-40.417934
854.552823	-41.104967
854.796481	-40.061618
855.040278	-40.446384
855.284215	-40.721656
855.528290	-40.880945
855.772505	-40.359528
856.016859	-40.147787
856.261353	-40.052734
856.505987	-39.922370
856.750760	-40.519125
856.995673	-39.764822
857.240727	-40.131300
857.485920	-39.817254
857.731254	-39.742712
857.976729	-39.387325
858.222343	-39.801265
858.468099	-39.434461
858.713995	-39.770772
858.960032	-39.298390
859.206211	-39.192998
859.452530	-39.228200
859.698991	-39.340531
859.945593	-39.292521
860.192336	-39.302956
860.439222	-39.179440
860.686248	-38.907747
860.933417	-39.024657
861.180728	-38.855092
861.428181	-38.854955
861.675776	-38.711992
861.923514	-38.888964
862.171394	-38.248408
862.419417	-38.709343
862.667582	-38.435717
862.915890	-38.471618
863.164342	-38.231679
863.412936	-38.567299
863.661674	-38.328290
863.910555	-38.244463
864.159579	-37.878813
864.408747	-37.954317
864.658059	-38.052774
864.907515	-38.028797
865.157114	-38.129513
865.406858	-37.930788
865.656746	-37.805032
865.906778	-37.740185
866.156955	-37.816899
866.407277	-37.454044
866.657743	-37.655666
866.908354	-37.187218
867.159110	-37.319941
867.410011	-37.435667
867.661057	-37.612170
867.912249	-37.083589
868.163586	-37.571776
868.415069	-37.282089
868.666697	-37.265568
868.918472	-36.824172
869.170392	-36.757208
869.422458	-36.680180
869.674671	-37.147025
869.927030	-36.782597
870.179536	-36.809323
870.432188	-36.880705
870.684987	-36.515845
870.937933	-36.636805
871.191026	-36.722229
871.444266	-36.698997
871.697653	-36.341505
871.951188	-36.756901
872.204870	-36.099423
872.458700	-36.843566
872.712677	-36.441894
872.966803	-36.327025
873.221076	-35.774005
873.475498	-36.472226
873.730068	-35.658935
873.984787	-36.507406
874.239654	-36.317981
874.494669	-36.023716
874.749834	-35.820766
875.005147	-36.155392
875.260610	-36.008231
875.516222	-36.002230
875.771983	-36.000171
876.027894	-35.285294
876.283954	-36.044199
876.540164	-35.716300
876.796524	-35.797719
877.053033	-35.261859
877.309693	-35.744150
877.566503	-35.178490
877.823464	-36.378445
878.080575	-35.611841
878.337837	-35.556350
878.595249	-35.079668
878.852813	-35.394225
879.110528	-35.169948
879.368393	-35.746472
879.626410	-35.114598
879.884579	-34.899532
880.142899	-35.377731
880.401371	-35.304290
880.659994	-35.473249
880.918770	-35.172140
881.177698	-35.089157
881.436778	-34.735645
881.696010	-35.506140
881.955395	-34.798349
882.214933	-35.036740
882.474623	-34.794388
882.734467	-34.884593
882.994463	-34.736706
883.254613	-35.264574
883.514916	-34.870974
883.775372	-34.761031
884.035982	-34.680489
884.296746	-34.642532
884.557664	-34.907506
884.818735	-34.864194
885.079961	-34.898237
885.341341	-34.551335
885.602876	-34.827603
885.864565	-34.557285
886.126409	-34.842971
886.388407	-34.515705
886.650561	-34.633610
886.912870	-34.485856
887.175334	-34.912456
887.437953	-34.633670
887.700728	-34.522939
887.963658	-34.276101
888.226745	-34.450144
888.489987	-34.751532
888.753385	-34.673373
889.016940	-34.598090
889.280651	-34.246797
889.544518	-34.420525
889.808543	-34.287726
890.072723	-34.628730
890.337061	-34.343768
890.601556	-34.437542
890.866208	-34.177742
891.131017	-34.557988
891.395984	-34.297813
891.661109	-34.358015
891.926391	-34.144521
892.191831	-34.373818
892.457429	-34.320493
892.723186	-34.394809
892.989100	-34.112232
893.255173	-34.191467
893.521405	-34.212767
893.787796	-34.278274
894.054345	-34.468109
894.321053	-34.185048
894.587921	-33.976600
894.854948	-33.917305
895.122134	-34.469443
895.389480	-34.191262
895.656986	-34.280584
895.924651	-33.822910
896.192477	-34.071317
896.460463	-34.061944
896.728609	-34.544104
896.996915	-34.014368
897.265382	-34.072934
897.534010	-33.773788
897.802799	-34.347246
898.071749	-34.113862
898.340860	-34.294846
898.610132	-33.744260
898.879566	-34.187058
899.149162	-33.974941
899.418919	-34.174343
899.688838	-33.810574
899.958919	-34.094752
900.229162	-33.823444
900.499568	-34.324897
900.770136	-33.956674
901.040867	-34.007817
901.311761	-33.653435
901.582817	-34.078538
901.854037	-34.000431
902.125420	-34.260531
902.396966	-33.816477
902.668676	-33.896362
902.940550	-33.695459
903.212587	-34.224277
903.484788	-33.859969
903.757153	-33.895264
904.029683	-33.523898
904.302377	-33.934942
904.575236	-33.881906
904.848259	-34.054095
905.121447	-33.519167
905.394800	-33.625886
905.668319	-33.688158
905.942002	-34.122027
906.215852	-33.751499
906.489866	-33.643438
906.764047	-33.480794
907.038393	-33.955466
907.312906	-33.837277
907.587584	-33.850360
907.862429	-33.322996
908.137441	-33.626721
908.412619	-33.785026
908.687964	-33.964341
908.963476	-33.426981
909.239155	-33.487999
909.515002	-33.445002
909.791015	-33.891690
910.067197	-33.701682
910.343546	-33.550234
910.620063	-33.246126
910.896748	-33.618789
911.173601	-33.580335
911.450623	-33.813523
911.727813	-33.354909
912.005171	-33.343427
912.282699	-33.430633
912.560395	-33.838477
912.838261	-33.325559
913.116296	-33.503613
913.394500	-33.332604
913.672874	-33.405177
913.951418	-33.543993
914.230131	-33.706428
914.509015	-32.954664
914.788068	-33.297459
915.067292	-33.468821
915.346687	-33.388131
915.626252	-33.100390
915.905988	-33.369676
916.185895	-33.017770
916.465973	-33.390445
916.746223	-33.464704
917.026644	-33.092491
917.307236	-32.944900
917.588000	-33.450557
917.868937	-33.073994
918.150045	-33.167953
918.431325	-33.237207
918.712778	-32.932299
918.994404	-33.184986
919.276202	-33.421839
919.558173	-32.973798
919.840317	-32.798610
920.122634	-33.184539
920.405125	-33.019530
920.687789	-33.067514
920.970627	-33.002028
921.253639	-32.839493
921.536824	-32.835250
921.820184	-33.142754
922.103718	-32.903706
922.387427	-32.848070
922.671310	-32.734894
922.955368	-32.915239
923.239601	-32.914382
923.524009	-32.849807
923.808592	-32.553921
924.093351	-32.774318
924.378285	-32.710624
924.663396	-32.886587
924.948682	-32.491459
925.234144	-32.495624
925.519782	-32.467499
925.805597	-32.758882
926.091589	-32.292257
926.377757	-32.437362
926.664102	-32.183265
926.950624	-32.343357
927.237323	-32.360336
927.524200	-32.310737
927.811255	-31.868496
928.098487	-32.237393
928.385897	-32.118029
928.673485	-32.151338
928.961251	-31.931256
929.249196	-31.936309
929.537319	-31.832939
929.825621	-32.146818
930.114102	-31.839612
930.402762	-31.705617
930.691601	-31.792871
930.980620	-31.739518
931.269818	-31.751084
931.559196	-31.784566
931.848753	-31.437766
932.138491	-31.437736
932.428409	-31.611418
932.718508	-31.611310
933.008787	-31.433319
933.299246	-31.042557
933.589887	-31.350237
933.880709	-31.538590
934.171712	-31.248719
934.462896	-30.964756
934.754262	-31.178086
935.045810	-31.220824
935.337539	-31.233548
935.629451	-30.953262
935.921545	-31.031618
936.213822	-31.060115
936.506281	-31.199121
936.798922	-30.844798
937.091747	-30.913268
937.384755	-30.886568
937.677946	-30.920024
937.971321	-30.923569
938.264879	-30.776559
938.558621	-30.522747
938.852547	-30.705287
939.146657	-30.857084
939.440952	-30.513157
939.735431	-30.342246
940.030095	-30.523800
940.324943	-30.614728
940.619977	-30.266300
940.915196	-30.356895
941.210600	-30.233000
941.506189	-30.356206
941.801965	-30.300581
942.097926	-30.327986
942.394074	-29.917677
942.690407	-30.223170
942.986927	-30.325904
943.283634	-30.050724
943.580527	-30.016598
943.877608	-30.070434
944.174875	-30.037104
944.472330	-30.032811
944.769972	-30.032981
945.067802	-29.738399
945.365820	-29.915470
945.664026	-29.999006
945.962420	-29.759719
946.261002	-29.631322
946.559773	-29.776268
946.858733	-29.632829
947.157881	-29.797518
947.457219	-29.407277
947.756746	-29.482060
948.056462	-29.554845
948.356368	-29.522487
948.656464	-29.417671
948.956749	-29.300477
949.257225	-29.320171
949.557891	-29.466748
949.858748	-29.270390
950.159796	-29.131118
950.461034	-29.302799
950.762463	-29.221014
951.064084	-29.234847
951.365896	-29.089133
951.667900	-28.956536
951.970095	-29.152169
952.272483	-29.046531
952.575063	-28.967026
952.877835	-28.936714
953.180799	-28.842524
953.483956	-28.943096
953.787307	-28.696332
954.090850	-28.658535
954.394586	-28.752690
954.698516	-28.606442
955.002640	-28.724719
955.306957	-28.314441
955.611469	-28.438170
955.916174	-28.460616
956.221074	-28.350442
956.526169	-28.314533
956.831458	-28.147748
957.136942	-28.337276
957.442622	-28.155577
957.748496	-28.119362
958.054567	-27.993295
958.360833	-27.996376
958.667294	-28.078644
958.973952	-27.882629
959.280806	-27.916001
959.587857	-27.807334
959.895104	-27.958781
960.202548	-27.790837
960.510189	-27.704594
960.818027	-27.705537
961.126062	-27.708890
961.434295	-27.730406
961.742726	-27.531081
962.051355	-27.529692
962.360182	-27.577021
962.669207	-27.641175
962.978431	-27.412497
963.287854	-27.392841
963.597475	-27.426442
963.907296	-27.441787
964.217315	-27.316476
964.527535	-27.250274
964.837954	-27.333547
965.148573	-27.309946
965.459392	-27.211243
965.770411	-27.133116
966.081630	-27.189371
966.393051	-27.215299
966.704672	-27.124165
967.016494	-27.034176
967.328517	-27.052483
967.640742	-27.141501
967.953169	-26.967265
968.265797	-26.973674
968.578627	-26.929349
968.891660	-26.995901
969.204895	-26.901111
969.518332	-26.817227
969.831972	-26.843972
970.145816	-26.852072
970.459862	-26.817832
970.774112	-26.643844
971.088565	-26.750190
971.403223	-26.669330
971.718084	-26.727465
972.033149	-26.527098
972.348419	-26.598517
972.663893	-26.551579
972.979572	-26.581441
973.295456	-26.434697
973.611546	-26.425020
973.927840	-26.464456
974.244340	-26.394333
974.561046	-26.354355
974.877958	-26.246030
975.195076	-26.368051
975.512401	-26.222582
975.829932	-26.229219
976.147670	-26.086033
976.465615	-26.193496
976.783767	-26.111147
977.102126	-26.031010
977.420693	-25.965057
977.739468	-25.981927
978.058451	-25.978760
978.377642	-25.827484
978.697041	-25.815480
979.016649	-25.811192
979.336466	-25.766507
979.656492	-25.656313
979.976727	-25.619822
980.297171	-25.643695
980.617825	-25.571784
980.938689	-25.483925
981.259763	-25.423388
981.581048	-25.495074
981.902542	-25.419520
982.224248	-25.287187
982.546164	-25.315199
982.868291	-25.300176
983.190630	-25.297318
983.513180	-25.123540
983.835942	-25.184440
984.158916	-25.150365
984.482101	-25.153253
984.805500	-25.007167
985.129110	-25.032689
985.452934	-25.056767
985.776970	-24.978375
986.101220	-24.918813
986.425683	-24.906566
986.750359	-24.955601
987.075250	-24.835826
987.400354	-24.832542
987.725673	-24.810127
988.051206	-24.831427
988.376954	-24.743083
988.702916	-24.694947
989.029094	-24.727696
989.355487	-24.714671
989.682095	-24.635180
990.008919	-24.586645
990.335959	-24.632343
990.663216	-24.610888
990.990688	-24.507712
991.318377	-24.515138
991.646283	-24.504547
991.974406	-24.540485
992.302746	-24.371102
992.631304	-24.446200
992.960079	-24.375024
993.289072	-24.448097
993.618283	-24.281415
993.947713	-24.351756
994.277361	-24.295448
994.607227	-24.310453
994.937313	-24.210403
995.267618	-24.242261
995.598142	-24.229438
995.928886	-24.183434
996.259849	-24.133431
996.591033	-24.165361
996.922437	-24.096513
997.254061	-24.116080
997.585906	-23.988194
997.917972	-24.127009
998.250260	-23.961432
998.582768	-24.018690
998.915498	-23.881770
999.248450	-23.999989
999.581624	-23.888627
999.915020	-23.822159
1000.248639	-23.857250
1000.582480	-23.813676
1000.916545	-23.801664
1001.250832	-23.670566
1001.585343	-23.735877
1001.920077	-23.695839
1002.255035	-23.610709
1002.590218	-23.594173
1002.925624	-23.580697
1003.261255	-23.579510
1003.597111	-23.443977
1003.933192	-23.454205
1004.269497	-23.490426
1004.606029	-23.378865
1004.942785	-23.363842
1005.279768	-23.292692
1005.616977	-23.413334
1005.954412	-23.212133
1006.292074	-23.255978
1006.629962	-23.213427
1006.968077	-23.231881
1007.306420	-23.142594
1007.644990	-23.075534
1007.983787	-23.200144
1008.322813	-23.035720
1008.662067	-23.060303
1009.001549	-22.981324
1009.341259	-23.062587
1009.681199	-22.960211
1010.021367	-22.882929
1010.361765	-22.970904
1010.702392	-22.888939
1011.043250	-22.879751
1011.384337	-22.785210
1011.725654	-22.888606
1012.067202	-22.817476
1012.408980	-22.725304
1012.750989	-22.784217
1013.093230	-22.755924
1013.435702	-22.758533
1013.778405	-22.641349
1014.121341	-22.729831
1014.464508	-22.712982
1014.807908	-22.628881
1015.151540	-22.629194
1015.495405	-22.663476
1015.839503	-22.665298
1016.183835	-22.556313
1016.528400	-22.601498
1016.873198	-22.671082
1017.218231	-22.545835
1017.563498	-22.587607
1017.908999	-22.570275
1018.254735	-22.640128
1018.600707	-22.514136
1018.946913	-22.551631
1019.293354	-22.623159
1019.640032	-22.540387
1019.986945	-22.528442
1020.334094	-22.539906
1020.681480	-22.595148
1021.029102	-22.499627
1021.376961	-22.463131
1021.725058	-22.583793
1022.073391	-22.454842
1022.421962	-22.450714
1022.770772	-22.428253
1023.119819	-22.479448
1023.469104	-22.371005
1023.818628	-22.320414
1024.168391	-22.407236
1024.518393	-22.310125
1024.868634	-22.266245
1025.219115	-22.234066
1025.569836	-22.281531
1025.920796	-22.205220
1026.271997	-22.083643
1026.623438	-22.215509
1026.975121	-22.108245
1027.327044	-22.075480
1027.679208	-22.034922
1028.031614	-22.073245
1028.384262	-22.025820
1028.737152	-21.923041
1029.090284	-22.019971
1029.443659	-21.957669
1029.797276	-21.889649
1030.151137	-21.905608
1030.505240	-21.898149
1030.859587	-21.919907
1031.214178	-21.770029
1031.569013	-21.882759
1031.924093	-21.836122
1032.279417	-21.757910
1032.634985	-21.788847
1032.990799	-21.784430
1033.346858	-21.769166
1033.703162	-21.665544
1034.059712	-21.736680
1034.416509	-21.731270
1034.773551	-21.627671
1035.130841	-21.673746
1035.488377	-21.662576
1035.846160	-21.632849
1036.204190	-21.573797
1036.562468	-21.624037
1036.920994	-21.650515
1037.279768	-21.505637
1037.638790	-21.610279
1037.998061	-21.582246
1038.357581	-21.538400
1038.717350	-21.529831
1039.077368	-21.564148
1039.437636	-21.591581
1039.798154	-21.469037
1040.158922	-21.564537
1040.519940	-21.563980
1040.881209	-21.509484
1041.242729	-21.546688
1041.604501	-21.556209
1041.966524	-21.575630
1042.328798	-21.510023
1042.691325	-21.563333
1043.054103	-21.611942
1043.417135	-21.516890
1043.780419	-21.587968
1044.143956	-21.594181
1044.507746	-21.576146
1044.871791	-21.565593
1045.236088	-21.576618
1045.600641	-21.640295
1045.965447	-21.518830
1046.330508	-21.595097
1046.695824	-21.612517
1047.061395	-21.551690
1047.427222	-21.553166
1047.793304	-21.548171
1048.159642	-21.575320
1048.526237	-21.473247
1048.893088	-21.508257
1049.260196	-21.533941
1049.627561	-21.400270
1049.995183	-21.419477
1050.363063	-21.430429
1050.731201	-21.359400
1051.099597	-21.303516
1051.468251	-21.297470
1051.837164	-21.291543
1052.206336	-21.147152
1052.575767	-21.182526
1052.945458	-21.189990
1053.315409	-21.029362
1053.685619	-21.044309
1054.056090	-21.035250
1054.426821	-20.961547
1054.797814	-20.905508
1055.169067	-20.905908
1055.540582	-20.911897
1055.912359	-20.773133
1056.284398	-20.834746
1056.656698	-20.824352
1057.029262	-20.724044
1057.402088	-20.750132
1057.775177	-20.758265
1058.148530	-20.728655
1058.522146	-20.686969
1058.896027	-20.729840
1059.270171	-20.731923
1059.644580	-20.638893
1060.019254	-20.734877
1060.394193	-20.718640
1060.769397	-20.667718
1061.144867	-20.730605
1061.520602	-20.721350
1061.896604	-20.707142
1062.272872	-20.701109
1062.649407	-20.738879
1063.026210	-20.749832
1063.403279	-20.684053
1063.780616	-20.760791
1064.158221	-20.746918
1064.536094	-20.701780
1064.914235	-20.741261
1065.292645	-20.728208
1065.671325	-20.723933
1066.050273	-20.698011
1066.429491	-20.726449
1066.808979	-20.710909
1067.188738	-20.642630
1067.568766	-20.706443
1067.949066	-20.660555
1068.329636	-20.593107
1068.710478	-20.650920
1069.091592	-20.597313
1069.472977	-20.547004
1069.854635	-20.540146
1070.236565	-20.536111
1070.618768	-20.486118
1071.001243	-20.428018
1071.383993	-20.467147
1071.767016	-20.406851
1072.150313	-20.340399
1072.533884	-20.391985
1072.917730	-20.316219
1073.301850	-20.281604
1073.686246	-20.292105
1074.070917	-20.249250
1074.455864	-20.213954
1074.841087	-20.182567
1075.226586	-20.194826
1075.612362	-20.129901
1075.998415	-20.102673
1076.384745	-20.134266
1076.771353	-20.051230
1077.158238	-20.039677
1077.545401	-20.059415
1077.932843	-19.996610
1078.320564	-19.987160
1078.708564	-19.977544
1079.096842	-19.960290
1079.485401	-19.920148
1079.874240	-19.905374
1080.263358	-19.914731
1080.652757	-19.840498
1081.042438	-19.832130
1081.432399	-19.854186
1081.822641	-19.760409
1082.213166	-19.762965
1082.603972	-19.764228
1082.995061	-19.685819
1083.386433	-19.688581
1083.778087	-19.672119
1084.170025	-19.635975
1084.562246	-19.597612
1084.954751	-19.605699
1085.347541	-19.592233
1085.740615	-19.533188
1086.133973	-19.557159
1086.527617	-19.542086
1086.921546	-19.492006
1087.315761	-19.526199
1087.710262	-19.495104
1088.105050	-19.455563
1088.500124	-19.474587
1088.895485	-19.452115
1089.291134	-19.420028
1089.687070	-19.406369
1090.083294	-19.400623
1090.479806	-19.371334
1090.876607	-19.335457
1091.273696	-19.358153
1091.671075	-19.308426
1092.068744	-19.277424
1092.466702	-19.311869
1092.864950	-19.248252
1093.263489	-19.231824
1093.662319	-19.264387
1094.061440	-19.199814
1094.460852	-19.186142
1094.860555	-19.190636
1095.260551	-19.155715
1095.660840	-19.113006
1096.061421	-19.096244
1096.462295	-19.079031
1096.863462	-19.001258
1097.264923	-18.988359
1097.666678	-18.959414
1098.068727	-18.870220
1098.471071	-18.858454
1098.873710	-18.830701
1099.276644	-18.725057
1099.679874	-18.736273
1100.083400	-18.696992
1100.487222	-18.614557
1100.891340	-18.624151
1101.295756	-18.589026
1101.700468	-18.537009
1102.105478	-18.529809
1102.510787	-18.517022
1102.916393	-18.470063
1103.322298	-18.456850
1103.728502	-18.459412
1104.135005	-18.397799
1104.541807	-18.374744
1104.948909	-18.389052
1105.356312	-18.306352
1105.764015	-18.277879
1106.172019	-18.293633
1106.580324	-18.193264
1106.988931	-18.178624
1107.397840	-18.174449
1107.807051	-18.083936
1108.216564	-18.080379
1108.626380	-18.072069
1109.036500	-17.999696
1109.446923	-18.006207
1109.857649	-18.004639
1110.268680	-17.964225
1110.680016	-17.971360
1111.091657	-17.987132
1111.503602	-17.969062
1111.915854	-17.970393
1112.328411	-17.999806
1112.741275	-17.981078
1113.154445	-17.979093
1113.567922	-18.015757
1113.981706	-17.971577
1114.395798	-17.960485
1114.810198	-17.992583
1115.224906	-17.916157
1115.639923	-17.891922
1116.055249	-17.900049
1116.470884	-17.809985
1116.886829	-17.779885
1117.303084	-17.758617
1117.719650	-17.666769
1118.136526	-17.639917
1118.553713	-17.604432
1118.971212	-17.527527
1119.389022	-17.498793
1119.807145	-17.471133
1120.225580	-17.410658
1120.644328	-17.391703
1121.063389	-17.377924
1121.482763	-17.336864
1121.902452	-17.315180
1122.322454	-17.321164
1122.742771	-17.290493
1123.163404	-17.270503
1123.584351	-17.282582
1124.005614	-17.241177
1124.427193	-17.229831
1124.849089	-17.242487
1125.271301	-17.172604
1125.693830	-17.160867
1126.116677	-17.162463
1126.539842	-17.083483
1126.963324	-17.061193
1127.387126	-17.043809
1127.811246	-16.956399
1128.235685	-16.946021
1128.660444	-16.902579
1129.085522	-16.820261
1129.510922	-16.824437
1129.936641	-16.770033
1130.362682	-16.707211
1130.789044	-16.715291
1131.215728	-16.677163
1131.642734	-16.630595
1132.070063	-16.646941
1132.497714	-16.624097
1132.925689	-16.605422
1133.353987	-16.626853
1133.782610	-16.616253
1134.211556	-16.615437
1134.640827	-16.646370
1135.070424	-16.637582
1135.500345	-16.641358
1135.930593	-16.680379
1136.361166	-16.665190
1136.792067	-16.662528
1137.223294	-16.696314
1137.654848	-16.669787
1138.086730	-16.655738
1138.518940	-16.666664
1138.951479	-16.627398
1139.384346	-16.605957
1139.817543	-16.592757
1140.251069	-16.529118
1140.684925	-16.506609
1141.119111	-16.474609
1141.553628	-16.390226
1141.988475	-16.369611
1142.423655	-16.326719
1142.859166	-16.237338
1143.295009	-16.217608
1143.731185	-16.164742
1144.167694	-16.093005
1144.604536	-16.072132
1145.041711	-16.013401
1145.479221	-15.961855
1145.917065	-15.952444
1146.355245	-15.889747
1146.793759	-15.859132
1147.232609	-15.856941
1147.671795	-15.797817
1148.111317	-15.784320
1148.551177	-15.785222
1148.991373	-15.736156
1149.431907	-15.738229
1149.872779	-15.730488
1150.313989	-15.694598
1150.755538	-15.705790
1151.197426	-15.689964
1151.639653	-15.660692
1152.082220	-15.681706
1152.525128	-15.653252
1152.968376	-15.628591
1153.411966	-15.654577
1153.855897	-15.610987
1154.300169	-15.597161
1154.744784	-15.613243
1155.189742	-15.563078
1155.635042	-15.561526
1156.080687	-15.559155
1156.526674	-15.508499
1156.973007	-15.518719
1157.419683	-15.493024
1157.866705	-15.448075
1158.314072	-15.464758
1158.761786	-15.423982
1159.209845	-15.385589
1159.658251	-15.400362
1160.107004	-15.348561
1160.556104	-15.323760
1161.005553	-15.329973
1161.455349	-15.269776
1161.905494	-15.264213
1162.355989	-15.252860
1162.806832	-15.192616
1163.258026	-15.203425
1163.709570	-15.171565
1164.161464	-15.122849
1164.613710	-15.137513
1165.066307	-15.089842
1165.519256	-15.058201
1165.972558	-15.069730
1166.426212	-15.011764
1166.880219	-14.998960
1167.334580	-14.997995
1167.789295	-14.942121
1168.244364	-14.941663
1168.699788	-14.924783
1169.155567	-14.881411
1169.611702	-14.886032
1170.068193	-14.853379
1170.525041	-14.826643
1170.982245	-14.830214
1171.439807	-14.785720
1171.897726	-14.774251
1172.356004	-14.770358
1172.814640	-14.724319
1173.273635	-14.723062
1173.732989	-14.706355
1174.192703	-14.667694
1174.652778	-14.670231
1175.113213	-14.636513
1175.574009	-14.612188
1176.035167	-14.615293
1176.496687	-14.568633
1176.958569	-14.557396
1177.420814	-14.553543
1177.883422	-14.505294
1178.346394	-14.500606
1178.809730	-14.488249
1179.273430	-14.446659
1179.737496	-14.444884
1180.201927	-14.422730
1180.666723	-14.395766
1181.131886	-14.384623
1181.597416	-14.363978
1182.063312	-14.347874
1182.529576	-14.322856
1182.996209	-14.313662
1183.463209	-14.300523
1183.930579	-14.260573
1184.398317	-14.271371
1184.866426	-14.250878
1185.334904	-14.202459
1185.803754	-14.233592
1186.272974	-14.194386
1186.742566	-14.148375
1187.212529	-14.195656
1187.682865	-14.131190
1188.153574	-14.102753
1188.624656	-14.149548
1189.096112	-14.067963
1189.567942	-14.059601
1190.040147	-14.095692
1190.512726	-14.005633
1190.985681	-14.019820
1191.459012	-14.035603
1191.932720	-13.948610
1192.406804	-13.979562
1192.881265	-13.974777
1193.356104	-13.901941
1193.831322	-13.940647
1194.306918	-13.921338
1194.782893	-13.866972
1195.259248	-13.906589
1195.735982	-13.878626
1196.213097	-13.844755
1196.690593	-13.880175
1197.168471	-13.851475
1197.646730	-13.832849
1198.125371	-13.864253
1198.604395	-13.836703
1199.083803	-13.829684
1199.563594	-13.854819
1200.043769	-13.826455
1200.524329	-13.830800
1201.005273	-13.839993
1201.486604	-13.818077
1201.968320	-13.822129
1202.450422	-13.816418
1202.932912	-13.802401
1203.415789	-13.793148
1203.899054	-13.785696
1204.382707	-13.763526
1204.866748	-13.754739
1205.351179	-13.727692
1205.836000	-13.719905
1206.321211	-13.687003
1206.806812	-13.669181
1207.292805	-13.648572
1207.779189	-13.618190
1208.265965	-13.593927
1208.753134	-13.576494
1209.240696	-13.539059
1209.728651	-13.520458
1210.217000	-13.502314
1210.705744	-13.460789
1211.194883	-13.454198
1211.684417	-13.427352
1212.174347	-13.394105
1212.664673	-13.392918
1213.155396	-13.358178
1213.646516	-13.337967
1214.138034	-13.337742
1214.629951	-13.297413
1215.122266	-13.292892
1215.614980	-13.286045
1216.108095	-13.248624
1216.601609	-13.253905
1217.095524	-13.239641
1217.589841	-13.207606
1218.084559	-13.223501
1218.579679	-13.194342
1219.075202	-13.177227
1219.571128	-13.191485
1220.067458	-13.156712
1220.564191	-13.150173
1221.061330	-13.161134
1221.558874	-13.118966
1222.056823	-13.130233
1222.555178	-13.122634
1223.053940	-13.087847
1223.553109	-13.107137
1224.052686	-13.084079
1224.552671	-13.057401
1225.053065	-13.079817
1225.553867	-13.039447
1226.055079	-13.034415
1226.556702	-13.040932
1227.058735	-12.997661
1227.561179	-13.007575
1228.064035	-12.995074
1228.567303	-12.958836
1229.070983	-12.975548
1229.575077	-12.942693
1230.079585	-12.927209
1230.584506	-12.930455
1231.089842	-12.894381
1231.595594	-12.892556
1232.101761	-12.878934
1232.608345	-12.852135
1233.115345	-12.850007
1233.622762	-12.826362
1234.130597	-12.812582
1234.638851	-12.799419
1235.147523	-12.778418
1235.656615	-12.768421
1236.166126	-12.746574
1236.676058	-12.733942
1237.186411	-12.715603
1237.697185	-12.698221
1238.208381	-12.685934
1238.719999	-12.661474
1239.232040	-12.651824
1239.744505	-12.630211
1240.257394	-12.613442
1240.770708	-12.601893
1241.284446	-12.572919
1241.798610	-12.570198
1242.313201	-12.544049
1242.828218	-12.524341
1243.343662	-12.523854
1243.859534	-12.484414
1244.375834	-12.486695
1244.892563	-12.467882
1245.409721	-12.436075
1245.927309	-12.448633
1246.445327	-12.409769
1246.963777	-12.403638
1247.482657	-12.401842
1248.001970	-12.361937
1248.521716	-12.378569
1249.041894	-12.348193
1249.562506	-12.335798
1250.083553	-12.344153
1250.605034	-12.304774
1251.126950	-12.321545
1251.649302	-12.300067
1252.172091	-12.283035
1252.695316	-12.301828
1253.218979	-12.260872
1253.743079	-12.278160
1254.267619	-12.267950
1254.792597	-12.242223
1255.318015	-12.270651
1255.843874	-12.233455
1256.370173	-12.241821
1256.896913	-12.247394
1257.424095	-12.214886
1257.951720	-12.243261
1258.479787	-12.215150
1259.008298	-12.216374
1259.537254	-12.227268
1260.066654	-12.194282
1260.596499	-12.222515
1261.126790	-12.195590
1261.657527	-12.194720
1262.188711	-12.210344
1262.720342	-12.170660
1263.252422	-12.202218
1263.784950	-12.177684
1264.317928	-12.169047
1264.851355	-12.190778
1265.385232	-12.149077
1265.919560	-12.176399
1266.454340	-12.156507
1266.989572	-12.145648
1267.525256	-12.163596
1268.061394	-12.126879
1268.597985	-12.151930
1269.135031	-12.128560
1269.672531	-12.122295
1270.210487	-12.138817
1270.748899	-12.099220
1271.287768	-12.127627
1271.827094	-12.103749
1272.366877	-12.095973
1272.907119	-12.113397
1273.447820	-12.076321
1273.988981	-12.101338
1274.530601	-12.077762
1275.072683	-12.076104
1275.615226	-12.084227
1276.158230	-12.054675
1276.701697	-12.078353
1277.245627	-12.049732
1277.790021	-12.056203
1278.334879	-12.057146
1278.880202	-12.031070
1279.425991	-12.052371
1279.972245	-12.025516
1280.518966	-12.030564
1281.066155	-12.027177
1281.613811	-12.009672
1282.161936	-12.019212
1282.710529	-11.998048
1283.259593	-12.004083
1283.809126	-11.990845
1284.359131	-11.982900
1284.909607	-11.984039
1285.460555	-11.966021
1286.011976	-11.967664
1286.563870	-11.957242
1287.116237	-11.947181
1287.669080	-11.943330
1288.222397	-11.934318
1288.776191	-11.924116
1289.330460	-11.921311
1289.885207	-11.908852
1290.440431	-11.903033
1290.996133	-11.895194
1291.552314	-11.885391
1292.108975	-11.883463
1292.666115	-11.866642
1293.223737	-11.868728
1293.781839	-11.855344
1294.340424	-11.846621
1294.899491	-11.849877
1295.459041	-11.827223
1296.019075	-11.835605
1296.579593	-11.817968
1297.140597	-11.815090
1297.702086	-11.812424
1298.264061	-11.796451
1298.826524	-11.804260
1299.389474	-11.782040
1299.952912	-11.787862
1300.516839	-11.778465
1301.081255	-11.765102
1301.646162	-11.776522
1302.211559	-11.748864
1302.777448	-11.761106
1303.343829	-11.743410
1303.910702	-11.740929
1304.478069	-11.741518
1305.045930	-11.720583
1305.614285	-11.736441
1306.183136	-11.705825
1306.752483	-11.721548
1307.322326	-11.704837
1307.892666	-11.700029
1308.463504	-11.703698
1309.034841	-11.686249
1309.606677	-11.693218
1310.179012	-11.681620
1310.751849	-11.679203
1311.325186	-11.682086
1311.899025	-11.666474
1312.473366	-11.680258
1313.048211	-11.663510
1313.623559	-11.667553
1314.199412	-11.671924
1314.775770	-11.656168
1315.352634	-11.676581
1315.930004	-11.656031
1316.507881	-11.673257
1317.086266	-11.664644
1317.665159	-11.665326
1318.244562	-11.678998
1318.824474	-11.659129
1319.404897	-11.690383
1319.985831	-11.665003
1320.567276	-11.690663
1321.149234	-11.679659
1321.731706	-11.688641
1322.314691	-11.694102
1322.898190	-11.691517
1323.482205	-11.706143
1324.066736	-11.701001
1324.651783	-11.712918
1325.237347	-11.715848
1325.823430	-11.718797
1326.410031	-11.727845
1326.997151	-11.733254
1327.584791	-11.735886
1328.172952	-11.751789
1328.761634	-11.745274
1329.350839	-11.770904
1329.940566	-11.758042
1330.530817	-11.787784
1331.121592	-11.778213
1331.712891	-11.799042
1332.304716	-11.803883
1332.897068	-11.812875
1333.489946	-11.827485
1334.083352	-11.832247
1334.677287	-11.849129
1335.271750	-11.853806
1335.866744	-11.869159
1336.462268	-11.878188
1337.058323	-11.891080
1337.654910	-11.898195
1338.252029	-11.918666
1338.849682	-11.914697
1339.447869	-11.944672
1340.046591	-11.936282
1340.645848	-11.967360
1341.245641	-11.959378
1341.845972	-11.987569
1342.446840	-11.985612
1343.048246	-12.003798
1343.650191	-12.014618
1344.252677	-12.023438
1344.855702	-12.036439
1345.459269	-12.050858
1346.063379	-12.056133
1346.668030	-12.075386
1347.273226	-12.079591
1347.878965	-12.098305
1348.485250	-12.103173
1349.092080	-12.120059
1349.699456	-12.130701
1350.307380	-12.135047
1350.915851	-12.159311
1351.524871	-12.153539
1352.134441	-12.179839
1352.744560	-12.178515
1353.355231	-12.196880
1353.966453	-12.201998
1354.578227	-12.215333
1355.190555	-12.222849
1355.803436	-12.234112
1356.416872	-12.241187
1357.030863	-12.256404
1357.645411	-12.254630
1358.260515	-12.280848
1358.876177	-12.269187
1359.492397	-12.299611
1360.109176	-12.289061
1360.726516	-12.312756
1361.344416	-12.310623
1361.962877	-12.326111
1362.581901	-12.330321
1363.201487	-12.340734
1363.821637	-12.346517
1364.442352	-12.358725
1365.063632	-12.358015
1365.685478	-12.378797
1366.307891	-12.368186
1366.930871	-12.396225
1367.554420	-12.382348
1368.178538	-12.408455
1368.803226	-12.400517
1369.428485	-12.417695
1370.054315	-12.418447
1370.680717	-12.428729
1371.307693	-12.433014
1371.935242	-12.442826
1372.563366	-12.443703
1373.192065	-12.460393
1373.821341	-12.451824
1374.451193	-12.478953
1375.081623	-12.462185
1375.712632	-12.492821
1376.344221	-12.478682
1376.976389	-12.502258
1377.609139	-12.497060
1378.242470	-12.511748
1378.876384	-12.514902
1379.510881	-12.522483
1380.145963	-12.530362
1380.781629	-12.538536
1381.417881	-12.541174
1382.054720	-12.558111
1382.692147	-12.553268
1383.330161	-12.575088
1383.968765	-12.569698
1384.607959	-12.589540
1385.247743	-12.589703
1385.888119	-12.600908
1386.529087	-12.612984
1387.170648	-12.612192
1387.812804	-12.633714
1388.455554	-12.628018
1389.098899	-12.649742
1389.742842	-12.647721
1390.387381	-12.664547
1391.032519	-12.669187
1391.678256	-12.680342
1392.324592	-12.690257
1392.971529	-12.701418
1393.619068	-12.706827
1394.267208	-12.727391
1394.915952	-12.721767
1395.565300	-12.752932
1396.215253	-12.738598
1396.865812	-12.776356
1397.516977	-12.759197
1398.168749	-12.794376
1398.821130	-12.785634
1399.474120	-12.808739
1400.127719	-12.812651
1400.781930	-12.824773
1401.436752	-12.837440
1402.092186	-12.844272
1402.748234	-12.860061
1403.404897	-12.869208
1404.062174	-12.880204
1404.720067	-12.896444
1405.378577	-12.902628
1406.037705	-12.919809
1406.697451	-12.928370
1407.357817	-12.939082
1408.018803	-12.956167
1408.680410	-12.955272
1409.342639	-12.985763
1410.005492	-12.972321
1410.668968	-13.011387
1411.333068	-12.994943
1411.997795	-13.031004
1412.663147	-13.020711
1413.329127	-13.046162
1413.995736	-13.048422
1414.662973	-13.059447
1415.330840	-13.075946
1415.999339	-13.076998
1416.668469	-13.100245
1417.338232	-13.099693
1418.008628	-13.122504
1418.679659	-13.123260
1419.351325	-13.142493
1420.023628	-13.145500
1420.696568	-13.161694
1421.370145	-13.163882
1422.044362	-13.183697
1422.719219	-13.180994
1423.394717	-13.206722
1424.070856	-13.200927
1424.747638	-13.227574
1425.425064	-13.222496
1426.103134	-13.242656
1426.781850	-13.245592
1427.461212	-13.250045
1428.141221	-13.268581
1428.821878	-13.257604
1429.503185	-13.290547
1430.185141	-13.272383
1430.867749	-13.312711
1431.551008	-13.296598
1432.234920	-13.331337
1432.919486	-13.326990
1433.604707	-13.343482
1434.290583	-13.353654
1434.977116	-13.350876
1435.664307	-13.373391
1436.352156	-13.358581
1437.040664	-13.389676
1437.729833	-13.375398
1438.419663	-13.407162
1439.110156	-13.404331
1439.801312	-13.428987
1440.493132	-13.437070
1441.185617	-13.449485
1441.878768	-13.463306
1442.572586	-13.461039
1443.267072	-13.474684
1443.962228	-13.464583
1444.658053	-13.475950
1445.354549	-13.466984
1446.051717	-13.481010
1446.749558	-13.480012
1447.448073	-13.497252
1448.147263	-13.506827
1448.847128	-13.524013
1449.547671	-13.536977
1450.248891	-13.547073
1450.950789	-13.556136
1451.653368	-13.551481
1452.356627	-13.553939
1453.060568	-13.537307
1453.765192	-13.537028
1454.470500	-13.518527
1455.176492	-13.524241
1455.883170	-13.517144
1456.590534	-13.530737
1457.298586	-13.544128
1458.007327	-13.559643
1458.716758	-13.587681
1459.426880	-13.595585
1460.137693	-13.622654
1460.849199	-13.613470
1461.561398	-13.623089
1462.274293	-13.598491
1462.987883	-13.582690
1463.702170	-13.556285
1464.417155	-13.525522
1465.132838	-13.513900
1465.849222	-13.487928
1466.566306	-13.503541
1467.284093	-13.500412
1468.002582	-13.539646
1468.721775	-13.566492
1469.441674	-13.610933
1470.162278	-13.653884
1470.883590	-13.679879
1471.605609	-13.713615
1472.328338	-13.701718
1473.051777	-13.703559
1473.775928	-13.657151
1474.500790	-13.620245
1475.226367	-13.562532
1475.952657	-13.504895
1476.679663	-13.462777
1477.407386	-13.413714
1478.135826	-13.407114
1478.864985	-13.391097
1479.594863	-13.419897
1480.325463	-13.444771
1481.056784	-13.489162
1481.788828	-13.534352
1482.521597	-13.560148
1483.255090	-13.582438
1483.989309	-13.550436
1484.724256	-13.504184
1485.459931	-13.396216
1486.196336	-13.263071
1486.933471	-13.095036
1487.671337	-12.903359
1488.409937	-12.715446
1489.149270	-12.520256
1489.889337	-12.359535
1490.630141	-12.213332
1491.371682	-12.115360
1492.113961	-12.054029
1492.856979	-12.038290
1493.600738	-12.072304
1494.345238	-12.142837
1495.090481	-12.260446
1495.836467	-12.400491
1496.583198	-12.568957
1497.330675	-12.740885
1498.078899	-12.907765
1498.827872	-13.056643
1499.577593	-13.168149
1500.328065	-13.242297
1501.079289	-13.268055
1501.831265	-13.253119
1502.583995	-13.205762
1503.337480	-13.137072
1504.091721	-13.068517
1504.846719	-13.010343
1505.602475	-12.981397
1506.358991	-12.997309
1507.116268	-13.060946
1507.874306	-13.194126
1508.633108	-13.385972
1509.392673	-13.650691
1510.153004	-13.972673
1510.914101	-14.338129
1511.675965	-14.728165
1512.438599	-15.075182
1513.202002	-15.348187
1513.966176	-15.444193
1514.731122	-15.332442
1515.496842	-14.990495
1516.263336	-14.433823
1517.030607	-13.752824
1517.798654	-12.977674
1518.567479	-12.194981
1519.337083	-11.419100
1520.107468	-10.682852
1520.878634	-10.002210
1521.650584	-9.369435
1522.423317	-8.808888
1523.196836	-8.297513
1523.971141	-7.857043
1524.746233	-7.470191
1525.522115	-7.146902
1526.298786	-6.883431
1527.076249	-6.675521
1527.854504	-6.532195
1528.633553	-6.439156
1529.413397	-6.410796
1530.194037	-6.431795
1530.975474	-6.512429
1531.757709	-6.642811
1532.540745	-6.824464
1533.324581	-7.055498
1534.109220	-7.328249
1534.894662	-7.645773
1535.680909	-7.996148
1536.467961	-8.382077
1537.255821	-8.793236
1538.044489	-9.229234
1538.833967	-9.684851
1539.624256	-10.155343
1540.415357	-10.642595
1541.207271	-11.142075
1542.000000	-11.657947
1542.793545	-12.191745
1543.587907	-12.743151
1544.383087	-13.324835
1545.179088	-13.924860
1545.975909	-14.566884
1546.773552	-15.224294
1547.572019	-15.918615
1548.371311	-16.607917
1549.171428	-17.290478
1549.972373	-17.906800
1550.774147	-18.406510
1551.576751	-18.734230
1552.380185	-18.827303
1553.184453	-18.710272
1553.989554	-18.375814
1554.795490	-17.935006
1555.602263	-17.396482
1556.409873	-16.863892
1557.218322	-16.327459
1558.027612	-15.845134
1558.837743	-15.405913
1559.648717	-15.023511
1560.460536	-14.705308
1561.273200	-14.436818
1562.086710	-14.235312
1562.901069	-14.079903
1563.716278	-13.983491
1564.532337	-13.935617
1565.349249	-13.934966
1566.167014	-13.983456
1566.985634	-14.069900
1567.805111	-14.197032
1568.625444	-14.359121
1569.446637	-14.542763
1570.268690	-14.753943
1571.091605	-14.967720
1571.915382	-15.186802
1572.740024	-15.394461
1573.565532	-15.569269
1574.391907	-15.720861
1575.219150	-15.809004
1576.047262	-15.852862
1576.876246	-15.833514
1577.706103	-15.749578
1578.536833	-15.626270
1579.368439	-15.441919
1580.200922	-15.236383
1581.034282	-15.001552
1581.868522	-14.752491
1582.703643	-14.506167
1583.539646	-14.253980
1584.376532	-14.020489
1585.214304	-13.795255
1586.052962	-13.588731
1586.892508	-13.405151
1587.732943	-13.238393
1588.574269	-13.097913
1589.416487	-12.978700
1590.259599	-12.879871
1591.103605	-12.807162
1591.948508	-12.749766
1592.794309	-12.714387
1593.641009	-12.696434
1594.488609	-12.688713
1595.337112	-12.700410
1596.186518	-12.712342
1597.036829	-12.737528
1597.888047	-12.762464
1598.740172	-12.784591
1599.593207	-12.812234
1600.447153	-12.825262
1601.302010	-12.842695
1602.157782	-12.847446
1603.014469	-12.848114
1603.872072	-12.846898
1604.730593	-12.835081
1605.590034	-12.828668
1606.450397	-12.816508
1607.311681	-12.809575
1608.173890	-12.808121
1609.037024	-12.810409
1609.901085	-12.825754
1610.766075	-12.849201
1611.631995	-12.883299
1612.498846	-12.933270
1613.366630	-12.990678
1614.235349	-13.064146
1615.105004	-13.148254
1615.975596	-13.240447
1616.847128	-13.349381
1617.719600	-13.458011
1618.593014	-13.581162
1619.467372	-13.706176
1620.342675	-13.831939
1621.218924	-13.966241
1622.096122	-14.090271
1622.974270	-14.221443
1623.853369	-14.343436
1624.733420	-14.461474
1625.614427	-14.578311
1626.496389	-14.682517
1627.379308	-14.787260
1628.263187	-14.882279
1629.148026	-14.973360
1630.033828	-15.062660
1630.920593	-15.146256
1631.808324	-15.231610
1632.697022	-15.317934
1633.586688	-15.402099
1634.477324	-15.494291
1635.368932	-15.584832
1636.261514	-15.677454
1637.155070	-15.776074
1638.049602	-15.866332
1638.945113	-15.964230
1639.841603	-16.051845
1640.739075	-16.137118
1641.637529	-16.219051
1642.536968	-16.285036
1643.437393	-16.351772
1644.338806	-16.400193
1645.241209	-16.442816
1646.144602	-16.475577
1647.048988	-16.495037
1647.954368	-16.511484
1648.860744	-16.515870
1649.768118	-16.516400
1650.676491	-16.513238
1651.585865	-16.503941
1652.496241	-16.493580
1653.407621	-16.482419
1654.320008	-16.465186
1655.233401	-16.451236
1656.147804	-16.431423
1657.063218	-16.408652
1657.979645	-16.386247
1658.897085	-16.352029
1659.815542	-16.321196
1660.735016	-16.278530
1661.655509	-16.233232
1662.577023	-16.185863
1663.499560	-16.128241
1664.423121	-16.075428
1665.347709	-16.014637
1666.273324	-15.956320
1667.199969	-15.898277
1668.127645	-15.838339
1669.056353	-15.782436
1669.986097	-15.724461
1670.916877	-15.666872
1671.848695	-15.609803
1672.781553	-15.550024
1673.715452	-15.489407
1674.650395	-15.429311
1675.586383	-15.364480
1676.523418	-15.303472
1677.461501	-15.239043
1678.400635	-15.175474
1679.340821	-15.115106
1680.282061	-15.050189
1681.224357	-14.992686
1682.167710	-14.930574
1683.112122	-14.871767
1684.057595	-14.814658
1685.004132	-14.753378
1685.951732	-14.697963
1686.900400	-14.637663
1687.850135	-14.580336
1688.800940	-14.523278
1689.752818	-14.465520
1690.705768	-14.410831
1691.659795	-14.355664
1692.614898	-14.302005
1693.571081	-14.250127
1694.528345	-14.198083
1695.486691	-14.146991
1696.446122	-14.098509
1697.406640	-14.047520
1698.368245	-14.001408
1699.330941	-13.953760
1700.294729	-13.907273
1701.259611	-13.864762
1702.225588	-13.818585
1703.192664	-13.778943
1704.160838	-13.736571
1705.130114	-13.697103
1706.100493	-13.660098
1707.071977	-13.620061
1708.044568	-13.585590
1709.018268	-13.547479
1709.993079	-13.512215
1710.969003	-13.478189
1711.946041	-13.443766
1712.924196	-13.412849
1713.903469	-13.381768
1714.883862	-13.352445
1715.865378	-13.323647
1716.848017	-13.295568
1717.831783	-13.267544
1718.816677	-13.241813
1719.802701	-13.214795
1720.789857	-13.190880
1721.778147	-13.167149
1722.767573	-13.143072
1723.758136	-13.123311
1724.749840	-13.100162
1725.742685	-13.081758
1726.736673	-13.061975
1727.731808	-13.042279
1728.728090	-13.025995
1729.725521	-13.005727
1730.724105	-12.990051
1731.723842	-12.971981
1732.724735	-12.954804
1733.726785	-12.939797
1734.729995	-12.922879
1735.734366	-12.909352
1736.739902	-12.894958
1737.746603	-12.881622
1738.754472	-12.868609
1739.763510	-12.855470
1740.773721	-12.842223
1741.785105	-12.829978
1742.797665	-12.817726
1743.811403	-12.806253
1744.826321	-12.796897
1745.842422	-12.785867
1746.859706	-12.778226
1747.878177	-12.768612
1748.897835	-12.760204
1749.918685	-12.752849
1750.940726	-12.743365
1751.963963	-12.737216
1752.988395	-12.728504
1754.014027	-12.722252
1755.040860	-12.715629
1756.068895	-12.708855
1757.098135	-12.704769
1758.128583	-12.697828
1759.160240	-12.694322
1760.193109	-12.689625
1761.227191	-12.684314
1762.262488	-12.681993
1763.299004	-12.677322
1764.336740	-12.674378
1765.375697	-12.673592
1766.415880	-12.671057
1767.457288	-12.670838
1768.499926	-12.672196
1769.543794	-12.670611
1770.588895	-12.673447
1771.635231	-12.675085
1772.682805	-12.675745
1773.731619	-12.681579
1774.781674	-12.682898
1775.832973	-12.687674
1776.885519	-12.693391
1777.939312	-12.696313
1778.994357	-12.703539
1780.050654	-12.708668
1781.108207	-12.714383
1782.167017	-12.721011
1783.227087	-12.726717
1784.288418	-12.732358
1785.351013	-12.738611
1786.414875	-12.745246
1787.480006	-12.751094
1788.546407	-12.759501
1789.614082	-12.766118
1790.683032	-12.773389
1791.753259	-12.781265
1792.824767	-12.787373
1793.897557	-12.795698
1794.971632	-12.803116
1796.046994	-12.811675
1797.123645	-12.820585
1798.201588	-12.829443
1799.280824	-12.838736
1800.361357	-12.847685
1801.443188	-12.858071
1802.526320	-12.867369
1803.610756	-12.878701
1804.696497	-12.889388
1805.783546	-12.900262
1806.871906	-12.913062
1807.961578	-12.923234
1809.052565	-12.936382
1810.144870	-12.947781
1811.238494	-12.959554
1812.333441	-12.973245
1813.429713	-12.984824
1814.527311	-12.999698
1815.626239	-13.012890
1816.726499	-13.027152
1817.828094	-13.042328
1818.931025	-13.055849
1820.035295	-13.072192
1821.140906	-13.086857
1822.247862	-13.103581
1823.356165	-13.120954
1824.465816	-13.137713
1825.576819	-13.156739
1826.689175	-13.174406
1827.802888	-13.193440
1828.917960	-13.212426
1830.034394	-13.230981
1831.152191	-13.250991
1832.271354	-13.269998
1833.391887	-13.290193
1834.513790	-13.310378
1835.637068	-13.330312
1836.761722	-13.351098
1837.887755	-13.371445
1839.015169	-13.392261
1840.143968	-13.413266
1841.274153	-13.434322
1842.405727	-13.455567
1843.538693	-13.477493
1844.673053	-13.499233
1845.808810	-13.521686
1846.945966	-13.544355
1848.084525	-13.566984
1849.224488	-13.590602
1850.365858	-13.613112
1851.508638	-13.636553
1852.652831	-13.659767
1853.798438	-13.682532
1854.945463	-13.706826
1856.093909	-13.729661
1857.243777	-13.753700
1858.395071	-13.776993
1859.547794	-13.799593
1860.701947	-13.823172
1861.857533	-13.845218
1863.014556	-13.868684
1864.173018	-13.891562
1865.332922	-13.913748
1866.494270	-13.936485
1867.657065	-13.957017
1868.821309	-13.979035
1869.987006	-14.000909
1871.154158	-14.023210
1872.322768	-14.046791
1873.492839	-14.069007
1874.664373	-14.092185
1875.837373	-14.114501
1877.011841	-14.137044
1878.187782	-14.160926
1879.365197	-14.184364
1880.544089	-14.209320
1881.724460	-14.233481
1882.906315	-14.257261
1884.089655	-14.281176
1885.274483	-14.304211
1886.460803	-14.328929
1887.648616	-14.353549
1888.837927	-14.378517
1890.028736	-14.403563
1891.221049	-14.427478
1892.414866	-14.451914
1893.610192	-14.475241
1894.807028	-14.498635
1896.005379	-14.522329
1897.205246	-14.545557
1898.406633	-14.569563
1899.609542	-14.591932
1900.813977	-14.612982
1902.019940	-14.632546
1903.227434	-14.650411
1904.436462	-14.668663
1905.647028	-14.685947
1906.859133	-14.703270
1908.072781	-14.719452
1909.287976	-14.733380
1910.504719	-14.746781
1911.723013	-14.758332
1912.942863	-14.770021
1914.164270	-14.781352
1915.387238	-14.791374
1916.611770	-14.801130
1917.837868	-14.808430
1919.065536	-14.815123
1920.294777	-14.820379
1921.525594	-14.823918
1922.757989	-14.827615
1923.991967	-14.829465
1925.227529	-14.831139
1926.464679	-14.831399
1927.703420	-14.830081
1928.943755	-14.828806
1930.185688	-14.826281
1931.429221	-14.825104
1932.674356	-14.823914
1933.921099	-14.822422
1935.169451	-14.820701
1936.419415	-14.816795
1937.670996	-14.813390
1938.924195	-14.809635
1940.179017	-14.806176
1941.435463	-14.802813
1942.693538	-14.797367
1943.953245	-14.791421
1945.214586	-14.783928
1946.477566	-14.776048
1947.742186	-14.768215
1949.008451	-14.759015
1950.276363	-14.749395
1951.545926	-14.737933
1952.817143	-14.725822
1954.090017	-14.713134
1955.364551	-14.698981
1956.640749	-14.684446
1957.918615	-14.668468
1959.198150	-14.651704
1960.479359	-14.633955
1961.762244	-14.614654
1963.046810	-14.594186
1964.333059	-14.572185
1965.620995	-14.549725
1966.910621	-14.526269
1968.201940	-14.501493
1969.494956	-14.475513
1970.789672	-14.447759
1972.086091	-14.419215
1973.384217	-14.389783
1974.684053	-14.359555
1975.985602	-14.328636
1977.288869	-14.296698
1978.593855	-14.264387
1979.900566	-14.231749
1981.209003	-14.199043
1982.519171	-14.166374
1983.831073	-14.133605
1985.144712	-14.101320
1986.460093	-14.069367
1987.777217	-14.037848
1989.096089	-14.006341
1990.416713	-13.975176
1991.739092	-13.944902
1993.063228	-13.915159
1994.389127	-13.885627
1995.716791	-13.855744
1997.046223	-13.826177
1998.377428	-13.797159
1999.710409	-13.768277
2001.045169	-13.739721
2002.381713	-13.711015
2003.720043	-13.683254
2005.060163	-13.655965
2006.402077	-13.628556
2007.745788	-13.600825
2009.091301	-13.572487
2010.438618	-13.544873
2011.787743	-13.517560
2013.138680	-13.490347
2014.491433	-13.462176
2015.846005	-13.432750
2017.202399	-13.403024
2018.560621	-13.372939
2019.920673	-13.343026
2021.282558	-13.312200
2022.646281	-13.280547
2024.011846	-13.248456
2025.379256	-13.216269
2026.748515	-13.183966
2028.119626	-13.151155
2029.492594	-13.118453
2030.867422	-13.085890
2032.244114	-13.053886
2033.622673	-13.022288
2035.003104	-12.990685
2036.385411	-12.959542
2037.769597	-12.928647
2039.155665	-12.898242
2040.543621	-12.868218
2041.933467	-12.839275
2043.325208	-12.812060
2044.718847	-12.785930
2046.114389	-12.760520
2047.511837	-12.734946
2048.911195	-12.710452
2050.312467	-12.687703
2051.715657	-12.666775
2053.120769	-12.646501
2054.527807	-12.626938
2055.936775	-12.609024
2057.347677	-12.591969
2058.760516	-12.574847
2060.175297	-12.557026
2061.592025	-12.539920
2063.010701	-12.524091
2064.431332	-12.509423
2065.853921	-12.495563
2067.278472	-12.481594
2068.704988	-12.467349
2070.133475	-12.452271
2071.563936	-12.435798
2072.996375	-12.417736
2074.430796	-12.398578
2075.867204	-12.378873
2077.305603	-12.358713
2078.745996	-12.339149
2080.188389	-12.320564
2081.632784	-12.303337
2083.079187	-12.285664
2084.527601	-12.267413
2085.978030	-12.249537
2087.430480	-12.233178
2088.884954	-12.218143
2090.341455	-12.203483
2091.799990	-12.189608
2093.260561	-12.177808
2094.723173	-12.167858
2096.187831	-12.157936
2097.654538	-12.147205
2099.123300	-12.137254
2100.594119	-12.129016
2102.067001	-12.122683
2103.541950	-12.117578
2105.018971	-12.114086
2106.498067	-12.112027
2107.979243	-12.111454
2109.462503	-12.111058
2110.947853	-12.109396
2112.435295	-12.104462
2113.924836	-12.095849
2115.416478	-12.084729
2116.910227	-12.073523
2118.406087	-12.063158
2119.904063	-12.054128
2121.404158	-12.048685
2122.906378	-12.049683
2124.410727	-12.057297
2125.917210	-12.068269
2127.425831	-12.080921
2128.936594	-12.094840
2130.449505	-12.109758
2131.964567	-12.122778
2133.481786	-12.133351
2135.001166	-12.141418
2136.522711	-12.147375
2138.046427	-12.150614
2139.572317	-12.152035
2141.100388	-12.152738
2142.630642	-12.153131
2144.163085	-12.153914
2145.697722	-12.155647
2147.234558	-12.159890
2148.773596	-12.165630
2150.314842	-12.172770
2151.858301	-12.181091
2153.403977	-12.190844
2154.951875	-12.200603
2156.502000	-12.209967
2158.054357	-12.220238
2159.608950	-12.230783
2161.165785	-12.241388
2162.724866	-12.251543
2164.286198	-12.264069
2165.849786	-12.278126
2167.415635	-12.293384
2168.983749	-12.310768
2170.554134	-12.330905
2172.126795	-12.354743
2173.701737	-12.380597
2175.278964	-12.409825
2176.858481	-12.440775
2178.440294	-12.472465
2180.024408	-12.504036
2181.610827	-12.533390
2183.199557	-12.559287
2184.790602	-12.580437
2186.383968	-12.598773
2187.979660	-12.615448
2189.577683	-12.629657
2191.178041	-12.644066
2192.780741	-12.660103
2194.385787	-12.678781
2195.993185	-12.699121
2197.602939	-12.722412
2199.215054	-12.752508
2200.829537	-12.787182
2202.446392	-12.824878
2204.065624	-12.864957
2205.687239	-12.905334
2207.311242	-12.944954
2208.937638	-12.979979
2210.566433	-13.011448
2212.197631	-13.041448
2213.831239	-13.071226
2215.467261	-13.103226
2217.105703	-13.137591
2218.746570	-13.175334
2220.389867	-13.220378
2222.035601	-13.268997
2223.683776	-13.319094
2225.334398	-13.369200
2226.987472	-13.420546
2228.643004	-13.473248
2230.300999	-13.524497
2231.961463	-13.575036
2233.624402	-13.629949
2235.289820	-13.686651
2236.957723	-13.742883
2238.628118	-13.797358
2240.301009	-13.850193
2241.976402	-13.903483
2243.654303	-13.954656
2245.334717	-14.001609
2247.017650	-14.049918
2248.703108	-14.101271
2250.391096	-14.149925
2252.081620	-14.197195
2253.774686	-14.245992
2255.470300	-14.297501
2257.168467	-14.349902
2258.869193	-14.402470
2260.572484	-14.458654
2262.278345	-14.519231
2263.986783	-14.581638
2265.697804	-14.644187
2267.411412	-14.710650
2269.127615	-14.781604
2270.846417	-14.855343
2272.567826	-14.930188
2274.291846	-15.006084
2276.018484	-15.085667
2277.747745	-15.167341
2279.479637	-15.250182
2281.214164	-15.335518
2282.951333	-15.423833
2284.691149	-15.512790
2286.433619	-15.602721
2288.178750	-15.695127
2289.926546	-15.788773
2291.677014	-15.883433
2293.430161	-15.978058
2295.185992	-16.073004
2296.944513	-16.168252
2298.705732	-16.259043
2300.469653	-16.346025
2302.236283	-16.433199
2304.005629	-16.518149
2305.777696	-16.598720
2307.552492	-16.678250
2309.330022	-16.758638
2311.110292	-16.839193
2312.893310	-16.920640
2314.679080	-17.002919
2316.467611	-17.087381
2318.258907	-17.177623
2320.052976	-17.269695
2321.849824	-17.362925
2323.649457	-17.461683
2325.451883	-17.562460
2327.257106	-17.666238
2329.065135	-17.778029
2330.875975	-17.892276
2332.689633	-18.005716
2334.506116	-18.124861
2336.325430	-18.248543
2338.147581	-18.373209
2339.972578	-18.497830
2341.800425	-18.625327
2343.631130	-18.760126
2345.464700	-18.894698
2347.301141	-19.024795
2349.140461	-19.159342
2350.982665	-19.298566
2352.827760	-19.435259
2354.675754	-19.567090
2356.526653	-19.696850
2358.380464	-19.830335
2360.237195	-19.961478
2362.096851	-20.077702
2363.959440	-20.190559
2365.824968	-20.309051
2367.693444	-20.416002
2369.564873	-20.513497
2371.439263	-20.616817
2373.316620	-20.725105
2375.196953	-20.830981
2377.080267	-20.939921
2378.966570	-21.059294
2380.855869	-21.180187
2382.748171	-21.302872
2384.643484	-21.436102
2386.541815	-21.572878
2388.443170	-21.710416
2390.347557	-21.860729
2392.254984	-22.013716
2394.165457	-22.160685
2396.078984	-22.321398
2397.995572	-22.491936
2399.915229	-22.652430
2401.837961	-22.812636
2403.763777	-22.990698
2405.692684	-23.164900
2407.624689	-23.324895
2409.559800	-23.499917
2411.498023	-23.682540
2413.439368	-23.842246
2415.383840	-24.002727
2417.331449	-24.180620
2419.282201	-24.343344
2421.236104	-24.483188
2423.193165	-24.627455
2425.153393	-24.771802
2427.116795	-24.884866
2429.083378	-24.984925
2431.053151	-25.095096
2433.026121	-25.196818
2435.002297	-25.288187
2436.981685	-25.396754
2438.964293	-25.523920
2440.950131	-25.642177
2442.939204	-25.768477
2444.931522	-25.927507
2446.927092	-26.086381
2448.925923	-26.234218
2450.928022	-26.407554
2452.933397	-26.595412
2454.942056	-26.769639
2456.954008	-26.948149
2458.969260	-27.153182
2460.987821	-27.347984
2463.009699	-27.538080
2465.034902	-27.747800
2467.063437	-27.954689
2469.095315	-28.154853
2471.130542	-28.359828
2473.169127	-28.567872
2475.211078	-28.770947
2477.256404	-28.968685
2479.305112	-29.160109
2481.357212	-29.331781
2483.412713	-29.504478
2485.471621	-29.651902
2487.533946	-29.767231
2489.599696	-29.869102
2491.668880	-29.945965
2493.741507	-30.008139
2495.817585	-30.074986
2497.897122	-30.139161
2499.980127	-30.189428
2502.066609	-30.277719
2504.156578	-30.398102
2506.250040	-30.508237
2508.347006	-30.658739
2510.447483	-30.831782
2512.551482	-31.004277
2514.659010	-31.183670
2516.770076	-31.380217
2518.884690	-31.586246
2521.002861	-31.809815
2523.124597	-32.043557
2525.249907	-32.265816
2527.378801	-32.519671
2529.511287	-32.777718
2531.647375	-33.024516
2533.787074	-33.282364
2535.930393	-33.553688
2538.077340	-33.799101
2540.227927	-34.048807
2542.382160	-34.314989
2544.540051	-34.540679
2546.701608	-34.756142
2548.866840	-34.935152
2551.035757	-35.057489
2553.208369	-35.142782
2555.384684	-35.191430
2557.564713	-35.176745
2559.748465	-35.149150
2561.935948	-35.109912
2564.127174	-35.069868
2566.322152	-35.050364
2568.520890	-35.073198
2570.723399	-35.114918
2572.929689	-35.202584
2575.139769	-35.343567
2577.353649	-35.467599
2579.571340	-35.622882
2581.792849	-35.814885
2584.018189	-35.995037
2586.247368	-36.183426
2588.480396	-36.440884
2590.717284	-36.706890
2592.958041	-36.963119
2595.202678	-37.267776
2597.451204	-37.618000
2599.703630	-37.956437
2601.959966	-38.315526
2604.220222	-38.699260
2606.484408	-39.108096
2608.752535	-39.486344
2611.024612	-39.908150
2613.300651	-40.311600
2615.580661	-40.635656
2617.864653	-40.876661
2620.152638	-41.091322
2622.444625	-41.152513
2624.740626	-41.081539
2627.040651	-40.951132
2629.344710	-40.773243
2631.652814	-40.546407
2633.964974	-40.376256
2636.281200	-40.244193
2638.601504	-40.177221
2640.925896	-40.163388
2643.254386	-40.182174
2645.586987	-40.190800
2647.923707	-40.249553
2650.264559	-40.264300
2652.609554	-40.320238
2654.958702	-40.430362
2657.312015	-40.497644
2659.669503	-40.586802
2662.031178	-40.852716
2664.397051	-41.080231
2666.767132	-41.294545
2669.141434	-41.616297
2671.519968	-41.955459
2673.902745	-42.268552
2676.289776	-42.795800
2678.681072	-43.381015
2681.076646	-43.866469
2683.476508	-44.567596
2685.880671	-45.441985
2688.289145	-46.076886
2690.701942	-46.717380
2693.119075	-47.313187
2695.540554	-47.451011
2697.966391	-47.648470
2700.396599	-47.534854
2702.831189	-47.241426
2705.270172	-47.146406
2707.713561	-46.942732
2710.161368	-46.708184
2712.613605	-46.749994
2715.070283	-46.564303
2717.531416	-46.443463
2719.997014	-46.357578
2722.467090	-46.094146
2724.941657	-45.881144
2727.420726	-45.709783
2729.904310	-45.573905
2732.392421	-45.441839
2734.885072	-45.390229
2737.382275	-45.371750
2739.884042	-45.318094
2742.390387	-45.358302
2744.901321	-45.460298
2747.416857	-45.563954
2749.937008	-45.903984
2752.461787	-46.177546
2754.991206	-46.649044
2757.525279	-47.302070
2760.064017	-47.836497
2762.607434	-48.685954
2765.155544	-49.418607
2767.708358	-50.001975
2770.265890	-50.746237
2772.828153	-51.131202
2775.395160	-51.468663
2777.966924	-51.684766
2780.543459	-51.838858
2783.124778	-52.131334
2785.710894	-52.542576
2788.301821	-53.162927
2790.897572	-53.827246
2793.498160	-54.267282
2796.103599	-54.583901
2798.713903	-54.583438
2801.329085	-54.373734
2803.949159	-54.145227
2806.574139	-53.832567
2809.204038	-53.408155
2811.838871	-52.931335
2814.478650	-52.220132
2817.123391	-51.737844
2819.773107	-51.259394
2822.427812	-50.813920
2825.087521	-50.716670
2827.752247	-50.684996
2830.422005	-50.689576
2833.096808	-51.070934
2835.776672	-51.450434
2838.461611	-51.850713
2841.151638	-52.644067
2843.846769	-52.835748
2846.547019	-53.611694
2849.252401	-53.692110
2851.962930	-54.090776
2854.678621	-53.745570
2857.399489	-53.833349
2860.125549	-53.668591
2862.856815	-53.704759
2865.593302	-54.129363
2868.335026	-54.614276
2871.082002	-54.988056
2873.834244	-55.635044
2876.591767	-55.990253
2879.354588	-56.849140
2882.122721	-57.547714
2884.896181	-58.789089
2887.674984	-60.207396
2890.459146	-62.268864
2893.248681	-62.995551
2896.043606	-63.082042
2898.843937	-62.046432
2901.649687	-60.487881
2904.460875	-59.510378
2907.277515	-58.365698
2910.099623	-57.872629
2912.927215	-57.287040
2915.760308	-57.604947
2918.598916	-57.547262
2921.443057	-58.105692
2924.292747	-58.510787
2927.148002	-59.455520
2930.008837	-60.099838
2932.875270	-60.468073
2935.747318	-60.791995
2938.624995	-59.820747
2941.508320	-60.051508
2944.397308	-59.443476
2947.291977	-59.623428
2950.192343	-59.981294
2953.098423	-59.001066
2956.010234	-58.833115
2958.927792	-58.931694
2961.851116	-57.482573
2964.780221	-58.358576
2967.715126	-57.906028
2970.655847	-58.532867
2973.602402	-59.287693
2976.554808	-60.322571
2979.513083	-61.263854
2982.477243	-63.317774
2985.447308	-65.244264
2988.423293	-66.669362
2991.405218	-66.867874
2994.393099	-67.958137
2997.386955	-65.974635
