# 2022-03-21_14.30.20
# shape = sech2
# FWHM_ps = 0.1
# carrier_nm = 1542
# frep_MHz = 12126
# pow_mW = 8000
# GDD = 0.0
# propa_len = 0.13666666666666666
# untap_len = 0.01
# taper_len = 0.07666666666666666
# waist_len = 0.02
# uptap_len = 0.02
# untap_scale = 1.0
# waist_scale = 0.2
# workingDir = NL_20110305_12 (Spirou)
# axis = slow
# window_ps = 10.0
# steps = 200
# points = 13000
# 
# wavelength [nm]	 power spectral density [dB]
1000.248639	-25.659176
1000.582480	-25.612860
1000.916545	-25.695025
1001.250832	-25.612329
1001.585343	-25.542382
1001.920077	-25.598786
1002.255035	-25.516384
1002.590218	-25.469653
1002.925624	-25.603684
1003.261255	-25.562618
1003.597111	-25.426990
1003.933192	-25.473048
1004.269497	-25.449153
1004.606029	-25.378793
1004.942785	-25.461343
1005.279768	-25.441747
1005.616977	-25.348077
1005.954412	-25.383652
1006.292074	-25.321111
1006.629962	-25.218085
1006.968077	-25.327451
1007.306420	-25.350880
1007.644990	-25.212120
1007.983787	-25.225075
1008.322813	-25.214878
1008.662067	-25.116257
1009.001549	-25.165670
1009.341259	-25.162883
1009.681199	-25.062386
1010.021367	-25.099852
1010.361765	-25.053942
1010.702392	-24.896496
1011.043250	-24.944751
1011.384337	-24.988172
1011.725654	-24.868704
1012.067202	-24.860212
1012.408980	-24.827713
1012.750989	-24.694678
1013.093230	-24.722161
1013.435702	-24.728603
1013.778405	-24.614526
1014.121341	-24.629545
1014.464508	-24.586112
1014.807908	-24.422731
1015.151540	-24.448808
1015.495405	-24.484508
1015.839503	-24.371842
1016.183835	-24.366292
1016.528400	-24.345388
1016.873198	-24.223650
1017.218231	-24.241432
1017.563498	-24.241870
1017.908999	-24.149044
1018.254735	-24.186621
1018.600707	-24.155453
1018.946913	-24.005482
1019.293354	-24.024558
1019.640032	-24.048867
1019.986945	-23.973647
1020.334094	-23.985650
1020.681480	-23.938037
1021.029102	-23.842370
1021.376961	-23.882605
1021.725058	-23.858035
1022.073391	-23.790162
1022.421962	-23.843082
1022.770772	-23.781200
1023.119819	-23.669232
1023.469104	-23.714013
1023.818628	-23.694230
1024.168391	-23.644071
1024.518393	-23.682628
1024.868634	-23.596412
1025.219115	-23.530698
1025.569836	-23.595031
1025.920796	-23.530662
1026.271997	-23.492180
1026.623438	-23.555582
1026.975121	-23.454045
1027.327044	-23.387885
1027.679208	-23.438407
1028.031614	-23.374176
1028.384262	-23.364294
1028.737152	-23.389124
1029.090284	-23.269634
1029.443659	-23.260002
1029.797276	-23.295914
1030.151137	-23.197522
1030.505240	-23.212420
1030.859587	-23.219716
1031.214178	-23.084329
1031.569013	-23.083873
1031.924093	-23.085879
1032.279417	-22.998961
1032.634985	-23.028695
1032.990799	-22.974161
1033.346858	-22.857273
1033.703162	-22.905082
1034.059712	-22.868846
1034.416509	-22.785542
1034.773551	-22.826566
1035.130841	-22.744674
1035.488377	-22.657015
1035.846160	-22.693493
1036.204190	-22.624942
1036.562468	-22.588414
1036.920994	-22.600378
1037.279768	-22.480452
1037.638790	-22.458756
1037.998061	-22.483500
1038.357581	-22.389018
1038.717350	-22.389136
1039.077368	-22.361148
1039.437636	-22.245696
1039.798154	-22.269477
1040.158922	-22.240076
1040.519940	-22.158256
1040.881209	-22.190897
1041.242729	-22.109044
1041.604501	-22.039310
1041.966524	-22.098670
1042.328798	-22.021260
1042.691325	-21.981673
1043.054103	-22.009743
1043.417135	-21.893183
1043.780419	-21.887421
1044.143956	-21.921841
1044.507746	-21.820374
1044.871791	-21.833208
1045.236088	-21.811774
1045.600641	-21.716709
1045.965447	-21.777748
1046.330508	-21.747364
1046.695824	-21.673028
1047.061395	-21.717953
1047.427222	-21.635274
1047.793304	-21.601129
1048.159642	-21.661920
1048.526237	-21.571235
1048.893088	-21.565077
1049.260196	-21.579194
1049.627561	-21.481700
1049.995183	-21.533078
1050.363063	-21.525318
1050.731201	-21.432491
1051.099597	-21.484332
1051.468251	-21.420628
1051.837164	-21.365287
1052.206336	-21.436619
1052.575767	-21.345540
1052.945458	-21.314825
1053.315409	-21.342648
1053.685619	-21.247807
1054.056090	-21.290323
1054.426821	-21.281480
1054.797814	-21.166200
1055.169067	-21.209927
1055.540582	-21.160197
1055.912359	-21.104656
1056.284398	-21.154745
1056.656698	-21.043023
1057.029262	-21.017075
1057.402088	-21.046224
1057.775177	-20.947289
1058.148530	-20.979725
1058.522146	-20.930811
1058.896027	-20.818395
1059.270171	-20.888255
1059.644580	-20.814798
1060.019254	-20.745361
1060.394193	-20.784979
1060.769397	-20.668497
1061.144867	-20.673586
1061.520602	-20.692964
1061.896604	-20.574126
1062.272872	-20.611388
1062.649407	-20.562303
1063.026210	-20.476493
1063.403279	-20.537793
1063.780616	-20.449118
1064.158221	-20.411669
1064.536094	-20.431602
1064.914235	-20.330485
1065.292645	-20.366333
1065.671325	-20.341134
1066.050273	-20.256414
1066.429491	-20.300819
1066.808979	-20.213582
1067.188738	-20.197742
1067.568766	-20.243614
1067.949066	-20.130136
1068.329636	-20.149729
1068.710478	-20.139786
1069.091592	-20.082173
1069.472977	-20.150580
1069.854635	-20.060044
1070.236565	-20.029165
1070.618768	-20.078272
1071.001243	-19.993562
1071.383993	-20.032362
1071.767016	-19.991040
1072.150313	-19.914915
1072.533884	-19.999987
1072.917730	-19.925877
1073.301850	-19.907805
1073.686246	-19.928990
1074.070917	-19.826518
1074.455864	-19.887717
1074.841087	-19.852402
1075.226586	-19.785270
1075.612362	-19.842405
1075.998415	-19.744121
1076.384745	-19.776282
1076.771353	-19.801071
1077.158238	-19.679853
1077.545401	-19.740231
1077.932843	-19.686093
1078.320564	-19.639517
1078.708564	-19.690531
1079.096842	-19.570542
1079.485401	-19.588887
1079.874240	-19.576899
1080.263358	-19.497531
1080.652757	-19.546731
1081.042438	-19.431338
1081.432399	-19.412232
1081.822641	-19.438556
1082.213166	-19.322436
1082.603972	-19.353578
1082.995061	-19.286932
1083.386433	-19.241917
1083.778087	-19.289100
1084.170025	-19.180265
1084.562246	-19.199289
1084.954751	-19.161326
1085.347541	-19.087735
1085.740615	-19.148398
1086.133973	-19.045837
1086.527617	-19.036724
1086.921546	-19.035433
1087.315761	-18.954876
1087.710262	-19.010203
1088.105050	-18.912075
1088.500124	-18.878877
1088.895485	-18.900836
1089.291134	-18.802846
1089.687070	-18.843912
1090.083294	-18.767159
1090.479806	-18.730037
1090.876607	-18.787060
1091.273696	-18.686398
1091.671075	-18.715826
1092.068744	-18.677410
1092.466702	-18.637220
1092.864950	-18.700517
1093.263489	-18.607502
1093.662319	-18.644226
1094.061440	-18.637843
1094.460852	-18.596650
1094.860555	-18.666825
1095.260551	-18.571027
1095.660840	-18.594503
1096.061421	-18.596187
1096.462295	-18.532857
1096.863462	-18.587267
1097.264923	-18.489059
1097.666678	-18.506125
1098.068727	-18.511524
1098.471071	-18.424208
1098.873710	-18.453702
1099.276644	-18.359878
1099.679874	-18.372686
1100.083400	-18.358102
1100.487222	-18.266405
1100.891340	-18.318227
1101.295756	-18.236871
1101.700468	-18.250111
1102.105478	-18.242726
1102.510787	-18.152419
1102.916393	-18.211116
1103.322298	-18.144499
1103.728502	-18.152223
1104.135005	-18.142324
1104.541807	-18.079443
1104.948909	-18.143192
1105.356312	-18.057599
1105.764015	-18.053875
1106.172019	-18.031539
1106.580324	-17.963080
1106.988931	-18.001443
1107.397840	-17.896130
1107.807051	-17.889366
1108.216564	-17.860477
1108.626380	-17.789161
1109.036500	-17.788778
1109.446923	-17.676217
1109.857649	-17.681704
1110.268680	-17.633330
1110.680016	-17.571014
1111.091657	-17.577102
1111.503602	-17.491636
1111.915854	-17.521147
1112.328411	-17.468770
1112.741275	-17.427908
1113.154445	-17.448034
1113.567922	-17.399550
1113.981706	-17.443019
1114.395798	-17.395818
1114.810198	-17.410017
1115.224906	-17.437689
1115.639923	-17.397083
1116.055249	-17.438501
1116.470884	-17.391609
1116.886829	-17.430593
1117.303084	-17.429099
1117.719650	-17.393157
1118.136526	-17.428605
1118.553713	-17.372516
1118.971212	-17.397426
1119.389022	-17.341461
1119.807145	-17.309529
1120.225580	-17.317419
1120.644328	-17.244866
1121.063389	-17.253352
1121.482763	-17.174612
1121.902452	-17.162501
1122.322454	-17.129088
1122.742771	-17.051451
1123.163404	-17.054107
1123.584351	-16.981916
1124.005614	-16.989913
1124.427193	-16.934726
1124.849089	-16.899577
1125.271301	-16.905412
1125.693830	-16.842669
1126.116677	-16.855698
1126.539842	-16.802752
1126.963324	-16.818164
1127.387126	-16.806643
1127.811246	-16.773345
1128.235685	-16.793328
1128.660444	-16.745505
1129.085522	-16.773475
1129.510922	-16.725403
1129.936641	-16.725916
1130.362682	-16.729204
1130.789044	-16.687211
1131.215728	-16.701539
1131.642734	-16.633970
1132.070063	-16.650650
1132.497714	-16.598844
1132.925689	-16.564085
1133.353987	-16.556554
1133.782610	-16.496716
1134.211556	-16.500003
1134.640827	-16.417938
1135.070424	-16.410775
1135.500345	-16.362275
1135.930593	-16.319989
1136.361166	-16.302031
1136.792067	-16.243724
1137.223294	-16.256583
1137.654848	-16.183481
1138.086730	-16.181595
1138.518940	-16.146117
1138.951479	-16.124842
1139.384346	-16.123745
1139.817543	-16.079896
1140.251069	-16.114629
1140.684925	-16.068314
1141.119111	-16.084169
1141.553628	-16.062740
1141.988475	-16.066001
1142.423655	-16.080187
1142.859166	-16.050648
1143.295009	-16.091766
1143.731185	-16.059125
1144.167694	-16.083441
1144.604536	-16.054797
1145.041711	-16.063365
1145.479221	-16.067550
1145.917065	-16.036943
1146.355245	-16.056929
1146.793759	-16.013834
1147.232609	-16.025311
1147.671795	-15.970710
1148.111317	-15.965830
1148.551177	-15.940478
1148.991373	-15.903834
1149.431907	-15.887354
1149.872779	-15.833604
1150.313989	-15.823745
1150.755538	-15.751573
1151.197426	-15.738617
1151.639653	-15.688499
1152.082220	-15.662393
1152.525128	-15.620101
1152.968376	-15.577046
1153.411966	-15.557509
1153.855897	-15.493906
1154.300169	-15.486728
1154.744784	-15.435462
1155.189742	-15.432817
1155.635042	-15.383470
1156.080687	-15.369627
1156.526674	-15.346876
1156.973007	-15.312781
1157.419683	-15.312062
1157.866705	-15.278662
1158.314072	-15.293228
1158.761786	-15.248810
1159.209845	-15.259594
1159.658251	-15.233022
1160.107004	-15.229445
1160.556104	-15.222531
1161.005553	-15.211623
1161.455349	-15.222327
1161.905494	-15.188813
1162.355989	-15.202905
1162.806832	-15.174833
1163.258026	-15.186070
1163.709570	-15.163680
1164.161464	-15.169607
1164.613710	-15.157793
1165.066307	-15.137743
1165.519256	-15.134984
1165.972558	-15.112710
1166.426212	-15.118331
1166.880219	-15.087651
1167.334580	-15.096351
1167.789295	-15.062654
1168.244364	-15.056593
1168.699788	-15.029909
1169.155567	-15.024897
1169.611702	-15.006626
1170.068193	-14.989235
1170.525041	-14.977190
1170.982245	-14.948113
1171.439807	-14.936386
1171.897726	-14.909979
1172.356004	-14.907266
1172.814640	-14.878346
1173.273635	-14.869455
1173.732989	-14.841594
1174.192703	-14.823985
1174.652778	-14.801787
1175.113213	-14.787927
1175.574009	-14.774138
1176.035167	-14.746477
1176.496687	-14.732556
1176.958569	-14.701823
1177.420814	-14.689170
1177.883422	-14.658502
1178.346394	-14.655773
1178.809730	-14.622399
1179.273430	-14.605440
1179.737496	-14.573992
1180.201927	-14.558613
1180.666723	-14.531684
1181.131886	-14.514390
1181.597416	-14.496265
1182.063312	-14.463928
1182.529576	-14.445085
1182.996209	-14.413712
1183.463209	-14.405582
1183.930579	-14.370527
1184.398317	-14.369852
1184.866426	-14.328108
1185.334904	-14.320995
1185.803754	-14.284792
1186.272974	-14.288874
1186.742566	-14.254077
1187.212529	-14.256995
1187.682865	-14.225898
1188.153574	-14.219435
1188.624656	-14.195179
1189.096112	-14.197437
1189.567942	-14.181685
1190.040147	-14.174730
1190.512726	-14.164921
1190.985681	-14.150265
1191.459012	-14.145150
1191.932720	-14.137246
1192.406804	-14.143720
1192.881265	-14.121825
1193.356104	-14.128936
1193.831322	-14.106673
1194.306918	-14.115169
1194.782893	-14.097360
1195.259248	-14.114766
1195.735982	-14.086048
1196.213097	-14.095076
1196.690593	-14.072629
1197.168471	-14.080977
1197.646730	-14.062935
1198.125371	-14.073539
1198.604395	-14.050805
1199.083803	-14.045625
1199.563594	-14.032915
1200.043769	-14.028481
1200.524329	-14.020568
1201.005273	-14.010216
1201.486604	-14.001123
1201.968320	-13.974466
1202.450422	-13.977467
1202.932912	-13.952373
1203.415789	-13.957264
1203.899054	-13.923472
1204.382707	-13.926910
1204.866748	-13.881413
1205.351179	-13.896162
1205.836000	-13.854620
1206.321211	-13.864474
1206.806812	-13.816976
1207.292805	-13.821811
1207.779189	-13.772420
1208.265965	-13.783378
1208.753134	-13.743161
1209.240696	-13.739037
1209.728651	-13.699946
1210.217000	-13.686932
1210.705744	-13.659053
1211.194883	-13.642489
1211.684417	-13.630247
1212.174347	-13.587757
1212.664673	-13.587100
1213.155396	-13.532908
1213.646516	-13.555140
1214.138034	-13.486137
1214.629951	-13.527297
1215.122266	-13.427134
1215.614980	-13.489774
1216.108095	-13.378892
1216.601609	-13.465830
1217.095524	-13.335619
1217.589841	-13.436350
1218.084559	-13.283425
1218.579679	-13.405572
1219.075202	-13.251066
1219.571128	-13.382407
1220.067458	-13.217309
1220.564191	-13.347996
1221.061330	-13.183329
1221.558874	-13.322371
1222.056823	-13.169144
1222.555178	-13.293301
1223.053940	-13.147166
1223.553109	-13.258101
1224.052686	-13.134780
1224.552671	-13.237283
1225.053065	-13.130175
1225.553867	-13.203964
1226.055079	-13.118209
1226.556702	-13.177788
1227.058735	-13.119770
1227.561179	-13.160313
1228.064035	-13.113090
1228.567303	-13.130694
1229.070983	-13.109401
1229.575077	-13.117413
1230.079585	-13.111310
1230.584506	-13.099079
1231.089842	-13.098945
1231.595594	-13.079970
1232.101761	-13.100087
1232.608345	-13.071132
1233.115345	-13.091645
1233.622762	-13.049944
1234.130597	-13.077836
1234.638851	-13.041949
1235.147523	-13.073363
1235.656615	-13.026394
1236.166126	-13.052350
1236.676058	-13.007278
1237.186411	-13.040046
1237.697185	-13.000432
1238.208381	-13.018898
1238.719999	-12.976170
1239.232040	-12.993140
1239.744505	-12.962923
1240.257394	-12.976504
1240.770708	-12.942966
1241.284446	-12.942248
1241.798610	-12.917940
1242.313201	-12.921243
1242.828218	-12.900861
1243.343662	-12.893730
1243.859534	-12.866562
1244.375834	-12.863584
1244.892563	-12.845503
1245.409721	-12.843241
1245.927309	-12.814034
1246.445327	-12.809097
1246.963777	-12.781840
1247.482657	-12.789933
1248.001970	-12.757883
1248.521716	-12.758852
1249.041894	-12.721995
1249.562506	-12.730236
1250.083553	-12.702482
1250.605034	-12.705931
1251.126950	-12.671528
1251.649302	-12.669315
1252.172091	-12.649567
1252.695316	-12.646703
1253.218979	-12.629844
1253.743079	-12.609430
1254.267619	-12.602919
1254.792597	-12.584340
1255.318015	-12.588743
1255.843874	-12.556782
1256.370173	-12.558968
1256.896913	-12.528501
1257.424095	-12.542617
1257.951720	-12.511981
1258.479787	-12.516020
1259.008298	-12.484885
1259.537254	-12.491740
1260.066654	-12.475648
1260.596499	-12.471034
1261.126790	-12.454463
1261.657527	-12.442356
1262.188711	-12.443474
1262.720342	-12.429196
1263.252422	-12.429406
1263.784950	-12.402967
1264.317928	-12.412936
1264.851355	-12.393482
1265.385232	-12.404256
1265.919560	-12.376491
1266.454340	-12.382299
1266.989572	-12.367305
1267.525256	-12.375292
1268.061394	-12.359982
1268.597985	-12.353746
1269.135031	-12.347617
1269.672531	-12.345739
1270.210487	-12.345884
1270.748899	-12.330174
1271.287768	-12.329686
1271.827094	-12.319198
1272.366877	-12.328231
1272.907119	-12.310953
1273.447820	-12.310588
1273.988981	-12.297091
1274.530601	-12.303983
1275.072683	-12.294543
1275.615226	-12.288017
1276.158230	-12.277646
1276.701697	-12.275932
1277.245627	-12.275205
1277.790021	-12.263971
1278.334879	-12.256811
1278.880202	-12.246663
1279.425991	-12.250728
1279.972245	-12.238358
1280.518966	-12.231910
1281.066155	-12.218348
1281.613811	-12.219167
1282.161936	-12.212163
1282.710529	-12.201579
1283.259593	-12.190073
1283.809126	-12.183617
1284.359131	-12.182110
1284.909607	-12.168868
1285.460555	-12.159005
1286.011976	-12.146724
1286.563870	-12.147592
1287.116237	-12.134147
1287.669080	-12.124767
1288.222397	-12.109747
1288.776191	-12.108160
1289.330460	-12.099745
1289.885207	-12.085170
1290.440431	-12.075434
1290.996133	-12.064349
1291.552314	-12.065018
1292.108975	-12.045053
1292.666115	-12.038356
1293.223737	-12.024716
1293.781839	-12.024414
1294.340424	-12.011109
1294.899491	-11.996334
1295.459041	-11.991097
1296.019075	-11.981694
1296.579593	-11.979271
1297.140597	-11.957698
1297.702086	-11.956198
1298.264061	-11.946332
1298.826524	-11.943233
1299.389474	-11.928456
1299.952912	-11.917998
1300.516839	-11.919007
1301.081255	-11.907015
1301.646162	-11.902951
1302.211559	-11.885142
1302.777448	-11.890644
1303.343829	-11.880408
1303.910702	-11.872274
1304.478069	-11.864345
1305.045930	-11.857530
1305.614285	-11.862260
1306.183136	-11.842522
1306.752483	-11.843909
1307.322326	-11.833746
1307.892666	-11.836734
1308.463504	-11.826507
1309.034841	-11.814493
1309.606677	-11.821139
1310.179012	-11.808372
1310.751849	-11.811245
1311.325186	-11.793068
1311.899025	-11.798509
1312.473366	-11.795579
1313.048211	-11.782700
1313.623559	-11.784148
1314.199412	-11.771567
1314.775770	-11.782316
1315.352634	-11.763830
1315.930004	-11.762388
1316.507881	-11.763106
1317.086266	-11.754721
1317.665159	-11.757977
1318.244562	-11.738961
1318.824474	-11.752163
1319.404897	-11.742554
1319.985831	-11.736989
1320.567276	-11.738158
1321.149234	-11.729522
1321.731706	-11.742167
1322.314691	-11.722055
1322.898190	-11.729966
1323.482205	-11.730250
1324.066736	-11.724386
1324.651783	-11.730047
1325.237347	-11.715455
1325.823430	-11.733845
1326.410031	-11.721761
1326.997151	-11.720103
1327.584791	-11.727289
1328.172952	-11.718677
1328.761634	-11.731216
1329.350839	-11.712882
1329.940566	-11.724776
1330.530817	-11.726176
1331.121592	-11.714031
1331.712891	-11.725048
1332.304716	-11.712209
1332.897068	-11.725257
1333.489946	-11.713739
1334.083352	-11.708453
1334.677287	-11.722529
1335.271750	-11.704292
1335.866744	-11.712690
1336.462268	-11.702953
1337.058323	-11.704266
1337.654910	-11.708176
1338.252029	-11.686879
1338.849682	-11.702940
1339.447869	-11.691344
1340.046591	-11.686195
1340.645848	-11.688703
1341.245641	-11.675043
1341.845972	-11.687806
1342.446840	-11.667566
1343.048246	-11.668111
1343.650191	-11.674649
1344.252677	-11.654787
1344.855702	-11.663020
1345.459269	-11.650275
1346.063379	-11.651977
1346.668030	-11.650402
1347.273226	-11.631361
1347.878965	-11.646836
1348.485250	-11.631903
1349.092080	-11.625226
1349.699456	-11.630887
1350.307380	-11.616022
1350.915851	-11.624161
1351.524871	-11.608821
1352.134441	-11.607993
1352.744560	-11.615764
1353.355231	-11.592807
1353.966453	-11.603361
1354.578227	-11.598281
1355.190555	-11.588616
1355.803436	-11.595086
1356.416872	-11.580688
1357.030863	-11.590046
1357.645411	-11.582506
1358.260515	-11.571304
1358.876177	-11.587600
1359.492397	-11.570786
1360.109176	-11.571056
1360.726516	-11.577449
1361.344416	-11.565288
1361.962877	-11.573855
1362.581901	-11.564326
1363.201487	-11.566392
1363.821637	-11.573535
1364.442352	-11.556131
1365.063632	-11.569615
1365.685478	-11.568935
1366.307891	-11.556832
1366.930871	-11.570621
1367.554420	-11.563162
1368.178538	-11.564338
1368.803226	-11.567925
1369.428485	-11.560420
1370.054315	-11.572736
1370.680717	-11.564195
1371.307693	-11.562560
1371.935242	-11.577563
1372.563366	-11.562946
1373.192065	-11.568495
1373.821341	-11.577434
1374.451193	-11.566314
1375.081623	-11.575144
1375.712632	-11.574583
1376.344221	-11.573322
1376.976389	-11.580226
1377.609139	-11.572131
1378.242470	-11.581375
1378.876384	-11.583029
1379.510881	-11.572409
1380.145963	-11.588096
1380.781629	-11.584275
1381.417881	-11.576817
1382.054720	-11.592519
1382.692147	-11.586533
1383.330161	-11.585255
1383.968765	-11.595763
1384.607959	-11.591352
1385.247743	-11.596325
1385.888119	-11.599025
1386.529087	-11.598774
1387.170648	-11.608216
1387.812804	-11.603479
1388.455554	-11.608578
1389.098899	-11.619755
1389.742842	-11.610451
1390.387381	-11.620052
1391.032519	-11.630597
1391.678256	-11.620381
1392.324592	-11.632431
1392.971529	-11.641216
1393.619068	-11.633524
1394.267208	-11.646165
1394.915952	-11.653381
1395.565300	-11.650775
1396.215253	-11.662648
1396.865812	-11.668676
1397.516977	-11.672284
1398.168749	-11.681727
1398.821130	-11.687310
1399.474120	-11.696429
1400.127719	-11.703074
1400.781930	-11.708653
1401.436752	-11.722730
1402.092186	-11.726690
1402.748234	-11.733110
1403.404897	-11.750761
1404.062174	-11.752614
1404.720067	-11.759745
1405.378577	-11.779410
1406.037705	-11.779420
1406.697451	-11.787307
1407.357817	-11.807781
1408.018803	-11.807286
1408.680410	-11.816293
1409.342639	-11.837576
1410.005492	-11.837732
1410.668968	-11.848127
1411.333068	-11.869707
1411.997795	-11.870679
1412.663147	-11.882003
1413.329127	-11.902916
1413.995736	-11.904894
1414.662973	-11.916652
1415.330840	-11.937406
1415.999339	-11.940749
1416.668469	-11.953846
1417.338232	-11.974794
1418.008628	-11.979929
1418.679659	-11.993892
1419.351325	-12.014507
1420.023628	-12.020051
1420.696568	-12.033619
1421.370145	-12.053022
1422.044362	-12.058172
1422.719219	-12.071582
1423.394717	-12.090765
1424.070856	-12.096631
1424.747638	-12.111521
1425.425064	-12.131874
1426.103134	-12.138924
1426.781850	-12.155247
1427.461212	-12.175942
1428.141221	-12.182115
1428.821878	-12.198134
1429.503185	-12.217333
1430.185141	-12.221370
1430.867749	-12.237375
1431.551008	-12.256195
1432.234920	-12.260408
1432.919486	-12.279479
1433.604707	-12.300869
1434.290583	-12.307422
1434.977116	-12.331074
1435.664307	-12.354098
1436.352156	-12.361113
1437.040664	-12.385818
1437.729833	-12.406082
1438.419663	-12.409927
1439.110156	-12.432777
1439.801312	-12.449027
1440.493132	-12.451652
1441.185617	-12.476162
1441.878768	-12.493306
1442.572586	-12.501993
1443.267072	-12.533153
1443.962228	-12.555629
1444.658053	-12.573046
1445.354549	-12.608812
1446.051717	-12.632503
1446.749558	-12.652982
1447.448073	-12.683756
1448.147263	-12.701084
1448.847128	-12.718499
1449.547671	-12.739039
1450.248891	-12.751005
1450.950789	-12.769758
1451.653368	-12.787164
1452.356627	-12.805897
1453.060568	-12.837435
1453.765192	-12.862691
1454.470500	-12.898245
1455.176492	-12.945607
1455.883170	-12.978955
1456.590534	-13.026177
1457.298586	-13.076527
1458.007327	-13.105805
1458.716758	-13.148464
1459.426880	-13.184607
1460.137693	-13.201242
1460.849199	-13.231501
1461.561398	-13.253088
1462.274293	-13.268980
1462.987883	-13.300016
1463.702170	-13.328401
1464.417155	-13.369783
1465.132838	-13.422970
1465.849222	-13.481432
1466.566306	-13.563911
1467.284093	-13.645664
1468.002582	-13.736589
1468.721775	-13.846734
1469.441674	-13.938692
1470.162278	-14.037606
1470.883590	-14.138833
1471.605609	-14.211975
1472.328338	-14.288567
1473.051777	-14.352958
1473.775928	-14.399692
1474.500790	-14.451162
1475.226367	-14.490826
1475.952657	-14.541006
1476.679663	-14.598913
1477.407386	-14.659425
1478.135826	-14.756120
1478.864985	-14.859740
1479.594863	-14.982856
1480.325463	-15.145831
1481.056784	-15.309800
1481.788828	-15.497004
1482.521597	-15.696226
1483.255090	-15.884646
1483.989309	-16.071995
1484.724256	-16.221635
1485.459931	-16.344426
1486.196336	-16.426429
1486.933471	-16.440069
1487.671337	-16.426776
1488.409937	-16.362221
1489.149270	-16.255500
1489.889337	-16.141683
1490.630141	-16.004702
1491.371682	-15.876500
1492.113961	-15.752365
1492.856979	-15.642506
1493.600738	-15.568006
1494.345238	-15.500249
1495.090481	-15.473371
1495.836467	-15.477647
1496.583198	-15.502161
1497.330675	-15.569126
1498.078899	-15.655398
1498.827872	-15.778568
1499.577593	-15.918505
1500.328065	-16.072158
1501.079289	-16.249658
1501.831265	-16.405606
1502.583995	-16.555354
1503.337480	-16.670086
1504.091721	-16.728140
1504.846719	-16.727517
1505.602475	-16.634822
1506.358991	-16.476267
1507.116268	-16.231009
1507.874306	-15.917238
1508.633108	-15.568012
1509.392673	-15.177429
1510.153004	-14.786820
1510.914101	-14.395548
1511.675965	-14.030456
1512.438599	-13.699764
1513.202002	-13.401704
1513.966176	-13.165680
1514.731122	-12.976393
1515.496842	-12.854693
1516.263336	-12.798198
1517.030607	-12.817188
1517.798654	-12.922471
1518.567479	-13.108680
1519.337083	-13.408829
1520.107468	-13.816495
1520.878634	-14.364842
1521.650584	-15.072207
1522.423317	-15.981005
1523.196836	-17.156279
1523.971141	-18.671022
1524.746233	-20.737439
1525.522115	-23.674967
1526.298786	-28.465508
1527.076249	-36.918116
1527.854504	-30.438640
1528.633553	-24.192089
1529.413397	-20.428503
1530.194037	-17.726761
1530.975474	-15.648371
1531.757709	-13.953679
1532.540745	-12.542461
1533.324581	-11.336981
1534.109220	-10.292450
1534.894662	-9.387876
1535.680909	-8.592074
1536.467961	-7.899914
1537.255821	-7.291022
1538.044489	-6.766928
1538.833967	-6.314938
1539.624256	-5.932517
1540.415357	-5.617431
1541.207271	-5.364100
1542.000000	-5.174629
1542.793545	-5.040196
1543.587907	-4.966878
1544.383087	-4.946549
1545.179088	-4.982201
1545.975909	-5.068614
1546.773552	-5.206607
1547.572019	-5.395151
1548.371311	-5.628872
1549.171428	-5.911438
1549.972373	-6.235658
1550.774147	-6.607162
1551.576751	-7.016289
1552.380185	-7.469554
1553.184453	-7.961255
1553.989554	-8.493872
1554.795490	-9.065209
1555.602263	-9.673546
1556.409873	-10.324407
1557.218322	-11.006920
1558.027612	-11.727849
1558.837743	-12.468875
1559.648717	-13.233446
1560.460536	-13.990397
1561.273200	-14.720145
1562.086710	-15.383443
1562.901069	-15.935814
1563.716278	-16.346737
1564.532337	-16.570261
1565.349249	-16.626194
1566.167014	-16.518486
1566.985634	-16.306442
1567.805111	-16.019617
1568.625444	-15.700488
1569.446637	-15.381854
1570.268690	-15.075963
1571.091605	-14.807379
1571.915382	-14.564591
1572.740024	-14.369615
1573.565532	-14.205989
1574.391907	-14.089410
1575.219150	-14.000922
1576.047262	-13.950111
1576.876246	-13.925466
1577.706103	-13.928534
1578.536833	-13.951692
1579.368439	-13.988071
1580.200922	-14.039740
1581.034282	-14.093940
1581.868522	-14.157363
1582.703643	-14.212015
1583.539646	-14.273119
1584.376532	-14.322381
1585.214304	-14.378110
1586.052962	-14.420646
1586.892508	-14.472132
1587.732943	-14.516507
1588.574269	-14.574070
1589.416487	-14.629747
1590.259599	-14.701082
1591.103605	-14.778749
1591.948508	-14.874453
1592.794309	-14.981437
1593.641009	-15.104492
1594.488609	-15.243742
1595.337112	-15.397398
1596.186518	-15.569544
1597.036829	-15.749860
1597.888047	-15.949424
1598.740172	-16.152619
1599.593207	-16.374919
1600.447153	-16.593216
1601.302010	-16.827505
1602.157782	-17.052335
1603.014469	-17.291314
1603.872072	-17.514409
1604.730593	-17.745656
1605.590034	-17.954464
1606.450397	-18.166738
1607.311681	-18.351577
1608.173890	-18.531023
1609.037024	-18.675742
1609.901085	-18.807364
1610.766075	-18.901883
1611.631995	-18.977184
1612.498846	-19.012284
1613.366630	-19.023534
1614.235349	-18.997683
1615.105004	-18.949133
1615.975596	-18.868440
1616.847128	-18.766559
1617.719600	-18.639818
1618.593014	-18.498514
1619.467372	-18.341887
1620.342675	-18.176344
1621.218924	-18.002435
1622.096122	-17.825481
1622.974270	-17.648063
1623.853369	-17.472750
1624.733420	-17.301027
1625.614427	-17.133990
1626.496389	-16.973616
1627.379308	-16.820614
1628.263187	-16.674865
1629.148026	-16.535687
1630.033828	-16.401820
1630.920593	-16.273550
1631.808324	-16.148297
1632.697022	-16.026710
1633.586688	-15.904080
1634.477324	-15.783564
1635.368932	-15.659681
1636.261514	-15.537649
1637.155070	-15.409893
1638.049602	-15.284201
1638.945113	-15.152238
1639.841603	-15.025039
1640.739075	-14.892520
1641.637529	-14.767471
1642.536968	-14.638522
1643.437393	-14.520515
1644.338806	-14.400827
1645.241209	-14.294164
1646.144602	-14.186121
1647.048988	-14.091378
1647.954368	-13.995485
1648.860744	-13.912463
1649.768118	-13.827950
1650.676491	-13.753956
1651.585865	-13.677924
1652.496241	-13.609905
1653.407621	-13.539978
1654.320008	-13.474908
1655.233401	-13.408395
1656.147804	-13.344027
1657.063218	-13.280593
1657.979645	-13.217872
1658.897085	-13.158940
1659.815542	-13.099231
1660.735016	-13.046050
1661.655509	-12.991447
1662.577023	-12.945608
1663.499560	-12.897695
1664.423121	-12.858879
1665.347709	-12.817653
1666.273324	-12.784835
1667.199969	-12.750297
1668.127645	-12.721791
1669.056353	-12.692448
1669.986097	-12.665772
1670.916877	-12.640600
1671.848695	-12.615467
1672.781553	-12.594661
1673.715452	-12.571535
1674.650395	-12.554617
1675.586383	-12.534349
1676.523418	-12.521186
1677.461501	-12.505073
1678.400635	-12.494624
1679.340821	-12.482657
1680.282061	-12.473625
1681.224357	-12.466058
1682.167710	-12.458543
1683.112122	-12.455305
1684.057595	-12.449345
1685.004132	-12.448773
1685.951732	-12.443965
1686.900400	-12.443777
1687.850135	-12.440228
1688.800940	-12.439321
1689.752818	-12.438274
1690.705768	-12.437364
1691.659795	-12.439712
1692.614898	-12.439488
1693.571081	-12.444114
1694.528345	-12.444930
1695.486691	-12.450193
1696.446122	-12.452770
1697.406640	-12.457186
1698.368245	-12.461609
1699.330941	-12.464564
1700.294729	-12.470718
1701.259611	-12.473518
1702.225588	-12.481003
1703.192664	-12.485174
1704.160838	-12.492437
1705.130114	-12.498541
1706.100493	-12.504549
1707.071977	-12.512543
1708.044568	-12.517637
1709.018268	-12.526719
1709.993079	-12.532400
1710.969003	-12.541448
1711.946041	-12.549210
1712.924196	-12.557288
1713.903469	-12.566904
1714.883862	-12.573791
1715.865378	-12.584168
1716.848017	-12.591552
1717.831783	-12.601970
1718.816677	-12.611697
1719.802701	-12.621674
1720.789857	-12.633703
1721.778147	-12.643317
1722.767573	-12.656039
1723.758136	-12.666116
1724.749840	-12.677907
1725.742685	-12.689391
1726.736673	-12.700188
1727.731808	-12.713505
1728.728090	-12.724805
1729.725521	-12.739220
1730.724105	-12.752356
1731.723842	-12.766411
1732.724735	-12.781396
1733.726785	-12.794559
1734.729995	-12.810146
1735.734366	-12.823302
1736.739902	-12.838160
1737.746603	-12.852811
1738.754472	-12.866824
1739.763510	-12.883209
1740.773721	-12.897286
1741.785105	-12.913637
1742.797665	-12.928736
1743.811403	-12.943430
1744.826321	-12.959572
1745.842422	-12.973038
1746.859706	-12.988719
1747.878177	-13.002610
1748.897835	-13.016381
1749.918685	-13.031323
1750.940726	-13.043654
1751.963963	-13.058319
1752.988395	-13.071162
1754.014027	-13.084019
1755.040860	-13.098177
1756.068895	-13.109959
1757.098135	-13.124234
1758.128583	-13.137232
1759.160240	-13.150313
1760.193109	-13.165271
1761.227191	-13.178104
1762.262488	-13.193453
1763.299004	-13.208064
1764.336740	-13.222284
1765.375697	-13.238600
1766.415880	-13.252595
1767.457288	-13.268424
1768.499926	-13.283864
1769.543794	-13.297987
1770.588895	-13.314329
1771.635231	-13.328378
1772.682805	-13.343328
1773.731619	-13.358611
1774.781674	-13.371630
1775.832973	-13.386611
1776.885519	-13.399793
1777.939312	-13.412672
1778.994357	-13.427046
1780.050654	-13.439082
1781.108207	-13.452676
1782.167017	-13.465787
1783.227087	-13.477195
1784.288418	-13.490507
1785.351013	-13.501928
1786.414875	-13.513672
1787.480006	-13.526659
1788.546407	-13.537569
1789.614082	-13.549989
1790.683032	-13.562034
1791.753259	-13.572792
1792.824767	-13.585595
1793.897557	-13.597335
1794.971632	-13.609656
1796.046994	-13.623770
1797.123645	-13.636618
1798.201588	-13.650737
1799.280824	-13.664930
1800.361357	-13.677504
1801.443188	-13.691162
1802.526320	-13.703900
1803.610756	-13.716399
1804.696497	-13.730495
1805.783546	-13.743674
1806.871906	-13.757168
1807.961578	-13.770869
1809.052565	-13.782786
1810.144870	-13.795116
1811.238494	-13.806865
1812.333441	-13.817351
1813.429713	-13.828372
1814.527311	-13.838153
1815.626239	-13.847170
1816.726499	-13.857021
1817.828094	-13.865931
1818.931025	-13.875098
1820.035295	-13.884781
1821.140906	-13.892978
1822.247862	-13.901085
1823.356165	-13.908722
1824.465816	-13.914537
1825.576819	-13.920422
1826.689175	-13.925823
1827.802888	-13.930265
1828.917960	-13.935498
1830.034394	-13.940148
1831.152191	-13.943882
1832.271354	-13.948053
1833.391887	-13.951332
1834.513790	-13.954296
1835.637068	-13.958312
1836.761722	-13.961902
1837.887755	-13.965429
1839.015169	-13.969338
1840.143968	-13.972003
1841.274153	-13.974195
1842.405727	-13.976723
1843.538693	-13.978586
1844.673053	-13.980726
1845.808810	-13.983427
1846.945966	-13.985000
1848.084525	-13.986059
1849.224488	-13.986941
1850.365858	-13.986512
1851.508638	-13.986194
1852.652831	-13.986559
1853.798438	-13.986274
1854.945463	-13.986263
1856.093909	-13.986504
1857.243777	-13.985236
1858.395071	-13.983394
1859.547794	-13.981414
1860.701947	-13.978419
1861.857533	-13.975894
1863.014556	-13.974305
1864.173018	-13.972298
1865.332922	-13.970106
1866.494270	-13.967626
1867.657065	-13.963694
1868.821309	-13.959307
1869.987006	-13.955351
1871.154158	-13.950847
1872.322768	-13.945931
1873.492839	-13.940767
1874.664373	-13.934104
1875.837373	-13.926567
1877.011841	-13.919189
1878.187782	-13.911105
1879.365197	-13.902709
1880.544089	-13.894520
1881.724460	-13.885285
1882.906315	-13.875110
1884.089655	-13.864609
1885.274483	-13.853080
1886.460803	-13.841284
1887.648616	-13.830116
1888.837927	-13.818590
1890.028736	-13.806507
1891.221049	-13.794152
1892.414866	-13.781045
1893.610192	-13.767604
1894.807028	-13.754678
1896.005379	-13.742133
1897.205246	-13.729624
1898.406633	-13.716905
1899.609542	-13.703933
1900.813977	-13.690900
1902.019940	-13.677705
1903.227434	-13.664842
1904.436462	-13.652767
1905.647028	-13.640710
1906.859133	-13.628650
1908.072781	-13.617176
1909.287976	-13.605190
1910.504719	-13.592473
1911.723013	-13.580351
1912.942863	-13.568323
1914.164270	-13.555951
1915.387238	-13.544440
1916.611770	-13.533012
1917.837868	-13.520530
1919.065536	-13.508390
1920.294777	-13.496699
1921.525594	-13.483953
1922.757989	-13.471109
1923.991967	-13.458734
1925.227529	-13.445314
1926.464679	-13.431129
1927.703420	-13.417126
1928.943755	-13.402091
1930.185688	-13.385970
1931.429221	-13.370483
1932.674356	-13.355225
1933.921099	-13.339007
1935.169451	-13.322601
1936.419415	-13.306424
1937.670996	-13.289719
1938.924195	-13.272830
1940.179017	-13.256530
1941.435463	-13.240355
1942.693538	-13.223760
1943.953245	-13.207136
1945.214586	-13.190627
1946.477566	-13.174159
1947.742186	-13.158106
1949.008451	-13.142657
1950.276363	-13.127208
1951.545926	-13.111294
1952.817143	-13.095391
1954.090017	-13.080072
1955.364551	-13.065292
1956.640749	-13.050802
1957.918615	-13.036539
1959.198150	-13.022387
1960.479359	-13.008270
1961.762244	-12.994529
1963.046810	-12.981533
1964.333059	-12.969221
1965.620995	-12.957239
1966.910621	-12.945600
1968.201940	-12.934397
1969.494956	-12.923593
1970.789672	-12.913153
1972.086091	-12.903109
1973.384217	-12.893241
1974.684053	-12.883289
1975.985602	-12.873247
1977.288869	-12.863081
1978.593855	-12.852506
1979.900566	-12.841438
1981.209003	-12.830202
1982.519171	-12.819086
1983.831073	-12.808061
1985.144712	-12.796823
1986.460093	-12.785148
1987.777217	-12.772949
1989.096089	-12.760463
1990.416713	-12.748145
1991.739092	-12.736245
1993.063228	-12.724686
1994.389127	-12.713153
1995.716791	-12.701459
1997.046223	-12.689585
1998.377428	-12.677751
1999.710409	-12.666465
2001.045169	-12.656060
2002.381713	-12.646226
2003.720043	-12.636254
2005.060163	-12.625883
2006.402077	-12.615680
2007.745788	-12.606268
2009.091301	-12.597552
2010.438618	-12.588895
2011.787743	-12.580188
2013.138680	-12.572154
2014.491433	-12.565628
2015.846005	-12.560763
2017.202399	-12.556988
2018.560621	-12.553520
2019.920673	-12.550109
2021.282558	-12.546936
2022.646281	-12.543814
2024.011846	-12.540171
2025.379256	-12.535704
2026.748515	-12.530867
2028.119626	-12.526753
2029.492594	-12.524357
2030.867422	-12.523532
2032.244114	-12.523252
2033.622673	-12.522610
2035.003104	-12.521446
2036.385411	-12.519756
2037.769597	-12.517250
2039.155665	-12.513388
2040.543621	-12.507615
2041.933467	-12.499795
2043.325208	-12.490663
2044.718847	-12.481548
2046.114389	-12.473581
2047.511837	-12.467242
2048.911195	-12.463096
2050.312467	-12.462013
2051.715657	-12.464285
2053.120769	-12.469366
2054.527807	-12.476488
2055.936775	-12.485284
2057.347677	-12.495544
2058.760516	-12.506179
2060.175297	-12.515356
2061.592025	-12.521737
2063.010701	-12.525192
2064.431332	-12.525807
2065.853921	-12.522720
2067.278472	-12.515094
2068.704988	-12.503181
2070.133475	-12.487932
2071.563936	-12.470569
2072.996375	-12.452833
2074.430796	-12.436360
2075.867204	-12.422195
2077.305603	-12.410916
2078.745996	-12.403881
2080.188389	-12.402781
2081.632784	-12.408242
2083.079187	-12.420023
2084.527601	-12.437979
2085.978030	-12.462055
2087.430480	-12.491506
2088.884954	-12.525090
2090.341455	-12.561915
2091.799990	-12.601329
2093.260561	-12.642239
2094.723173	-12.683306
2096.187831	-12.723346
2097.654538	-12.761773
2099.123300	-12.798310
2100.594119	-12.832244
2102.067001	-12.862184
2103.541950	-12.887060
2105.018971	-12.907069
2106.498067	-12.922686
2107.979243	-12.933472
2109.462503	-12.938548
2110.947853	-12.937589
2112.435295	-12.931242
2113.924836	-12.920334
2115.416478	-12.905299
2116.910227	-12.887061
2118.406087	-12.867687
2119.904063	-12.849482
2121.404158	-12.834341
2122.906378	-12.823296
2124.410727	-12.817624
2125.917210	-12.818996
2127.425831	-12.828187
2128.936594	-12.844799
2130.449505	-12.867737
2131.964567	-12.896233
2133.481786	-12.929852
2135.001166	-12.967193
2136.522711	-13.006095
2138.046427	-13.045248
2139.572317	-13.084447
2141.100388	-13.123459
2142.630642	-13.161182
2144.163085	-13.196902
2145.697722	-13.230398
2147.234558	-13.261240
2148.773596	-13.288913
2150.314842	-13.313297
2151.858301	-13.334997
2153.403977	-13.355013
2154.951875	-13.374372
2156.502000	-13.393634
2158.054357	-13.413191
2159.608950	-13.433660
2161.165785	-13.455375
2162.724866	-13.478091
2164.286198	-13.501832
2165.849786	-13.526860
2167.415635	-13.553374
2168.983749	-13.580559
2170.554134	-13.607079
2172.126795	-13.633465
2173.701737	-13.661514
2175.278964	-13.691535
2176.858481	-13.722534
2178.440294	-13.754422
2180.024408	-13.787904
2181.610827	-13.823533
2183.199557	-13.860740
2184.790602	-13.898356
2186.383968	-13.936237
2187.979660	-13.975032
2189.577683	-14.014698
2191.178041	-14.054905
2192.780741	-14.095105
2194.385787	-14.134998
2195.993185	-14.175383
2197.602939	-14.216750
2199.215054	-14.252185
