# 2022-03-22_00.58.27
# shape = sech2
# FWHM_ps = 0.1
# carrier_nm = 1542
# frep_MHz = 12126
# pow_mW = 8000
# GDD = 0.0
# propa_len = 0.14622222222222223
# untap_len = 0.01
# taper_len = 0.08622222222222223
# waist_len = 0.02
# uptap_len = 0.02
# untap_scale = 1.0
# waist_scale = 0.19473684210526318
# workingDir = NL_20110305_12 (Spirou)
# axis = slow
# window_ps = 10.0
# steps = 200
# points = 21700
# 
# wavelength [nm]	 power spectral density [dB]
600.043425	-90.983663
600.163550	-91.538782
600.283723	-91.677673
600.403943	-91.526959
600.524212	-92.048058
600.644529	-93.466098
600.764895	-94.818913
600.885308	-94.778216
601.005770	-94.294075
601.126280	-94.407529
601.246839	-95.371687
601.367446	-96.849681
601.488101	-98.886923
601.608804	-101.714533
601.729557	-105.239059
601.850357	-111.988733
601.971206	-102.877257
602.092104	-96.880392
602.213050	-94.584842
602.334045	-93.831430
602.455089	-92.266746
602.576181	-90.051378
602.697322	-88.705422
602.818511	-88.208005
602.939749	-88.047470
603.061036	-87.812464
603.182372	-87.775239
603.303757	-88.097793
603.425191	-88.570669
603.546673	-88.855453
603.668204	-88.770515
603.789785	-88.373518
603.911414	-87.976825
604.033092	-87.830444
604.154820	-87.883572
604.276596	-87.677132
604.398422	-86.998786
604.520297	-86.297378
604.642220	-86.098322
604.764193	-86.453458
604.886216	-86.693009
605.008287	-86.581432
605.130408	-86.563755
605.252578	-87.155033
605.374798	-88.283656
605.497066	-89.411230
605.619385	-90.082648
605.741752	-90.781467
605.864169	-92.129417
605.986636	-93.577813
606.109152	-94.547983
606.231718	-95.634113
606.354333	-96.863963
606.476998	-97.536149
606.599712	-97.656570
606.722476	-97.774792
606.845290	-98.185715
606.968154	-98.267180
607.091067	-97.122418
607.214030	-95.478785
607.337043	-94.938493
607.460106	-95.893748
607.583219	-97.462549
607.706381	-97.948574
607.829594	-98.831935
607.952856	-98.323417
608.076169	-94.110196
608.199531	-90.701568
608.322944	-88.877030
608.446407	-87.893997
608.569920	-87.332288
608.693483	-87.137585
608.817096	-87.405420
608.940759	-88.140280
609.064473	-89.472911
609.188237	-91.652206
609.312051	-95.211800
609.435916	-101.097106
609.559831	-105.480193
609.683796	-100.295732
609.807812	-98.048179
609.931878	-97.663610
610.055995	-98.374724
610.180162	-101.581193
610.304380	-102.224476
610.428648	-95.238810
610.552967	-91.413339
610.677337	-89.606632
610.801757	-88.550905
610.926228	-87.578971
611.050750	-86.777929
611.175323	-86.417547
611.299946	-86.432032
611.424620	-86.445952
611.549345	-86.309046
611.674121	-85.777468
611.798948	-84.804166
611.923826	-83.794576
612.048755	-83.042175
612.173734	-82.437530
612.298765	-81.918191
612.423847	-81.623723
612.548980	-81.657514
612.674165	-81.647686
612.799400	-81.270105
612.924687	-80.697565
613.050025	-80.273409
613.175414	-80.009242
613.300854	-79.753057
613.426346	-79.512309
613.551889	-79.463063
613.677484	-79.700699
613.803130	-80.137620
613.928827	-80.620510
614.054576	-81.086349
614.180377	-81.369604
614.306229	-81.320819
614.432132	-81.147352
614.558087	-80.946518
614.684094	-80.545847
614.810153	-80.068656
614.936263	-79.962978
615.062425	-80.386600
615.188639	-81.167480
615.314904	-82.113202
615.441222	-83.536056
615.567591	-85.785764
615.694012	-87.879833
615.820486	-87.982589
615.947011	-87.705684
616.073588	-88.400952
616.200217	-89.670024
616.326898	-90.997331
616.453632	-93.769762
616.580417	-98.704732
616.707255	-95.355961
616.834144	-90.890628
616.961086	-88.479685
617.088081	-87.174858
617.215127	-86.351648
617.342226	-85.770017
617.469378	-85.781261
617.596581	-86.690804
617.723837	-88.348493
617.851146	-89.779781
617.978507	-90.112389
618.105920	-90.531863
618.233386	-91.963949
618.360905	-92.699641
618.488476	-91.650375
618.616100	-90.967842
618.743777	-91.553112
618.871506	-93.098923
618.999288	-93.838820
619.127123	-92.669004
619.255011	-91.180907
619.382951	-90.005328
619.510945	-88.571982
619.638991	-86.844399
619.767090	-85.257336
619.895243	-84.070745
620.023448	-83.385911
620.151706	-83.314642
620.280017	-83.948755
620.408382	-85.013117
620.536799	-86.162984
620.665270	-87.590174
620.793794	-89.711858
620.922371	-90.603083
621.051002	-88.801506
621.179686	-87.403619
621.308423	-87.282538
621.437213	-88.004661
621.566057	-89.351327
621.694954	-91.857973
621.823905	-96.235458
621.952909	-104.894257
622.081967	-105.665998
622.211079	-96.483812
622.340244	-92.422874
622.469462	-90.831753
622.598735	-90.940202
622.728061	-92.354574
622.857441	-94.562946
622.986874	-96.463352
623.116361	-96.691318
623.245903	-95.997086
623.375498	-95.417909
623.505147	-94.293094
623.634850	-92.671764
623.764606	-91.399839
623.894417	-90.950732
624.024282	-91.626881
624.154201	-93.582223
624.284174	-96.315091
624.414202	-98.898305
624.544283	-99.479156
624.674419	-96.382953
624.804609	-93.202011
624.934853	-91.290254
625.065151	-90.574661
625.195504	-90.715228
625.325911	-91.897713
625.456373	-95.086561
625.586889	-103.616070
625.717460	-105.592907
625.848085	-95.775998
625.978764	-91.354840
626.109498	-88.884774
626.240287	-87.854638
626.371131	-87.989543
626.502029	-88.904746
626.632982	-90.171451
626.763989	-92.271305
626.895052	-97.218174
627.026169	-110.029406
627.157341	-95.535197
627.288568	-90.288313
627.419850	-87.422822
627.551187	-85.676430
627.682579	-84.511014
627.814026	-83.916011
627.945528	-83.939049
628.077085	-84.441135
628.208697	-85.328545
628.340364	-85.310131
628.472087	-83.612387
628.603865	-81.535380
628.735698	-79.867221
628.867586	-78.660507
628.999530	-77.807742
629.131529	-77.511072
629.263584	-77.787017
629.395694	-78.350779
629.527859	-78.831865
629.660080	-79.055627
629.792357	-79.226558
629.924689	-79.280812
630.057077	-79.251618
630.189520	-79.372631
630.322019	-79.764855
630.454574	-80.491894
630.587184	-81.634421
630.719851	-83.097837
630.852573	-84.301581
630.985351	-84.872436
631.118185	-85.234514
631.251075	-85.372052
631.384021	-84.860269
631.517023	-83.955530
631.650081	-83.094973
631.783195	-82.529236
631.916365	-82.276062
632.049592	-82.464323
632.182874	-83.237197
632.316213	-84.519347
632.449608	-86.006115
632.583059	-87.105910
632.716567	-86.912727
632.850131	-85.433419
632.983751	-84.172934
633.117428	-83.904273
633.251161	-84.463875
633.384951	-85.537258
633.518797	-87.026697
633.652700	-89.381846
633.786660	-92.654621
633.920676	-96.525063
634.054749	-101.418769
634.188879	-108.326598
634.323065	-100.074046
634.457308	-94.139661
634.591608	-91.013879
634.725965	-89.409829
634.860379	-88.645299
634.994850	-88.597180
635.129377	-89.760026
635.263962	-92.252837
635.398604	-95.013720
635.533303	-95.496389
635.668058	-95.116061
635.802872	-94.232466
635.937742	-92.024524
636.072669	-88.970138
636.207654	-86.065692
636.342696	-83.891979
636.477796	-82.580182
636.612953	-82.100531
636.748167	-82.618390
636.883439	-84.538681
637.018768	-88.677304
637.154155	-99.503795
637.289599	-92.929360
637.425101	-85.605307
637.560660	-82.392233
637.696277	-81.038002
637.831952	-80.800613
637.967685	-81.251123
638.103475	-82.213885
638.239324	-83.528339
638.375230	-84.745788
638.511194	-85.560841
638.647215	-86.498328
638.783295	-88.510935
638.919433	-92.472131
639.055629	-92.577343
639.191883	-86.560837
639.328195	-82.461187
639.464565	-79.989912
639.600994	-78.752522
639.737481	-78.596552
639.874025	-79.423331
640.010629	-81.154572
640.147290	-83.963041
640.284010	-88.845863
640.420789	-96.820083
640.557625	-90.178954
640.694521	-85.356327
640.831474	-82.888436
640.968487	-81.463241
641.105558	-80.813109
641.242687	-80.985336
641.379876	-82.087611
641.517123	-84.357529
641.654429	-88.053787
641.791793	-88.393075
641.929216	-83.828768
642.066699	-80.727216
642.204240	-79.135092
642.341840	-78.533988
642.479499	-78.940904
642.617217	-80.824078
642.754994	-85.006490
642.892830	-91.756042
643.030726	-87.888710
643.168680	-83.346435
643.306694	-81.058596
643.444767	-80.251439
643.582899	-80.873254
643.721091	-83.096687
643.859342	-87.344175
643.997652	-92.109230
644.136022	-89.873360
644.274451	-87.485614
644.412940	-86.943043
644.551488	-87.064298
644.690096	-86.037757
644.828763	-83.718818
644.967490	-81.838363
645.106277	-81.154435
645.245124	-81.710222
645.384030	-83.614005
645.522997	-87.775957
645.662023	-100.789348
645.801109	-92.075095
645.940255	-85.676349
646.079460	-83.389854
646.218726	-82.924239
646.358052	-83.433462
646.497438	-84.090493
646.636884	-83.900242
646.776391	-83.227849
646.915957	-83.388142
647.055584	-85.700055
647.195271	-92.073825
647.335019	-88.686410
647.474826	-81.681680
647.614695	-77.755070
647.754623	-75.481277
647.894612	-74.535499
648.034662	-74.794104
648.174772	-76.144457
648.314943	-78.283854
648.455174	-79.923954
648.595466	-78.974781
648.735819	-76.822305
648.876233	-75.302168
649.016707	-74.727325
649.157242	-75.134915
649.297838	-76.551079
649.438495	-79.140454
649.579213	-83.366067
649.719992	-88.592939
649.860832	-85.928762
650.001733	-81.455291
650.142695	-78.623143
650.283718	-76.941685
650.424803	-76.200584
650.565949	-76.408361
650.707156	-77.761763
650.848424	-80.890034
650.989754	-86.982316
651.131145	-86.876667
651.272597	-81.431582
651.414111	-78.743409
651.555687	-77.859225
651.697324	-78.536469
651.839022	-81.061111
651.980782	-86.054657
652.122604	-88.649456
652.264488	-84.031968
652.406433	-81.710880
652.548441	-81.825947
652.690510	-84.653522
652.832640	-91.135410
652.974833	-85.953713
653.117088	-80.315787
653.259405	-77.755578
653.401784	-77.154771
653.544224	-78.267447
653.686727	-81.571419
653.829293	-89.596998
653.971920	-91.105414
654.114609	-83.678719
654.257361	-81.598371
654.400175	-82.163885
654.543052	-84.765027
654.685991	-85.394439
654.828992	-81.334630
654.972056	-78.363443
655.115183	-77.190044
655.258372	-77.792039
655.401623	-80.712302
655.544937	-88.471136
655.688314	-87.578307
655.831754	-80.064085
655.975256	-76.996865
656.118822	-76.117318
656.262450	-77.021619
656.406141	-80.171701
656.549894	-88.244273
656.693711	-92.064570
656.837591	-82.873065
656.981534	-80.474838
657.125540	-81.080489
657.269610	-84.643689
657.413742	-88.544436
657.557938	-82.369008
657.702196	-78.421433
657.846519	-77.064853
657.990904	-77.639203
658.135353	-80.298450
658.279866	-87.183408
658.424441	-89.553864
658.569081	-81.075668
658.713784	-77.892387
658.858550	-77.083995
659.003381	-78.029303
659.148274	-80.852941
659.293232	-86.377202
659.438253	-92.167240
659.583339	-86.965126
659.728488	-84.485534
659.873701	-83.705887
660.018978	-81.943688
660.164318	-79.196388
660.309723	-77.099846
660.455192	-76.371923
660.600725	-77.478406
660.746323	-81.538643
660.891984	-90.840746
661.037710	-81.872066
661.183500	-76.868150
661.329354	-74.888919
661.475272	-74.869141
661.621255	-76.865179
661.767303	-82.181005
661.913415	-99.512525
662.059591	-83.149353
662.205833	-79.225226
662.352138	-79.070343
662.498509	-82.509726
662.644944	-99.763335
662.791443	-81.807162
662.938008	-75.712212
663.084638	-73.123486
663.231332	-72.451245
663.378091	-73.449732
663.524915	-76.513240
663.671804	-81.031662
663.818759	-78.402022
663.965778	-74.670178
664.112863	-73.176776
664.260012	-73.460262
664.407227	-75.340961
664.554507	-78.350740
664.701853	-79.862183
664.849264	-79.351250
664.996740	-80.656221
665.144282	-87.514320
665.291889	-83.360722
665.439561	-75.425153
665.587300	-71.611494
665.735103	-69.886149
665.882973	-69.749458
666.030908	-71.097445
666.178909	-73.876857
666.326976	-76.916391
666.475109	-75.940569
666.623307	-73.490850
666.771571	-72.500359
666.919902	-73.135070
667.068298	-75.127868
667.216761	-77.397773
667.365289	-77.808827
667.513884	-77.382272
667.662545	-78.686021
667.811272	-83.475782
667.960065	-81.661153
668.108925	-74.807987
668.257851	-71.287944
668.406843	-69.837753
668.555902	-70.010035
668.705027	-72.002079
668.854219	-76.798908
669.003478	-84.751332
669.152803	-79.114681
669.302195	-75.966591
669.451653	-76.130320
669.601179	-78.740585
669.750771	-79.333290
669.900430	-75.331932
670.050156	-72.794329
670.199949	-72.321276
670.349808	-73.837069
670.499735	-76.917358
670.649729	-76.705410
670.799790	-73.037696
670.949918	-70.654159
671.100114	-69.964432
671.250377	-70.849559
671.400707	-73.360280
671.551104	-77.988225
671.701569	-85.373376
671.852101	-84.549760
672.002700	-81.251225
672.153368	-79.540468
672.304102	-77.002464
672.454905	-74.264203
672.605775	-72.555700
672.756713	-72.248356
672.907718	-73.568871
673.058791	-76.627540
673.209933	-77.483650
673.361142	-73.643698
673.512419	-71.123568
673.663764	-70.602192
673.815177	-72.062542
673.966658	-76.514050
674.118207	-89.718473
674.269825	-79.359789
674.421510	-74.993475
674.573264	-74.773214
674.725086	-78.519381
674.876977	-93.369526
675.028936	-77.676911
675.180963	-72.634822
675.333059	-71.056220
675.485224	-71.764269
675.637457	-74.679120
675.789758	-78.738817
675.942129	-76.665749
676.094568	-73.340169
676.247075	-72.346926
676.399652	-73.709412
676.552298	-78.200258
676.705012	-94.184873
676.857795	-82.515013
677.010648	-77.750817
677.163569	-77.859438
677.316560	-82.993829
677.469619	-93.558396
677.622748	-78.551525
677.775946	-74.382352
677.929214	-73.337527
678.082551	-74.788002
678.235957	-79.118590
678.389432	-79.762372
678.542977	-74.463767
678.696592	-71.801904
678.850276	-71.333426
679.004030	-73.073199
679.157853	-77.935602
679.311746	-80.705978
679.465709	-75.047045
679.619742	-72.537671
679.773844	-72.646543
679.928017	-75.517586
680.082259	-83.916016
680.236571	-84.618210
680.390954	-77.655413
680.545406	-76.807003
680.699929	-80.467417
680.854522	-89.244541
681.009185	-77.656836
681.163918	-73.278956
681.318722	-72.456634
681.473596	-74.806286
681.628540	-83.057691
681.783555	-78.934464
681.938641	-72.173802
682.093797	-69.796446
682.249023	-70.125434
682.404321	-73.471736
682.559689	-81.344409
682.715128	-76.032698
682.870637	-71.190456
683.026218	-69.873476
683.181869	-71.240094
683.337591	-76.315918
683.493385	-106.009662
683.649249	-77.756556
683.805185	-74.135248
683.961191	-74.765601
684.117269	-79.249188
684.273418	-79.699505
684.429639	-73.955794
684.585930	-71.652649
684.742294	-72.191872
684.898728	-76.116608
685.055234	-81.270741
685.211812	-73.776829
685.368461	-69.976485
685.525182	-69.048101
685.681975	-70.366809
685.838839	-74.533744
685.995775	-85.657978
686.152783	-80.091531
686.309863	-75.422339
686.467014	-74.810683
686.624238	-75.300945
686.781534	-73.924436
686.938902	-71.843958
687.096342	-71.248345
687.253854	-72.900499
687.411438	-76.485677
687.569095	-73.970889
687.726824	-69.384854
687.884626	-67.016106
688.042499	-66.562481
688.200446	-67.928817
688.358465	-71.254558
688.516556	-75.737556
688.674720	-75.009100
688.832957	-72.112293
688.991266	-70.653667
689.149649	-70.076043
689.308104	-69.845342
689.466632	-70.128341
689.625233	-71.557377
689.783906	-74.177925
689.942653	-73.781834
690.101473	-69.895962
690.260367	-67.276239
690.419333	-66.433404
690.578372	-67.269337
690.737485	-69.992912
690.896672	-75.325525
691.055931	-78.691597
691.215264	-74.585790
691.374671	-72.783963
691.534151	-72.662255
691.693704	-72.697943
691.853332	-72.288143
692.013033	-72.540252
692.172807	-74.912609
692.332656	-81.136428
692.492578	-77.523206
692.652575	-71.818290
692.812645	-69.604856
692.972789	-69.792442
693.133007	-72.582755
693.293300	-80.519568
693.453666	-85.329808
693.614107	-76.031445
693.774622	-74.376584
693.935211	-76.197192
694.095875	-79.935214
694.256613	-78.023246
694.417426	-75.342390
694.578313	-75.614165
694.739274	-79.085868
694.900311	-80.707649
695.061421	-75.720874
695.222607	-73.539799
695.383868	-74.682259
695.545203	-81.500777
695.706613	-82.757105
695.868098	-73.437963
696.029658	-70.420458
696.191293	-70.330289
696.353003	-73.067921
696.514789	-80.163312
696.676649	-77.754089
696.838585	-72.239677
697.000596	-70.468465
697.162682	-70.998169
697.324844	-73.285753
697.487081	-76.994048
697.649394	-82.938755
697.811782	-88.593466
697.974246	-76.471704
698.136786	-71.034234
698.299401	-68.534139
698.462092	-68.219511
698.624859	-70.090864
698.787702	-73.593829
698.950621	-72.036689
699.113616	-68.226893
699.276686	-66.602593
699.439833	-67.127092
699.603056	-70.077262
699.766355	-76.980100
699.929731	-78.893204
700.093183	-73.643165
700.256711	-72.535577
700.420315	-73.306287
700.583996	-73.418777
700.747754	-72.601559
700.911588	-73.304534
701.075499	-77.440994
701.239486	-78.451266
701.403550	-71.718012
701.567691	-68.635237
701.731909	-68.268964
701.896203	-70.541041
702.060575	-77.097364
702.225024	-88.374507
702.389549	-76.829972
702.554152	-75.627527
702.718832	-79.230053
702.883589	-78.436727
703.048424	-73.042730
703.213335	-71.366279
703.378324	-73.085799
703.543391	-77.136079
703.708535	-72.876015
703.873757	-68.704867
704.039056	-67.564233
704.204433	-69.254043
704.369887	-74.521917
704.535420	-75.924612
704.701030	-70.517340
704.866718	-68.997667
705.032484	-70.740042
705.198328	-75.565653
705.364250	-74.574822
705.530250	-70.515170
705.696328	-69.889178
705.862485	-72.885559
706.028720	-82.315946
706.195033	-77.355838
706.361424	-73.225040
706.527894	-74.683034
706.694442	-85.672746
706.861069	-74.966307
707.027775	-68.915550
707.194559	-66.939804
707.361422	-67.011075
707.528363	-67.144900
707.695384	-65.384709
707.862483	-63.445919
708.029661	-62.796795
708.196918	-63.643192
708.364254	-65.639744
708.531670	-67.324850
708.699164	-67.256453
708.866738	-67.322818
709.034391	-69.333328
709.202123	-74.182807
709.369935	-76.925507
709.537826	-73.222458
709.705796	-71.469387
709.873847	-69.287798
710.041976	-65.942185
710.210186	-63.472674
710.378475	-62.616151
710.546844	-63.345366
710.715292	-65.250086
710.883821	-66.464803
711.052429	-65.934480
711.221118	-65.992110
711.389887	-68.312051
711.558735	-75.055843
711.727664	-79.270754
711.896673	-72.602553
712.065763	-71.788443
712.234932	-72.525777
712.404183	-69.154806
712.573513	-65.762929
712.742924	-64.624775
712.912416	-65.741959
713.081988	-69.010021
713.251641	-70.540123
713.421375	-68.295134
713.591190	-68.004183
713.761085	-71.082877
713.931061	-73.550519
714.101119	-68.789465
714.271257	-66.499877
714.441476	-67.170526
714.611777	-69.553179
714.782159	-68.226544
714.952622	-65.304135
715.123166	-64.584381
715.293792	-66.532568
715.464499	-70.033621
715.635288	-68.285523
715.806158	-65.698262
715.977110	-65.837929
716.148143	-67.828252
716.319259	-66.931111
716.490456	-63.982834
716.661735	-62.998552
716.833096	-64.436929
717.004538	-67.146149
717.176063	-66.010434
717.347670	-63.582532
717.519359	-63.439163
717.691130	-65.757030
717.862984	-68.435296
718.034920	-66.664623
718.206938	-65.432559
718.379039	-67.302115
718.551222	-71.544454
718.723488	-68.310435
718.895836	-65.168449
719.068267	-65.505866
719.240781	-69.194079
719.413377	-69.679056
719.586057	-65.245835
719.758819	-63.847907
719.931664	-65.177191
720.104593	-67.054356
720.277604	-65.231751
720.450699	-63.545570
720.623876	-64.263912
720.797137	-66.592959
720.970482	-65.169190
721.143910	-62.116268
721.317421	-61.169126
721.491016	-62.277502
721.664694	-63.815407
721.838456	-62.944568
722.012302	-61.720303
722.186231	-62.334217
722.360244	-65.074390
722.534342	-67.681012
722.708523	-66.710543
722.882788	-67.005515
723.057137	-71.121317
723.231570	-69.871036
723.406088	-64.152683
723.580689	-61.913520
723.755375	-61.962766
723.930146	-62.860790
724.105000	-62.481186
724.279940	-61.564761
724.454963	-62.122228
724.630072	-64.991764
724.805265	-69.231343
724.980543	-68.779758
725.155905	-68.323863
725.331353	-71.385422
725.506885	-68.612550
725.682503	-63.163895
725.858205	-60.749678
726.033993	-60.419465
726.209865	-60.868295
726.385823	-60.495682
726.561866	-59.809460
726.737995	-60.337068
726.914209	-62.745181
727.090508	-65.823486
727.266893	-65.479755
727.443364	-64.998544
727.619920	-67.491619
727.796562	-69.863033
727.973290	-65.320173
728.150103	-62.700278
728.327003	-62.543978
728.503988	-63.364839
728.681060	-63.015956
728.858218	-62.345551
729.035461	-63.488593
729.212791	-67.180603
729.390208	-67.394080
729.567710	-63.615329
729.745299	-62.366940
729.922975	-63.023374
730.100737	-62.901269
730.278586	-61.140091
730.456521	-60.267600
730.634543	-61.109765
730.812652	-62.873286
730.990848	-63.639651
731.169130	-64.103545
731.347500	-67.198157
731.525957	-74.358585
731.704500	-66.548064
731.883131	-62.162452
732.061850	-60.890048
732.240655	-60.755744
732.419548	-60.037923
732.598528	-59.053352
732.777596	-59.185060
732.956751	-60.875129
733.135994	-62.987603
733.315325	-63.353099
733.494744	-63.809729
733.674250	-67.113538
733.853844	-70.355395
734.033526	-64.915475
734.213296	-62.150276
734.393154	-61.846583
734.573101	-62.146124
734.753135	-61.509533
734.933258	-61.143446
735.113469	-62.701719
735.293769	-66.344886
735.474157	-66.397935
735.654633	-63.820020
735.835198	-63.926920
736.015852	-65.673094
736.196594	-64.361360
736.377426	-61.997585
736.558346	-61.597117
736.739355	-62.423891
736.920453	-62.093786
737.101640	-60.963024
737.282916	-61.335419
737.464282	-63.906456
737.645736	-66.359131
737.827280	-64.580373
738.008914	-63.838461
738.190637	-65.699816
738.372449	-66.473200
738.554351	-63.567537
738.736342	-62.058641
738.918424	-61.912005
739.100595	-60.921790
739.282855	-59.184046
739.465206	-58.578295
739.647647	-59.760696
739.830178	-62.385094
740.012799	-64.336150
740.195510	-64.989926
740.378311	-67.610649
740.561203	-71.132743
740.744185	-66.286221
740.927258	-63.107674
741.110421	-62.111165
741.293674	-61.178134
741.477018	-59.574046
741.660453	-58.683807
741.843979	-59.471597
742.027596	-62.329883
742.211303	-67.304144
742.395102	-72.124228
742.578991	-75.035040
742.762972	-68.855966
742.947044	-63.107160
743.131207	-60.518479
743.315461	-59.847953
743.499807	-59.682069
743.684244	-58.894208
743.868773	-58.277028
744.053394	-59.014159
744.238106	-61.671335
744.422910	-66.663114
744.607805	-72.955178
744.792793	-73.117256
744.977872	-66.952594
745.163044	-62.275114
745.348307	-60.020843
745.533663	-59.676836
745.719111	-60.298000
745.904651	-60.410198
746.090283	-60.184917
746.276008	-61.131565
746.461826	-64.139712
746.647735	-69.478438
746.833738	-74.332781
747.019833	-70.919412
747.206021	-65.504280
747.392302	-61.972931
747.578676	-60.451448
747.765143	-60.575272
747.951703	-61.854879
748.138356	-63.481774
748.325102	-65.168282
748.511941	-67.889764
748.698874	-72.034200
748.885900	-70.553500
749.073019	-66.321843
749.260232	-63.291264
749.447539	-61.025377
749.634939	-59.539295
749.822433	-58.988422
750.010021	-59.427203
750.197703	-61.088855
750.385479	-64.413016
750.573348	-70.443699
750.761312	-80.187950
750.949370	-72.287565
751.137523	-66.149017
751.325769	-62.689684
751.514110	-60.924968
751.702545	-59.981587
751.891075	-59.233804
752.079700	-58.903906
752.268419	-59.595174
752.457233	-61.830837
752.646142	-66.182487
752.835145	-74.858788
753.024244	-80.532647
753.213437	-68.690503
753.402726	-63.959840
753.592110	-61.710002
753.781589	-60.828479
753.971163	-60.070565
754.160833	-59.151032
754.350598	-59.033571
754.540459	-60.438134
754.730415	-63.463046
754.920467	-68.023780
755.110615	-74.741136
755.300858	-69.494453
755.491198	-63.707330
755.681633	-61.291135
755.872164	-60.655443
756.062792	-60.511985
756.253515	-60.236761
756.444335	-60.476330
756.635252	-62.045394
756.826264	-65.418280
757.017373	-71.894763
757.208579	-76.631830
757.399881	-65.419201
757.591280	-60.590906
757.782776	-58.569182
757.974368	-58.155991
758.166058	-58.411574
758.357844	-58.958938
758.549728	-60.458878
758.741708	-63.458098
758.933786	-67.045486
759.125961	-69.728960
759.318233	-69.369525
759.510603	-63.422604
759.703071	-59.482013
759.895635	-57.767997
760.088298	-57.378423
760.281058	-57.548384
760.473916	-58.262991
760.666872	-60.298014
760.859926	-63.444424
761.053078	-63.519913
761.246328	-62.182726
761.439676	-62.141657
761.633122	-61.165669
761.826667	-59.313673
762.020310	-58.536207
762.214052	-58.614513
762.407892	-58.747686
762.601831	-59.635306
762.795868	-62.750018
762.990004	-67.203035
763.184239	-63.988921
763.378573	-60.999639
763.573006	-59.571373
763.767538	-58.196147
763.962169	-57.080638
764.156900	-56.726065
764.351729	-56.624895
764.546658	-56.312241
764.741687	-56.590591
764.936815	-58.251030
765.132042	-60.404109
765.327370	-60.363005
765.522797	-59.273209
765.718324	-58.412885
765.913950	-57.568467
766.109677	-57.238892
766.305504	-57.578377
766.501431	-57.541054
766.697458	-56.680622
766.893586	-56.132399
767.089814	-56.463462
767.286142	-57.174800
767.482571	-57.544768
767.679100	-57.776629
767.875730	-58.041792
768.072461	-58.073139
768.269293	-58.230109
768.466225	-58.565449
768.663259	-57.700099
768.860393	-55.794043
769.057629	-54.486877
769.254966	-54.173493
769.452404	-54.532525
769.649944	-55.238836
769.847585	-56.145250
770.045328	-56.752169
770.243172	-56.263478
770.441118	-55.501422
770.639166	-55.322251
770.837315	-55.191183
771.035567	-54.573267
771.233920	-54.284513
771.432376	-54.879535
771.630934	-55.947023
771.829594	-56.931372
772.028356	-57.467084
772.227220	-56.186853
772.426188	-53.953326
772.625257	-52.742459
772.824430	-52.722118
773.023705	-53.078024
773.223083	-53.402517
773.422563	-54.202098
773.622147	-55.236099
773.821834	-55.407361
774.021624	-55.382959
774.221517	-55.423320
774.421513	-54.122121
774.621613	-52.572470
774.821816	-52.133820
775.022122	-52.461535
775.222532	-52.736651
775.423046	-53.206265
775.623664	-54.067292
775.824385	-54.075734
776.025211	-53.593666
776.226140	-54.184847
776.427173	-54.952018
776.628311	-54.059261
776.829553	-53.087851
777.030899	-52.645015
777.232350	-52.043494
777.433905	-51.803332
777.635564	-52.517172
777.837328	-53.230922
778.039197	-53.163373
778.241171	-53.606537
778.443250	-54.601685
778.645433	-54.125534
778.847722	-52.716669
779.050116	-51.625429
779.252615	-50.579445
779.455219	-49.991470
779.657929	-50.573434
779.860744	-51.945143
780.063665	-52.728623
780.266691	-53.023271
780.469823	-53.246888
780.673061	-52.639023
780.876405	-51.919781
781.079855	-51.653107
781.283410	-51.141348
781.487072	-50.656258
781.690840	-51.112658
781.894715	-52.329383
782.098695	-53.102074
782.302783	-53.060765
782.506976	-52.462341
782.711277	-51.421132
782.915684	-50.889985
783.120198	-51.226810
783.324818	-51.422849
783.529546	-51.071391
783.734381	-51.145424
783.939322	-51.526289
784.144372	-51.629428
784.349528	-51.881937
784.554792	-51.884885
784.760163	-50.972752
784.965642	-50.478779
785.171228	-50.961510
785.376922	-51.309410
785.582724	-51.081132
785.788634	-51.040064
785.994651	-50.830086
786.200777	-50.433124
786.407011	-50.829846
786.613353	-51.531910
786.819804	-51.009533
787.026363	-50.566761
787.233030	-51.140693
787.439806	-51.512115
787.646691	-51.464470
787.853684	-51.693244
788.060786	-50.863974
788.267997	-49.602278
788.475317	-49.600652
788.682746	-50.135533
788.890285	-49.789950
789.097932	-49.740050
789.305689	-50.557603
789.513555	-50.900464
789.721531	-51.188603
789.929617	-52.183040
790.137812	-51.320974
790.346117	-49.759108
790.554531	-49.839730
790.763056	-50.422463
790.971691	-50.201384
791.180436	-50.553264
791.389291	-50.903736
791.598256	-49.902433
791.807332	-49.687002
792.016518	-50.415533
792.225815	-49.822664
792.435222	-49.134555
792.644740	-49.805428
792.854369	-50.391261
793.064109	-50.415100
793.273960	-51.109706
793.483922	-50.563941
793.693995	-49.068564
793.904180	-49.162727
794.114475	-50.124924
794.324882	-50.088620
794.535401	-50.290347
794.746031	-50.715051
794.956774	-49.896919
795.167627	-49.637616
795.378593	-50.161839
795.589671	-49.471754
795.800861	-48.854596
796.012162	-49.565027
796.223577	-50.194895
796.435103	-50.221470
796.646742	-50.512352
796.858493	-49.729144
797.070357	-48.659886
797.282334	-48.938612
797.494423	-49.487518
797.706626	-49.117912
797.918941	-49.162403
798.131369	-49.443749
798.343911	-49.274179
798.556566	-49.760672
798.769334	-50.364815
798.982215	-49.573095
799.195210	-49.202722
799.408319	-49.693640
799.621541	-49.583749
799.834877	-49.348152
800.048327	-49.381986
800.261890	-48.836442
800.475568	-48.709287
800.689360	-49.490995
800.903266	-49.213317
801.117287	-48.244900
801.331422	-48.084951
801.545671	-48.018331
801.760036	-48.073946
801.974514	-48.969427
802.189108	-49.349851
802.403816	-48.880134
802.618640	-49.431257
802.833578	-49.938854
803.048632	-49.132032
803.263800	-48.763335
803.479085	-48.445340
803.694484	-47.922571
803.909999	-48.542263
804.125630	-49.335843
804.341376	-48.497981
804.557239	-48.227483
804.773217	-48.562295
804.989311	-48.066529
805.205521	-47.941712
805.421847	-47.945708
805.638290	-47.109340
805.854849	-47.256501
806.071524	-48.635053
806.288316	-48.811126
806.505225	-48.514135
806.722250	-48.580143
806.939393	-47.702321
807.156652	-47.394569
807.374028	-47.912477
807.591521	-47.389223
807.809132	-47.201744
808.026859	-48.412986
808.244705	-48.706120
808.462667	-48.146871
808.680748	-47.873151
808.898946	-46.802699
809.117261	-46.458360
809.335695	-47.596702
809.554246	-47.916057
809.772916	-47.419824
809.991704	-47.657131
810.210610	-47.130594
810.429634	-46.574342
810.648777	-46.959667
810.868039	-46.734193
811.087419	-46.610027
811.306918	-47.957468
811.526535	-48.346311
811.746272	-47.319099
811.966127	-46.972748
812.186102	-46.324806
812.406196	-46.210414
812.626409	-47.540554
812.846742	-47.758085
813.067194	-46.899682
813.287766	-46.900880
813.508457	-46.111931
813.729269	-45.335364
813.950200	-45.629420
814.171251	-45.667207
814.392422	-46.078021
814.613714	-48.001514
814.835126	-48.056207
815.056658	-46.591195
815.278311	-46.035745
815.500084	-45.219038
815.721978	-45.182771
815.943993	-46.346866
816.166128	-46.376792
816.388385	-46.295549
816.610762	-47.099420
816.833261	-46.334932
817.055881	-45.580049
817.278623	-45.465338
817.501486	-44.819618
817.724471	-45.155977
817.947577	-46.247763
818.170805	-45.663302
818.394155	-45.325034
818.617627	-45.714227
818.841221	-45.554363
819.064937	-46.109053
819.288775	-46.441889
819.512736	-45.392162
819.736819	-45.392100
819.961025	-45.618380
820.185354	-44.949683
820.409805	-45.010639
820.634379	-45.144900
820.859076	-44.996414
821.083897	-45.693089
821.308840	-45.480195
821.533907	-44.488661
821.759097	-44.635026
821.984411	-44.989448
822.209848	-45.196652
822.435409	-45.748977
822.661093	-45.244466
822.886902	-44.815074
823.112834	-45.297708
823.338891	-45.038661
823.565072	-44.643851
823.791377	-44.777264
824.017807	-44.568212
824.244361	-44.676538
824.471039	-44.692166
824.697843	-43.933491
824.924771	-44.021082
825.151824	-44.807344
825.379002	-45.119642
825.606306	-45.277503
825.833734	-44.711508
826.061288	-44.126343
826.288967	-44.514596
826.516772	-44.548591
826.744703	-44.316304
826.972759	-44.568943
827.200941	-44.505634
827.429249	-44.576528
827.657683	-44.390764
827.886243	-43.598605
828.114930	-43.764032
828.343743	-44.375935
828.572682	-44.427097
828.801748	-44.442303
829.030941	-43.809854
829.260260	-43.564496
829.489706	-44.238446
829.719280	-44.166346
829.948980	-44.078423
830.178808	-44.352652
830.408763	-44.109348
830.638845	-44.343776
830.869055	-44.014206
831.099393	-43.235688
831.329858	-43.677961
831.560451	-43.963248
831.791173	-43.740357
832.022022	-43.880302
832.252999	-43.444934
832.484105	-43.753837
832.715339	-44.669637
832.946702	-44.031567
833.178193	-43.776467
833.409813	-43.792742
833.641561	-43.447226
833.873439	-43.896303
834.105445	-43.692130
834.337581	-43.313859
834.569846	-44.054859
834.802241	-43.736357
835.034764	-43.115795
835.267418	-43.130222
835.500201	-42.888284
835.733114	-43.610036
835.966157	-44.296697
836.199329	-43.444008
836.432632	-43.533616
836.666065	-43.616165
836.899629	-43.352053
837.133323	-43.794895
837.367147	-43.371793
837.601102	-43.387631
837.835188	-43.993486
838.069405	-43.014096
838.303752	-42.622990
838.538231	-42.731220
838.772841	-42.793179
839.007582	-43.855304
839.242455	-43.720645
839.477459	-43.068604
839.712595	-43.354301
839.947863	-42.821471
840.183263	-42.718967
840.418794	-42.897559
840.654458	-42.756420
840.890254	-43.647682
841.126182	-43.449733
841.362242	-42.457664
841.598435	-42.367693
841.834761	-42.249887
842.071220	-42.880799
842.307811	-43.356162
842.544536	-42.709916
842.781393	-42.783889
843.018384	-42.509837
843.255508	-42.186650
843.492765	-42.518498
843.730156	-42.707156
843.967681	-43.522523
844.205339	-43.435431
844.443132	-42.122750
844.681058	-41.689324
844.919118	-41.638977
845.157313	-42.187038
845.395642	-42.760381
845.634105	-42.299878
845.872703	-42.308879
846.111436	-42.175959
846.350303	-41.877089
846.589306	-42.144317
846.828443	-42.250595
847.067716	-42.647312
847.307124	-42.325933
847.546667	-41.248866
847.786345	-41.206893
848.026160	-41.613638
848.266110	-42.249050
848.506195	-42.418611
848.746417	-41.422556
848.986775	-41.131158
849.227269	-41.006551
849.467899	-40.924789
849.708666	-41.564661
849.949569	-41.927012
850.190609	-42.287796
850.431785	-41.772606
850.673099	-40.657327
850.914549	-40.697714
851.156137	-40.931432
851.397861	-41.160816
851.639723	-41.071158
851.881723	-40.403918
852.123860	-40.696735
852.366135	-40.978937
852.608547	-40.987723
852.851098	-41.232111
853.093786	-40.807094
853.336613	-40.596177
853.579578	-40.040292
853.822681	-39.661831
854.065923	-40.425802
854.309304	-40.955212
854.552823	-40.975885
854.796481	-40.212198
855.040278	-39.428420
855.284215	-39.629302
855.528290	-39.690882
855.772505	-39.940157
856.016859	-40.394214
856.261353	-40.344159
856.505987	-40.220745
856.750760	-39.437632
856.995673	-39.207756
857.240727	-39.627724
857.485920	-39.576870
857.731254	-39.428642
857.976729	-38.982881
858.222343	-39.038960
858.468099	-39.476921
858.713995	-39.310890
858.960032	-39.404222
859.206211	-39.336989
859.452530	-39.194684
859.698991	-38.948592
859.945593	-38.481579
860.192336	-38.814138
860.439222	-38.951817
860.686248	-38.649696
860.933417	-38.344750
861.180728	-38.128434
861.428181	-38.621230
861.675776	-38.654975
861.923514	-38.423091
862.171394	-38.406983
862.419417	-38.200196
862.667582	-38.223521
862.915890	-37.882669
863.164342	-37.921964
863.412936	-38.236780
863.661674	-37.939531
863.910555	-37.722609
864.159579	-37.472889
864.408747	-37.727507
864.658059	-37.854984
864.907515	-37.397487
865.157114	-37.364191
865.406858	-37.436551
865.656746	-37.751440
865.906778	-37.698001
866.156955	-37.368491
866.407277	-37.334446
866.657743	-36.945437
866.908354	-36.734177
867.159110	-36.747490
867.410011	-37.057076
867.661057	-37.299294
867.912249	-36.792656
868.163586	-36.569831
868.415069	-36.711140
868.666697	-37.011814
868.918472	-36.988274
869.170392	-36.538181
869.422458	-36.400469
869.674671	-36.195372
869.927030	-36.073346
870.179536	-36.172768
870.432188	-36.400379
870.684987	-36.562168
870.937933	-36.132736
871.191026	-35.959387
871.444266	-36.123658
871.697653	-36.219133
871.951188	-35.951279
872.204870	-35.499239
872.458700	-35.617556
872.712677	-35.783448
872.966803	-35.832367
873.221076	-35.732939
873.475498	-35.595221
873.730068	-35.491464
873.984787	-35.145076
874.239654	-35.256551
874.494669	-35.573537
874.749834	-35.689024
875.005147	-35.300583
875.260610	-34.893827
875.516222	-35.063738
875.771983	-35.139895
876.027894	-35.049024
876.283954	-34.804762
876.540164	-34.804698
876.796524	-34.911946
877.053033	-34.834097
877.309693	-34.960886
877.566503	-34.977267
877.823464	-34.785740
878.080575	-34.383376
878.337837	-34.315694
878.595249	-34.659532
878.852813	-34.714653
879.110528	-34.455040
879.368393	-34.207694
879.626410	-34.300764
879.884579	-34.422646
880.142899	-34.368644
880.401371	-34.420326
880.659994	-34.407068
880.918770	-34.231085
881.177698	-33.974387
881.436778	-33.971742
881.696010	-34.114407
881.955395	-33.965212
882.214933	-33.832041
882.474623	-33.925476
882.734467	-34.175745
882.994463	-34.076611
883.254613	-33.801161
883.514916	-33.761773
883.775372	-33.769486
884.035982	-33.674969
884.296746	-33.499194
884.557664	-33.566375
884.818735	-33.584263
885.079961	-33.499399
885.341341	-33.517619
885.602876	-33.713903
885.864565	-33.720207
886.126409	-33.376756
886.388407	-33.225485
886.650561	-33.321237
886.912870	-33.420380
887.175334	-33.249664
887.437953	-33.209275
887.700728	-33.257763
887.963658	-33.198459
888.226745	-33.095773
888.489987	-33.216285
888.753385	-33.435816
889.016940	-33.251933
889.280651	-32.967398
889.544518	-32.860984
889.808543	-32.932728
890.072723	-32.873531
890.337061	-32.901269
890.601556	-33.117764
890.866208	-33.144683
891.131017	-32.914234
891.395984	-32.793217
891.661109	-32.982140
891.926391	-32.990524
892.191831	-32.738925
892.457429	-32.627377
892.723186	-32.718470
892.989100	-32.771546
893.255173	-32.724410
893.521405	-32.850856
893.787796	-32.864516
894.054345	-32.616331
894.321053	-32.468588
894.587921	-32.652986
894.854948	-32.816395
895.122134	-32.557569
895.389480	-32.382663
895.656986	-32.424248
895.924651	-32.534117
896.192477	-32.507294
896.460463	-32.637875
896.728609	-32.718797
896.996915	-32.452907
897.265382	-32.168583
897.534010	-32.237243
897.802799	-32.476247
898.071749	-32.406322
898.340860	-32.304127
898.610132	-32.331439
898.879566	-32.351278
899.149162	-32.242119
899.418919	-32.356749
899.688838	-32.525251
899.958919	-32.343830
900.229162	-31.987121
900.499568	-32.007645
900.770136	-32.253464
901.040867	-32.306688
901.311761	-32.194299
901.582817	-32.196668
901.854037	-32.167240
902.125420	-32.084067
902.396966	-32.170521
902.668676	-32.273943
902.940550	-32.044878
903.212587	-31.769788
903.484788	-31.944866
903.757153	-32.283204
904.029683	-32.240533
904.302377	-31.971830
904.575236	-31.928203
904.848259	-31.991654
905.121447	-31.983628
905.394800	-32.004145
905.668319	-31.932685
905.942002	-31.691276
906.215852	-31.609817
906.489866	-31.965006
906.764047	-32.217669
907.038393	-31.956501
907.312906	-31.684943
907.587584	-31.781585
907.862429	-31.907368
908.137441	-31.780216
908.412619	-31.706682
908.687964	-31.672668
908.963476	-31.665167
909.239155	-31.738452
909.515002	-32.003773
909.791015	-31.888899
910.067197	-31.591968
910.343546	-31.542417
910.620063	-31.819640
910.896748	-31.754778
911.173601	-31.543715
911.450623	-31.543460
911.727813	-31.716577
912.005171	-31.722381
912.282699	-31.767006
912.560395	-31.829216
912.838261	-31.662978
913.116296	-31.471260
913.394500	-31.592063
913.672874	-31.758429
913.951418	-31.649057
914.230131	-31.634233
914.509015	-31.811502
914.788068	-31.774474
915.067292	-31.535228
915.346687	-31.584636
915.626252	-31.728258
915.905988	-31.618640
916.185895	-31.491175
916.465973	-31.602554
916.746223	-31.622893
917.026644	-31.563376
917.307236	-31.667737
917.588000	-31.720186
917.868937	-31.457045
918.150045	-31.365750
918.431325	-31.572569
918.712778	-31.594740
918.994404	-31.407232
919.276202	-31.520958
919.558173	-31.737489
919.840317	-31.612391
920.122634	-31.450607
920.405125	-31.499701
920.687789	-31.443722
920.970627	-31.323940
921.253639	-31.473583
921.536824	-31.578212
921.820184	-31.411957
922.103718	-31.396453
922.387427	-31.600474
922.671310	-31.418261
922.955368	-31.127893
923.239601	-31.235917
923.524009	-31.469086
923.808592	-31.303278
924.093351	-31.216329
924.378285	-31.355537
924.663396	-31.430697
924.948682	-31.363892
925.234144	-31.389296
925.519782	-31.148917
925.805597	-30.930959
926.091589	-31.184243
926.377757	-31.651440
926.664102	-31.404403
926.950624	-31.040063
927.237323	-31.089052
927.524200	-31.281885
927.811255	-31.141799
928.098487	-31.080801
928.385897	-30.995618
928.673485	-30.951459
928.961251	-31.095051
929.249196	-31.343147
929.537319	-31.003546
929.825621	-30.701009
930.114102	-30.855357
930.402762	-31.094691
930.691601	-30.845107
930.980620	-30.765133
931.269818	-30.894738
931.559196	-30.961124
931.848753	-30.915603
932.138491	-30.957118
932.428409	-30.711187
932.718508	-30.534030
933.008787	-30.721389
933.299246	-30.907772
933.589887	-30.692303
933.880709	-30.675201
934.171712	-30.816353
934.462896	-30.653904
934.754262	-30.402131
935.045810	-30.477481
935.337539	-30.495337
935.629451	-30.437736
935.921545	-30.554784
936.213822	-30.593002
936.506281	-30.310151
936.798922	-30.275817
937.091747	-30.418691
937.384755	-30.288982
937.677946	-30.125258
937.971321	-30.305677
938.264879	-30.396996
938.558621	-30.323735
938.852547	-30.379117
939.146657	-30.297985
939.440952	-30.027267
939.735431	-30.098437
940.030095	-30.411499
940.324943	-30.295823
940.619977	-30.131068
940.915196	-30.232827
941.210600	-30.300328
941.506189	-30.163677
941.801965	-30.150792
942.097926	-29.971918
942.394074	-29.871784
942.690407	-30.165453
942.986927	-30.409233
943.283634	-29.999428
943.580527	-29.776970
943.877608	-29.973467
944.174875	-30.027454
944.472330	-29.855533
944.769972	-29.850176
945.067802	-29.845334
945.365820	-29.913600
945.664026	-30.087396
945.962420	-29.859897
946.261002	-29.453005
946.559773	-29.600170
946.858733	-29.937870
947.157881	-29.719541
947.457219	-29.534021
947.756746	-29.677868
948.056462	-29.694642
948.356368	-29.507685
948.656464	-29.433508
948.956749	-29.282429
949.257225	-29.343396
949.557891	-29.607964
949.858748	-29.469574
950.159796	-29.086566
950.461034	-29.207629
950.762463	-29.365465
951.064084	-29.021799
951.365896	-28.885901
951.667900	-29.119287
951.970095	-29.211381
952.272483	-29.078181
952.575063	-28.924808
952.877835	-28.688719
953.180799	-28.800032
953.483956	-29.075335
953.787307	-28.853523
954.090850	-28.565064
954.394586	-28.835785
954.698516	-28.967353
955.002640	-28.598316
955.306957	-28.444495
955.611469	-28.535298
955.916174	-28.594748
956.221074	-28.654116
956.526169	-28.544020
956.831458	-28.259467
957.136942	-28.349750
957.442622	-28.444704
957.748496	-28.141050
958.054567	-28.059649
958.360833	-28.360806
958.667294	-28.288618
958.973952	-28.015728
959.280806	-28.018324
959.587857	-27.982705
959.895104	-27.938575
960.202548	-27.977525
960.510189	-27.881990
960.818027	-27.825408
961.126062	-28.032561
961.434295	-27.876973
961.742726	-27.547494
962.051355	-27.724653
962.360182	-27.951311
962.669207	-27.765433
962.978431	-27.675060
963.287854	-27.773367
963.597475	-27.725721
963.907296	-27.720560
964.217315	-27.611358
964.527535	-27.447192
964.837954	-27.672537
965.148573	-27.860574
965.459392	-27.492059
965.770411	-27.298548
966.081630	-27.509236
966.393051	-27.465485
966.704672	-27.355954
967.016494	-27.387347
967.328517	-27.301020
967.640742	-27.269348
967.953169	-27.289461
968.265797	-27.064444
968.578627	-26.980682
968.891660	-27.195753
969.204895	-27.072948
969.518332	-26.894352
969.831972	-26.996922
970.145816	-26.899624
970.459862	-26.722517
970.774112	-26.811047
971.088565	-26.814253
971.403223	-26.704250
971.718084	-26.787288
972.033149	-26.690230
972.348419	-26.523905
972.663893	-26.608111
972.979572	-26.549790
973.295456	-26.456277
973.611546	-26.609498
973.927840	-26.533712
974.244340	-26.262176
974.561046	-26.344944
974.877958	-26.395790
975.195076	-26.212996
975.512401	-26.252014
975.829932	-26.278574
976.147670	-26.166240
976.465615	-26.122256
976.783767	-25.961945
977.102126	-25.871552
977.420693	-26.097529
977.739468	-26.041297
978.058451	-25.695072
978.377642	-25.754679
978.697041	-25.854339
979.016649	-25.646404
979.336466	-25.572581
979.656492	-25.608196
979.976727	-25.648610
980.297171	-25.655637
980.617825	-25.372209
980.938689	-25.212524
981.259763	-25.523263
981.581048	-25.557016
981.902542	-25.198700
982.224248	-25.220247
982.546164	-25.356979
982.868291	-25.244124
983.190630	-25.150231
983.513180	-25.085084
983.835942	-25.175499
984.158916	-25.330623
984.482101	-25.051426
984.805500	-24.830037
985.129110	-25.102994
985.452934	-25.155745
985.776970	-24.898712
986.101220	-24.922548
986.425683	-24.958805
986.750359	-24.881364
987.075250	-24.850419
987.400354	-24.728883
987.725673	-24.786269
988.051206	-24.938594
988.376954	-24.685795
988.702916	-24.535350
989.029094	-24.708679
989.355487	-24.636677
989.682095	-24.528933
990.008919	-24.604943
990.335959	-24.493503
990.663216	-24.409490
990.990688	-24.437250
991.318377	-24.336268
991.646283	-24.380948
991.974406	-24.417099
992.302746	-24.219122
992.631304	-24.248564
992.960079	-24.285674
993.289072	-24.071398
993.618283	-24.131021
993.947713	-24.255270
994.277361	-24.079690
994.607227	-23.994961
994.937313	-23.966595
995.267618	-23.943836
995.598142	-24.056408
995.928886	-23.939267
996.259849	-23.788003
996.591033	-23.922244
996.922437	-23.828346
997.254061	-23.650745
997.585906	-23.781852
997.917972	-23.767891
998.250260	-23.638356
998.582768	-23.624497
998.915498	-23.518672
999.248450	-23.542648
999.581624	-23.607051
999.915020	-23.431446
1000.248639	-23.436209
1000.582480	-23.476529
1000.916545	-23.269880
1001.250832	-23.293297
1001.585343	-23.387001
1001.920077	-23.249245
1002.255035	-23.214358
1002.590218	-23.166915
1002.925624	-23.096857
1003.261255	-23.192051
1003.597111	-23.124148
1003.933192	-23.043312
1004.269497	-23.121852
1004.606029	-22.969929
1004.942785	-22.889060
1005.279768	-23.035508
1005.616977	-22.960339
1005.954412	-22.887806
1006.292074	-22.900317
1006.629962	-22.797510
1006.968077	-22.845598
1007.306420	-22.867564
1007.644990	-22.761082
1007.983787	-22.831240
1008.322813	-22.756251
1008.662067	-22.610082
1009.001549	-22.749888
1009.341259	-22.752542
1009.681199	-22.645033
1010.021367	-22.666771
1010.361765	-22.573296
1010.702392	-22.587335
1011.043250	-22.669201
1011.384337	-22.552658
1011.725654	-22.583428
1012.067202	-22.588614
1012.408980	-22.430598
1012.750989	-22.516688
1013.093230	-22.555165
1013.435702	-22.451794
1013.778405	-22.484985
1014.121341	-22.396564
1014.464508	-22.369129
1014.807908	-22.489471
1015.151540	-22.392613
1015.495405	-22.366581
1015.839503	-22.383204
1016.183835	-22.239956
1016.528400	-22.302044
1016.873198	-22.340406
1017.218231	-22.219633
1017.563498	-22.243537
1017.908999	-22.167765
1018.254735	-22.117481
1018.600707	-22.218108
1018.946913	-22.120258
1019.293354	-22.074466
1019.640032	-22.077322
1019.986945	-21.941075
1020.334094	-22.003454
1020.681480	-22.026459
1021.029102	-21.890620
1021.376961	-21.908337
1021.725058	-21.847446
1022.073391	-21.817984
1022.421962	-21.901315
1022.770772	-21.784982
1023.119819	-21.752551
1023.469104	-21.764427
1023.818628	-21.649233
1024.168391	-21.719657
1024.518393	-21.723573
1024.868634	-21.608951
1025.219115	-21.634502
1025.569836	-21.576308
1025.920796	-21.590583
1026.271997	-21.653586
1026.623438	-21.514054
1026.975121	-21.514846
1027.327044	-21.532139
1027.679208	-21.449275
1028.031614	-21.520077
1028.384262	-21.477610
1028.737152	-21.411764
1029.090284	-21.453847
1029.443659	-21.384319
1029.797276	-21.434913
1030.151137	-21.452447
1030.505240	-21.314307
1030.859587	-21.363814
1031.214178	-21.362413
1031.569013	-21.326106
1031.924093	-21.389230
1032.279417	-21.295823
1032.634985	-21.294013
1032.990799	-21.341035
1033.346858	-21.284802
1033.703162	-21.354014
1034.059712	-21.289337
1034.416509	-21.207766
1034.773551	-21.305806
1035.130841	-21.262912
1035.488377	-21.269944
1035.846160	-21.281296
1036.204190	-21.176753
1036.562468	-21.250816
1036.920994	-21.255008
1037.279768	-21.206086
1037.638790	-21.228316
1037.998061	-21.115112
1038.357581	-21.151160
1038.717350	-21.204702
1039.077368	-21.105609
1039.437636	-21.136901
1039.798154	-21.082903
1040.158922	-21.047829
1040.519940	-21.117789
1040.881209	-21.029407
1041.242729	-21.012125
1041.604501	-20.981859
1041.966524	-20.932047
1042.328798	-21.021888
1042.691325	-20.936393
1043.054103	-20.874613
1043.417135	-20.908059
1043.780419	-20.846375
1044.143956	-20.887734
1044.507746	-20.833358
1044.871791	-20.743887
1045.236088	-20.785182
1045.600641	-20.735904
1045.965447	-20.758650
1046.330508	-20.734270
1046.695824	-20.628644
1047.061395	-20.686914
1047.427222	-20.658775
1047.793304	-20.630153
1048.159642	-20.624253
1048.526237	-20.529094
1048.893088	-20.586672
1049.260196	-20.585102
1049.627561	-20.531672
1049.995183	-20.547257
1050.363063	-20.475093
1050.731201	-20.518661
1051.099597	-20.525601
1051.468251	-20.450040
1051.837164	-20.481981
1052.206336	-20.432922
1052.575767	-20.464352
1052.945458	-20.495215
1053.315409	-20.411394
1053.685619	-20.449966
1054.056090	-20.425841
1054.426821	-20.429588
1054.797814	-20.460994
1055.169067	-20.375140
1055.540582	-20.413236
1055.912359	-20.413673
1056.284398	-20.409790
1056.656698	-20.441361
1057.029262	-20.348400
1057.402088	-20.386979
1057.775177	-20.405281
1058.148530	-20.366149
1058.522146	-20.379659
1058.896027	-20.305454
1059.270171	-20.352772
1059.644580	-20.367214
1060.019254	-20.307100
1060.394193	-20.321757
1060.769397	-20.247431
1061.144867	-20.283225
1061.520602	-20.289883
1061.896604	-20.198341
1062.272872	-20.223846
1062.649407	-20.186840
1063.026210	-20.200668
1063.403279	-20.182405
1063.780616	-20.096313
1064.158221	-20.118366
1064.536094	-20.069331
1064.914235	-20.074837
1065.292645	-20.045058
1065.671325	-19.956218
1066.050273	-20.001733
1066.429491	-19.960053
1066.808979	-19.931148
1067.188738	-19.892616
1067.568766	-19.834760
1067.949066	-19.873748
1068.329636	-19.808223
1068.710478	-19.795304
1069.091592	-19.771673
1069.472977	-19.719449
1069.854635	-19.771477
1070.236565	-19.699910
1070.618768	-19.663993
1071.001243	-19.653484
1071.383993	-19.632705
1071.767016	-19.656010
1072.150313	-19.570956
1072.533884	-19.581558
1072.917730	-19.585690
1073.301850	-19.545900
1073.686246	-19.555833
1074.070917	-19.489898
1074.455864	-19.511382
1074.841087	-19.508925
1075.226586	-19.491197
1075.612362	-19.492601
1075.998415	-19.434162
1076.384745	-19.490894
1076.771353	-19.462518
1077.158238	-19.412230
1077.545401	-19.424920
1077.932843	-19.405170
1078.320564	-19.437361
1078.708564	-19.371237
1079.096842	-19.358904
1079.485401	-19.375521
1079.874240	-19.330328
1080.263358	-19.335272
1080.652757	-19.272940
1081.042438	-19.282050
1081.432399	-19.280662
1081.822641	-19.245537
1082.213166	-19.233603
1082.603972	-19.170226
1082.995061	-19.203555
1083.386433	-19.160356
1083.778087	-19.108441
1084.170025	-19.101618
1084.562246	-19.061488
1084.954751	-19.079498
1085.347541	-18.995284
1085.740615	-18.964874
1086.133973	-18.952069
1086.527617	-18.898581
1086.921546	-18.888182
1087.315761	-18.810258
1087.710262	-18.820530
1088.105050	-18.787909
1088.500124	-18.733253
1088.895485	-18.722950
1089.291134	-18.668067
1089.687070	-18.680913
1090.083294	-18.629336
1090.479806	-18.604482
1090.876607	-18.596560
1091.273696	-18.573523
1091.671075	-18.565489
1092.068744	-18.486142
1092.466702	-18.505841
1092.864950	-18.481210
1093.263489	-18.440307
1093.662319	-18.430306
1094.061440	-18.381993
1094.460852	-18.398290
1094.860555	-18.349146
1095.260551	-18.317925
1095.660840	-18.298330
1096.061421	-18.299409
1096.462295	-18.296444
1096.863462	-18.236047
1097.264923	-18.268100
1097.666678	-18.250126
1098.068727	-18.241916
1098.471071	-18.229551
1098.873710	-18.215668
1099.276644	-18.245827
1099.679874	-18.214641
1100.083400	-18.220234
1100.487222	-18.185840
1100.891340	-18.197701
1101.295756	-18.176424
1101.700468	-18.115991
1102.105478	-18.135238
1102.510787	-18.092059
1102.916393	-18.072044
1103.322298	-18.013838
1103.728502	-17.989589
1104.135005	-17.963555
1104.541807	-17.906482
1104.948909	-17.892441
1105.356312	-17.839825
1105.764015	-17.844812
1106.172019	-17.788554
1106.580324	-17.756772
1106.988931	-17.750254
1107.397840	-17.719652
1107.807051	-17.711581
1108.216564	-17.666802
1108.626380	-17.681133
1109.036500	-17.643680
1109.446923	-17.621840
1109.857649	-17.590403
1110.268680	-17.566535
1110.680016	-17.558301
1111.091657	-17.493084
1111.503602	-17.484085
1111.915854	-17.430539
1112.328411	-17.405267
1112.741275	-17.340708
1113.154445	-17.303103
1113.567922	-17.284425
1113.981706	-17.220972
1114.395798	-17.204020
1114.810198	-17.148282
1115.224906	-17.148226
1115.639923	-17.094452
1116.055249	-17.083392
1116.470884	-17.081765
1116.886829	-17.063744
1117.303084	-17.075978
1117.719650	-17.043150
1118.136526	-17.085536
1118.553713	-17.062499
1118.971212	-17.080791
1119.389022	-17.089704
1119.807145	-17.105721
1120.225580	-17.114341
1120.644328	-17.089254
1121.063389	-17.121512
1121.482763	-17.090105
1121.902452	-17.099936
1122.322454	-17.066123
1122.742771	-17.069576
1123.163404	-17.033411
1123.584351	-16.994584
1124.005614	-16.966726
1124.427193	-16.924936
1124.849089	-16.909574
1125.271301	-16.834634
1125.693830	-16.834964
1126.116677	-16.768783
1126.539842	-16.742652
1126.963324	-16.693208
1127.387126	-16.673728
1127.811246	-16.654712
1128.235685	-16.606473
1128.660444	-16.608058
1129.085522	-16.563539
1129.510922	-16.569815
1129.936641	-16.522364
1130.362682	-16.544202
1130.789044	-16.515972
1131.215728	-16.510194
1131.642734	-16.493194
1132.070063	-16.475103
1132.497714	-16.473046
1132.925689	-16.432665
1133.353987	-16.448845
1133.782610	-16.399083
1134.211556	-16.397244
1134.640827	-16.337258
1135.070424	-16.335874
1135.500345	-16.283812
1135.930593	-16.257525
1136.361166	-16.225709
1136.792067	-16.182288
1137.223294	-16.150597
1137.654848	-16.089026
1138.086730	-16.086762
1138.518940	-16.019603
1138.951479	-16.022774
1139.384346	-15.958939
1139.817543	-15.961153
1140.251069	-15.909152
1140.684925	-15.899741
1141.119111	-15.888473
1141.553628	-15.870899
1141.988475	-15.871270
1142.423655	-15.842013
1142.859166	-15.864938
1143.295009	-15.828762
1143.731185	-15.864755
1144.167694	-15.839223
1144.604536	-15.873156
1145.041711	-15.843079
1145.479221	-15.864360
1145.917065	-15.853455
1146.355245	-15.860966
1146.793759	-15.860230
1147.232609	-15.856267
1147.671795	-15.852040
1148.111317	-15.820396
1148.551177	-15.831374
1148.991373	-15.788746
1149.431907	-15.800471
1149.872779	-15.744365
1150.313989	-15.751620
1150.755538	-15.678814
1151.197426	-15.675508
1151.639653	-15.622005
1152.082220	-15.606552
1152.525128	-15.552209
1152.968376	-15.519580
1153.411966	-15.476054
1153.855897	-15.424229
1154.300169	-15.403674
1154.744784	-15.351609
1155.189742	-15.334034
1155.635042	-15.267449
1156.080687	-15.259858
1156.526674	-15.197491
1156.973007	-15.196252
1157.419683	-15.146889
1157.866705	-15.146169
1158.314072	-15.091004
1158.761786	-15.089562
1159.209845	-15.056971
1159.658251	-15.054658
1160.107004	-15.032639
1160.556104	-15.028306
1161.005553	-15.007284
1161.455349	-14.994384
1161.905494	-14.998393
1162.355989	-14.987317
1162.806832	-14.993844
1163.258026	-14.975302
1163.709570	-14.985756
1164.161464	-14.958953
1164.613710	-14.985105
1165.066307	-14.964888
1165.519256	-14.984885
1165.972558	-14.951937
1166.426212	-14.975619
1166.880219	-14.940899
1167.334580	-14.967050
1167.789295	-14.939897
1168.244364	-14.951578
1168.699788	-14.910856
1169.155567	-14.921099
1169.611702	-14.887623
1170.068193	-14.889684
1170.525041	-14.861242
1170.982245	-14.844035
1171.439807	-14.806303
1171.897726	-14.784955
1172.356004	-14.761319
1172.814640	-14.728273
1173.273635	-14.703545
1173.732989	-14.656062
1174.192703	-14.630162
1174.652778	-14.582509
1175.113213	-14.574982
1175.574009	-14.516550
1176.035167	-14.502695
1176.496687	-14.443849
1176.958569	-14.434832
1177.420814	-14.382179
1177.883422	-14.388525
1178.346394	-14.327628
1178.809730	-14.327428
1179.273430	-14.274528
1179.737496	-14.286428
1180.201927	-14.241262
1180.666723	-14.256955
1181.131886	-14.205942
1181.597416	-14.217828
1182.063312	-14.179425
1182.529576	-14.205354
1182.996209	-14.163859
1183.463209	-14.187015
1183.930579	-14.142442
1184.398317	-14.166393
1184.866426	-14.134498
1185.334904	-14.165464
1185.803754	-14.122876
1186.272974	-14.148237
1186.742566	-14.106475
1187.212529	-14.137689
1187.682865	-14.104924
1188.153574	-14.132532
1188.624656	-14.085465
1189.096112	-14.111180
1189.567942	-14.076604
1190.040147	-14.104314
1190.512726	-14.069945
1190.985681	-14.087005
1191.459012	-14.046018
1191.932720	-14.069189
1192.406804	-14.041296
1192.881265	-14.055782
1193.356104	-14.022983
1193.831322	-14.029230
1194.306918	-13.999293
1194.782893	-14.012734
1195.259248	-13.987892
1195.735982	-13.984487
1196.213097	-13.953700
1196.690593	-13.952940
1197.168471	-13.926549
1197.646730	-13.929027
1198.125371	-13.892027
1198.604395	-13.880957
1199.083803	-13.845933
1199.563594	-13.845726
1200.043769	-13.805930
1200.524329	-13.801048
1201.005273	-13.747369
1201.486604	-13.743669
1201.968320	-13.702386
1202.450422	-13.699008
1202.932912	-13.648569
1203.415789	-13.636721
1203.899054	-13.591915
1204.382707	-13.586171
1204.866748	-13.553580
1205.351179	-13.530241
1205.836000	-13.495961
1206.321211	-13.480276
1206.806812	-13.454365
1207.292805	-13.445390
1207.779189	-13.406122
1208.265965	-13.401789
1208.753134	-13.355102
1209.240696	-13.384263
1209.728651	-13.313811
1210.217000	-13.360295
1210.705744	-13.261878
1211.194883	-13.337430
1211.684417	-13.236752
1212.174347	-13.318902
1212.664673	-13.206016
1213.155396	-13.282600
1213.646516	-13.193277
1214.138034	-13.253958
1214.629951	-13.195482
1215.122266	-13.206444
1215.614980	-13.188834
1216.108095	-13.173708
1216.601609	-13.194644
1217.095524	-13.145758
1217.589841	-13.176275
1218.084559	-13.120773
1218.579679	-13.162376
1219.075202	-13.118657
1219.571128	-13.131382
1220.067458	-13.103198
1220.564191	-13.100522
1221.061330	-13.099205
1221.558874	-13.082368
1222.056823	-13.072366
1222.555178	-13.056340
1223.053940	-13.045952
1223.553109	-13.048770
1224.052686	-13.016111
1224.552671	-13.022424
1225.053065	-12.979820
1225.553867	-13.003492
1226.055079	-12.963051
1226.556702	-12.964224
1227.058735	-12.937432
1227.561179	-12.922016
1228.064035	-12.927412
1228.567303	-12.886958
1229.070983	-12.894978
1229.575077	-12.848494
1230.079585	-12.865202
1230.584506	-12.831525
1231.089842	-12.821852
1231.595594	-12.801806
1232.101761	-12.776004
1232.608345	-12.786880
1233.115345	-12.740258
1233.622762	-12.748790
1234.130597	-12.702474
1234.638851	-12.711358
1235.147523	-12.687119
1235.656615	-12.663141
1236.166126	-12.654864
1236.676058	-12.619046
1237.186411	-12.634139
1237.697185	-12.587539
1238.208381	-12.592002
1238.719999	-12.553043
1239.232040	-12.557155
1239.744505	-12.539074
1240.257394	-12.513254
1240.770708	-12.511160
1241.284446	-12.477484
1241.798610	-12.496826
1242.313201	-12.453029
1242.828218	-12.461983
1243.343662	-12.432507
1243.859534	-12.437519
1244.375834	-12.427573
1244.892563	-12.405733
1245.409721	-12.410236
1245.927309	-12.387073
1246.445327	-12.406371
1246.963777	-12.371518
1247.482657	-12.383529
1248.001970	-12.362985
1248.521716	-12.373911
1249.041894	-12.362474
1249.562506	-12.349786
1250.083553	-12.355354
1250.605034	-12.341448
1251.126950	-12.355194
1251.649302	-12.325962
1252.172091	-12.339919
1252.695316	-12.323457
1253.218979	-12.333539
1253.743079	-12.317496
1254.267619	-12.311462
1254.792597	-12.314115
1255.318015	-12.305840
1255.843874	-12.306676
1256.370173	-12.287625
1256.896913	-12.295284
1257.424095	-12.284699
1257.951720	-12.287228
1258.479787	-12.267486
1259.008298	-12.272528
1259.537254	-12.264447
1260.066654	-12.263738
1260.596499	-12.250170
1261.126790	-12.245361
1261.657527	-12.247041
1262.188711	-12.237008
1262.720342	-12.233589
1263.252422	-12.216968
1263.784950	-12.228887
1264.317928	-12.209681
1264.851355	-12.214411
1265.385232	-12.191704
1265.919560	-12.202676
1266.454340	-12.191420
1266.989572	-12.180262
1267.525256	-12.179006
1268.061394	-12.162179
1268.597985	-12.179110
1269.135031	-12.143376
1269.672531	-12.156725
1270.210487	-12.135516
1270.748899	-12.142944
1271.287768	-12.127701
1271.827094	-12.110868
1272.366877	-12.123315
1272.907119	-12.096951
1273.447820	-12.109502
1273.988981	-12.074563
1274.530601	-12.090506
1275.072683	-12.075880
1275.615226	-12.062480
1276.158230	-12.061975
1276.701697	-12.041508
1277.245627	-12.059143
1277.790021	-12.022667
1278.334879	-12.031571
1278.880202	-12.018262
1279.425991	-12.014226
1279.972245	-12.008752
1280.518966	-11.983240
1281.066155	-12.002967
1281.613811	-11.974593
1282.161936	-11.979389
1282.710529	-11.959826
1283.259593	-11.960973
1283.809126	-11.961317
1284.359131	-11.931178
1284.909607	-11.946673
1285.460555	-11.923607
1286.011976	-11.933302
1286.563870	-11.909200
1287.116237	-11.906393
1287.669080	-11.914089
1288.222397	-11.887316
1288.776191	-11.896526
1289.330460	-11.873719
1289.885207	-11.889161
1290.440431	-11.867908
1290.996133	-11.858678
1291.552314	-11.867843
1292.108975	-11.848649
1292.666115	-11.855764
1293.223737	-11.830973
1293.781839	-11.845941
1294.340424	-11.834312
1294.899491	-11.819937
1295.459041	-11.827170
1296.019075	-11.813362
1296.579593	-11.821892
1297.140597	-11.798293
1297.702086	-11.806006
1298.264061	-11.806696
1298.826524	-11.788968
1299.389474	-11.794752
1299.952912	-11.783568
1300.516839	-11.793410
1301.081255	-11.776045
1301.646162	-11.773463
1302.211559	-11.784560
1302.777448	-11.767148
1303.343829	-11.772088
1303.910702	-11.762269
1304.478069	-11.772490
1305.045930	-11.763831
1305.614285	-11.752534
1306.183136	-11.770218
1306.752483	-11.755915
1307.322326	-11.759220
1307.892666	-11.753534
1308.463504	-11.759947
1309.034841	-11.762065
1309.606677	-11.745526
1310.179012	-11.764048
1310.751849	-11.758182
1311.325186	-11.756011
1311.899025	-11.758717
1312.473366	-11.759685
1313.048211	-11.770471
1313.623559	-11.754812
1314.199412	-11.769357
1314.775770	-11.776439
1315.352634	-11.766779
1315.930004	-11.778626
1316.507881	-11.779061
1317.086266	-11.791265
1317.665159	-11.785338
1318.244562	-11.791039
1318.824474	-11.811801
1319.404897	-11.798659
1319.985831	-11.812151
1320.567276	-11.821888
1321.149234	-11.825392
1321.731706	-11.832998
1322.314691	-11.832498
1322.898190	-11.856164
1323.482205	-11.850297
1324.066736	-11.853506
1324.651783	-11.877711
1325.237347	-11.871682
1325.823430	-11.881296
1326.410031	-11.889697
1326.997151	-11.899014
1327.584791	-11.907433
1328.172952	-11.901656
1328.761634	-11.928097
1329.350839	-11.928236
1329.940566	-11.924212
1330.530817	-11.950343
1331.121592	-11.948921
1331.712891	-11.956492
1332.304716	-11.965520
1332.897068	-11.975955
1333.489946	-11.989542
1334.083352	-11.982965
1334.677287	-12.007184
1335.271750	-12.018765
1335.866744	-12.009211
1336.462268	-12.038239
1337.058323	-12.044161
1337.654910	-12.046276
1338.252029	-12.064290
1338.849682	-12.071512
1339.447869	-12.087331
1340.046591	-12.087313
1340.645848	-12.103815
1341.245641	-12.124504
1341.845972	-12.112926
1342.446840	-12.137827
1343.048246	-12.154761
1343.650191	-12.144405
1344.252677	-12.169815
1344.855702	-12.179403
1345.459269	-12.181965
1346.063379	-12.195827
1346.668030	-12.203463
1347.273226	-12.219506
1347.878965	-12.217566
1348.485250	-12.228839
1349.092080	-12.252309
1349.699456	-12.237765
1350.307380	-12.255640
1350.915851	-12.276670
1351.524871	-12.260081
1352.134441	-12.280698
1352.744560	-12.294217
1353.355231	-12.285359
1353.966453	-12.301694
1354.578227	-12.308415
1355.190555	-12.312250
1355.803436	-12.318532
1356.416872	-12.322987
1357.030863	-12.339068
1357.645411	-12.332699
1358.260515	-12.340867
1358.876177	-12.363234
1359.492397	-12.347856
1360.109176	-12.361854
1360.726516	-12.384808
1361.344416	-12.365990
1361.962877	-12.385471
1362.581901	-12.404071
1363.201487	-12.389112
1363.821637	-12.409739
1364.442352	-12.423323
1365.063632	-12.416423
1365.685478	-12.434147
1366.307891	-12.443792
1366.930871	-12.447119
1367.554420	-12.457899
1368.178538	-12.467206
1368.803226	-12.479181
1369.428485	-12.481917
1370.054315	-12.493368
1370.680717	-12.511495
1371.307693	-12.506261
1371.935242	-12.522520
1372.563366	-12.542903
1373.192065	-12.531845
1373.821341	-12.553532
1374.451193	-12.572906
1375.081623	-12.558570
1375.712632	-12.585244
1376.344221	-12.601456
1376.976389	-12.586750
1377.609139	-12.617014
1378.242470	-12.629196
1378.876384	-12.616155
1379.510881	-12.648510
1380.145963	-12.656606
1380.781629	-12.646888
1381.417881	-12.679493
1382.054720	-12.684472
1382.692147	-12.678506
1383.330161	-12.710492
1383.968765	-12.712871
1384.607959	-12.711240
1385.247743	-12.741210
1385.888119	-12.742705
1386.529087	-12.744631
1387.170648	-12.773643
1387.812804	-12.774898
1388.455554	-12.781207
1389.098899	-12.809015
1389.742842	-12.811160
1390.387381	-12.820555
1391.032519	-12.847775
1391.678256	-12.849754
1392.324592	-12.862285
1392.971529	-12.888350
1393.619068	-12.890660
1394.267208	-12.905932
1394.915952	-12.931880
1395.565300	-12.933945
1396.215253	-12.952779
1396.865812	-12.978283
1397.516977	-12.980112
1398.168749	-13.002846
1398.821130	-13.028131
1399.474120	-13.029884
1400.127719	-13.057837
1400.781930	-13.082089
1401.436752	-13.084056
1402.092186	-13.116909
1402.748234	-13.138019
1403.404897	-13.139798
1404.062174	-13.176413
1404.720067	-13.192927
1405.378577	-13.194948
1406.037705	-13.235452
1406.697451	-13.246269
1407.357817	-13.250981
1408.018803	-13.293854
1408.680410	-13.298702
1409.342639	-13.306721
1410.005492	-13.349723
1410.668968	-13.348363
1411.333068	-13.361609
1411.997795	-13.402107
1412.663147	-13.397713
1413.329127	-13.416874
1413.995736	-13.452986
1414.662973	-13.448093
1415.330840	-13.471691
1415.999339	-13.499548
1416.668469	-13.496347
1417.338232	-13.520421
1418.008628	-13.538573
1418.679659	-13.541070
1419.351325	-13.562855
1420.023628	-13.574137
1420.696568	-13.586003
1421.370145	-13.601909
1422.044362	-13.609090
1422.719219	-13.629155
1423.394717	-13.633815
1424.070856	-13.639905
1424.747638	-13.663626
1425.425064	-13.657272
1426.103134	-13.667526
1426.781850	-13.693125
1427.461212	-13.681769
1428.141221	-13.701134
1428.821878	-13.724396
1429.503185	-13.714083
1430.185141	-13.737937
1430.867749	-13.751686
1431.551008	-13.745315
1432.234920	-13.764584
1432.919486	-13.768244
1433.604707	-13.771552
1434.290583	-13.783081
1434.977116	-13.786855
1435.664307	-13.804898
1436.352156	-13.808575
1437.040664	-13.820969
1437.729833	-13.845745
1438.419663	-13.839132
1439.110156	-13.856537
1439.801312	-13.872343
1440.493132	-13.857354
1441.185617	-13.873952
1441.878768	-13.876818
1442.572586	-13.868792
1443.267072	-13.884638
1443.962228	-13.886852
1444.658053	-13.900468
1445.354549	-13.912777
1446.051717	-13.924298
1446.749558	-13.950947
1447.448073	-13.949191
1448.147263	-13.964322
1448.847128	-13.979088
1449.547671	-13.960973
1450.248891	-13.970778
1450.950789	-13.965960
1451.653368	-13.952479
1452.356627	-13.959902
1453.060568	-13.955732
1453.765192	-13.970718
1454.470500	-13.979701
1455.176492	-13.995392
1455.883170	-14.029603
1456.590534	-14.032734
1457.298586	-14.057229
1458.007327	-14.073117
1458.716758	-14.061791
1459.426880	-14.066016
1460.137693	-14.046115
1460.849199	-14.029417
1461.561398	-14.007859
1462.274293	-13.982237
1462.987883	-13.981965
1463.702170	-13.963274
1464.417155	-13.972719
1465.132838	-13.995539
1465.849222	-14.008343
1466.566306	-14.048382
1467.284093	-14.073962
1468.002582	-14.105265
1468.721775	-14.122115
1469.441674	-14.117926
1470.162278	-14.116633
1470.883590	-14.070963
1471.605609	-14.025634
1472.328338	-13.968230
1473.051777	-13.892452
1473.775928	-13.831746
1474.500790	-13.761607
1475.226367	-13.718859
1475.952657	-13.678779
1476.679663	-13.653912
1477.407386	-13.659003
1478.135826	-13.653636
1478.864985	-13.671020
1479.594863	-13.677338
1480.325463	-13.676674
1481.056784	-13.660751
1481.788828	-13.607068
1482.521597	-13.544537
1483.255090	-13.432402
1483.989309	-13.301870
1484.724256	-13.152055
1485.459931	-12.982335
1486.196336	-12.821360
1486.933471	-12.653438
1487.671337	-12.520080
1488.409937	-12.401263
1489.149270	-12.316190
1489.889337	-12.275743
1490.630141	-12.264398
1491.371682	-12.305602
1492.113961	-12.371190
1492.856979	-12.485349
1493.600738	-12.619559
1494.345238	-12.770410
1495.090481	-12.937838
1495.836467	-13.086864
1496.583198	-13.229517
1497.330675	-13.323763
1498.078899	-13.388317
1498.827872	-13.400884
1499.577593	-13.361244
1500.328065	-13.292951
1501.079289	-13.182722
1501.831265	-13.071447
1502.583995	-12.943189
1503.337480	-12.836619
1504.091721	-12.749393
1504.846719	-12.687293
1505.602475	-12.669521
1506.358991	-12.679632
1507.116268	-12.743443
1507.874306	-12.827914
1508.633108	-12.953067
1509.392673	-13.091795
1510.153004	-13.230797
1510.914101	-13.352578
1511.675965	-13.414326
1512.438599	-13.412988
1513.202002	-13.290567
1513.966176	-13.059303
1514.731122	-12.701606
1515.496842	-12.242252
1516.263336	-11.707346
1517.030607	-11.115980
1517.798654	-10.516825
1518.567479	-9.912541
1519.337083	-9.340150
1520.107468	-8.795988
1520.878634	-8.303439
1521.650584	-7.859571
1522.423317	-7.470138
1523.196836	-7.140134
1523.971141	-6.866230
1524.746233	-6.657335
1525.522115	-6.502772
1526.298786	-6.416673
1527.076249	-6.387385
1527.854504	-6.427360
1528.633553	-6.525917
1529.413397	-6.695619
1530.194037	-6.929044
1530.975474	-7.232898
1531.757709	-7.605038
1532.540745	-8.048586
1533.324581	-8.564802
1534.109220	-9.147585
1534.894662	-9.802350
1535.680909	-10.512507
1536.467961	-11.277192
1537.255821	-12.058083
1538.044489	-12.842317
1538.833967	-13.559292
1539.624256	-14.175206
1540.415357	-14.609455
1541.207271	-14.860409
1542.000000	-14.897679
1542.793545	-14.789302
1543.587907	-14.559710
1544.383087	-14.290150
1545.179088	-13.989252
1545.975909	-13.716032
1546.773552	-13.457942
1547.572019	-13.250306
1548.371311	-13.067382
1549.171428	-12.940405
1549.972373	-12.839098
1550.774147	-12.788907
1551.576751	-12.758924
1552.380185	-12.777508
1553.184453	-12.811546
1553.989554	-12.886067
1554.795490	-12.968896
1555.602263	-13.088153
1556.409873	-13.208547
1557.218322	-13.356947
1558.027612	-13.500611
1558.837743	-13.670556
1559.648717	-13.833081
1560.460536	-14.018940
1561.273200	-14.198852
1562.086710	-14.406954
1562.901069	-14.611704
1563.716278	-14.845555
1564.532337	-15.078880
1565.349249	-15.344074
1566.167014	-15.608269
1566.985634	-15.896383
1567.805111	-16.176913
1568.625444	-16.469359
1569.446637	-16.739107
1570.268690	-16.993078
1571.091605	-17.200168
1571.915382	-17.358607
1572.740024	-17.446568
1573.565532	-17.453090
1574.391907	-17.377967
1575.219150	-17.214444
1576.047262	-16.986925
1576.876246	-16.688145
1577.706103	-16.356991
1578.536833	-15.984614
1579.368439	-15.614406
1580.200922	-15.229779
1581.034282	-14.868386
1581.868522	-14.509268
1582.703643	-14.187101
1583.539646	-13.877821
1584.376532	-13.610345
1585.214304	-13.359047
1586.052962	-13.151054
1586.892508	-12.961786
1587.732943	-12.814576
1588.574269	-12.683666
1589.416487	-12.591872
1590.259599	-12.514891
1591.103605	-12.473836
1591.948508	-12.443338
1592.794309	-12.442982
1593.641009	-12.449124
1594.488609	-12.481197
1595.337112	-12.514399
1596.186518	-12.566651
1597.036829	-12.615113
1597.888047	-12.677785
1598.740172	-12.733128
1599.593207	-12.796909
1600.447153	-12.849324
1601.302010	-12.906403
1602.157782	-12.951944
1603.014469	-12.999156
1603.872072	-13.035197
1604.730593	-13.071553
1605.590034	-13.100587
1606.450397	-13.130515
1607.311681	-13.157109
1608.173890	-13.184084
1609.037024	-13.212983
1609.901085	-13.243344
1610.766075	-13.280592
1611.631995	-13.319150
1612.498846	-13.368847
1613.366630	-13.420284
1614.235349	-13.487299
1615.105004	-13.555171
1615.975596	-13.640254
1616.847128	-13.725285
1617.719600	-13.828850
1618.593014	-13.930755
1619.467372	-14.049683
1620.342675	-14.163887
1621.218924	-14.291801
1622.096122	-14.413176
1622.974270	-14.542961
1623.853369	-14.663216
1624.733420	-14.785543
1625.614427	-14.898218
1626.496389	-15.007522
1627.379308	-15.107951
1628.263187	-15.198858
1629.148026	-15.283110
1630.033828	-15.354795
1630.920593	-15.424254
1631.808324	-15.479138
1632.697022	-15.535154
1633.586688	-15.577351
1634.477324	-15.625448
1635.368932	-15.662822
1636.261514	-15.707368
1637.155070	-15.743231
1638.049602	-15.784930
1638.945113	-15.821536
1639.841603	-15.860594
1640.739075	-15.896450
1641.637529	-15.928327
1642.536968	-15.958801
1643.437393	-15.979800
1644.338806	-16.000597
1645.241209	-16.006703
1646.144602	-16.011960
1647.048988	-16.000842
1647.954368	-15.988959
1648.860744	-15.963374
1649.768118	-15.935474
1650.676491	-15.899086
1651.585865	-15.859187
1652.496241	-15.818264
1653.407621	-15.772325
1654.320008	-15.730005
1655.233401	-15.680874
1656.147804	-15.638391
1657.063218	-15.590485
1657.979645	-15.548900
1658.897085	-15.503255
1659.815542	-15.458946
1660.735016	-15.412798
1661.655509	-15.363147
1662.577023	-15.314602
1663.499560	-15.258783
1664.423121	-15.205758
1665.347709	-15.145441
1666.273324	-15.088647
1667.199969	-15.027935
1668.127645	-14.968872
1669.056353	-14.910580
1669.986097	-14.851522
1670.916877	-14.797691
1671.848695	-14.740938
1672.781553	-14.689750
1673.715452	-14.634481
1674.650395	-14.582175
1675.586383	-14.528217
1676.523418	-14.473615
1677.461501	-14.420932
1678.400635	-14.364537
1679.340821	-14.312881
1680.282061	-14.257857
1681.224357	-14.207405
1682.167710	-14.156229
1683.112122	-14.106041
1684.057595	-14.058930
1685.004132	-14.009636
1685.951732	-13.965702
1686.900400	-13.918839
1687.850135	-13.875574
1688.800940	-13.831812
1689.752818	-13.787936
1690.705768	-13.747547
1691.659795	-13.704251
1692.614898	-13.665615
1693.571081	-13.624856
1694.528345	-13.586781
1695.486691	-13.550502
1696.446122	-13.513241
1697.406640	-13.480372
1698.368245	-13.444813
1699.330941	-13.412981
1700.294729	-13.380788
1701.259611	-13.348928
1702.225588	-13.319809
1703.192664	-13.288140
1704.160838	-13.260227
1705.130114	-13.230785
1706.100493	-13.203034
1707.071977	-13.177047
1708.044568	-13.149790
1709.018268	-13.126185
1709.993079	-13.100788
1710.969003	-13.077693
1711.946041	-13.054965
1712.924196	-13.031333
1713.903469	-13.010331
1714.883862	-12.987313
1715.865378	-12.966660
1716.848017	-12.945715
1717.831783	-12.924393
1718.816677	-12.905342
1719.802701	-12.884613
1720.789857	-12.866749
1721.778147	-12.848956
1722.767573	-12.831579
1723.758136	-12.816742
1724.749840	-12.800470
1725.742685	-12.787098
1726.736673	-12.773597
1727.731808	-12.760401
1728.728090	-12.749543
1729.725521	-12.737132
1730.724105	-12.727311
1731.723842	-12.717507
1732.724735	-12.707643
1733.726785	-12.700226
1734.729995	-12.691334
1735.734366	-12.684703
1736.739902	-12.678755
1737.746603	-12.672285
1738.754472	-12.668385
1739.763510	-12.662910
1740.773721	-12.658690
1741.785105	-12.655632
1742.797665	-12.651556
1743.811403	-12.650187
1744.826321	-12.647902
1745.842422	-12.645805
1746.859706	-12.645176
1747.878177	-12.642679
1748.897835	-12.641991
1749.918685	-12.641355
1750.940726	-12.640188
1751.963963	-12.641738
1752.988395	-12.642350
1754.014027	-12.644342
1755.040860	-12.647893
1756.068895	-12.650099
1757.098135	-12.654667
1758.128583	-12.659132
1759.160240	-12.663164
1760.193109	-12.669576
1761.227191	-12.674600
1762.262488	-12.680531
1763.299004	-12.687756
1764.336740	-12.693496
1765.375697	-12.701340
1766.415880	-12.709345
1767.457288	-12.716626
1768.499926	-12.726011
1769.543794	-12.734017
1770.588895	-12.741968
1771.635231	-12.751186
1772.682805	-12.758701
1773.731619	-12.767437
1774.781674	-12.776854
1775.832973	-12.785107
1776.885519	-12.795215
1777.939312	-12.805068
1778.994357	-12.814561
1780.050654	-12.826274
1781.108207	-12.837468
1782.167017	-12.849303
1783.227087	-12.862869
1784.288418	-12.875554
1785.351013	-12.889398
1786.414875	-12.904197
1787.480006	-12.918130
1788.546407	-12.933600
1789.614082	-12.949433
1790.683032	-12.964738
1791.753259	-12.981580
1792.824767	-12.998137
1793.897557	-13.014606
1794.971632	-13.032928
1796.046994	-13.051089
1797.123645	-13.069880
1798.201588	-13.090055
1799.280824	-13.109440
1800.361357	-13.129359
1801.443188	-13.150063
1802.526320	-13.169789
1803.610756	-13.190368
1804.696497	-13.211333
1805.783546	-13.231371
1806.871906	-13.252503
1807.961578	-13.273824
1809.052565	-13.294104
1810.144870	-13.315437
1811.238494	-13.336625
1812.333441	-13.356842
1813.429713	-13.378029
1814.527311	-13.398590
1815.626239	-13.418088
1816.726499	-13.438930
1817.828094	-13.459770
1818.931025	-13.480206
1820.035295	-13.502145
1821.140906	-13.523496
1822.247862	-13.543856
1823.356165	-13.565535
1824.465816	-13.587009
1825.576819	-13.607849
1826.689175	-13.630208
1827.802888	-13.652397
1828.917960	-13.673992
1830.034394	-13.697294
1831.152191	-13.720574
1832.271354	-13.742933
1833.391887	-13.766480
1834.513790	-13.789677
1835.637068	-13.812011
1836.761722	-13.835936
1837.887755	-13.860228
1839.015169	-13.883753
1840.143968	-13.908423
1841.274153	-13.932787
1842.405727	-13.955683
1843.538693	-13.979365
1844.673053	-14.003408
1845.808810	-14.026404
1846.945966	-14.050141
1848.084525	-14.074454
1849.224488	-14.097668
1850.365858	-14.121003
1851.508638	-14.144703
1852.652831	-14.166919
1853.798438	-14.188970
1854.945463	-14.211912
1856.093909	-14.234223
1857.243777	-14.256464
1858.395071	-14.279565
1859.547794	-14.302047
1860.701947	-14.323717
1861.857533	-14.345447
1863.014556	-14.366214
1864.173018	-14.385944
1865.332922	-14.405905
1866.494270	-14.425612
1867.657065	-14.444040
1868.821309	-14.461812
1869.987006	-14.479005
1871.154158	-14.494617
1872.322768	-14.509637
1873.492839	-14.525342
1874.664373	-14.540380
1875.837373	-14.554747
1877.011841	-14.569642
1878.187782	-14.583127
1879.365197	-14.594901
1880.544089	-14.607422
1881.724460	-14.619088
1882.906315	-14.628692
1884.089655	-14.639022
1885.274483	-14.649253
1886.460803	-14.657359
1887.648616	-14.665988
1888.837927	-14.674491
1890.028736	-14.680292
1891.221049	-14.685729
1892.414866	-14.691936
1893.610192	-14.696659
1894.807028	-14.701334
1896.005379	-14.706835
1897.205246	-14.710794
1898.406633	-14.713818
1899.609542	-14.717330
1900.813977	-14.719908
1902.019940	-14.721701
1903.227434	-14.723701
1904.436462	-14.724603
1905.647028	-14.724272
1906.859133	-14.723739
1908.072781	-14.722660
1909.287976	-14.721011
1910.504719	-14.719188
1911.723013	-14.716358
1912.942863	-14.712540
1914.164270	-14.708368
1915.387238	-14.703249
1916.611770	-14.696911
1917.837868	-14.689534
1919.065536	-14.680467
1920.294777	-14.669882
1921.525594	-14.659031
1922.757989	-14.647430
1923.991967	-14.633908
1925.227529	-14.618620
1926.464679	-14.601800
1927.703420	-14.583440
1928.943755	-14.564520
1930.185688	-14.545754
1931.429221	-14.526465
1932.674356	-14.506178
1933.921099	-14.485023
1935.169451	-14.462770
1936.419415	-14.439570
1937.670996	-14.416270
1938.924195	-14.393091
1940.179017	-14.369461
1941.435463	-14.345151
1942.693538	-14.320414
1943.953245	-14.295295
1945.214586	-14.269668
1946.477566	-14.243660
1947.742186	-14.217760
1949.008451	-14.192188
1950.276363	-14.166853
1951.545926	-14.141595
1952.817143	-14.116265
1954.090017	-14.090678
1955.364551	-14.064980
1956.640749	-14.039569
1957.918615	-14.014452
1959.198150	-13.989110
1960.479359	-13.963217
1961.762244	-13.936752
1963.046810	-13.909897
1964.333059	-13.882635
1965.620995	-13.854873
1966.910621	-13.826496
1968.201940	-13.797314
1969.494956	-13.767535
1970.789672	-13.737542
1972.086091	-13.707300
1973.384217	-13.676382
1974.684053	-13.644807
1975.985602	-13.612944
1977.288869	-13.580704
1978.593855	-13.547549
1979.900566	-13.513501
1981.209003	-13.479037
1982.519171	-13.444664
1983.831073	-13.410653
1985.144712	-13.377035
1986.460093	-13.343631
1987.777217	-13.310301
1989.096089	-13.277209
1990.416713	-13.244479
1991.739092	-13.211513
1993.063228	-13.177638
1994.389127	-13.143002
1995.716791	-13.108709
1997.046223	-13.076116
1998.377428	-13.045734
1999.710409	-13.017054
2001.045169	-12.989786
2002.381713	-12.964257
2003.720043	-12.940678
2005.060163	-12.918649
2006.402077	-12.897322
2007.745788	-12.875758
2009.091301	-12.853739
2010.438618	-12.831650
2011.787743	-12.809945
2013.138680	-12.788576
2014.491433	-12.767080
2015.846005	-12.745603
2017.202399	-12.724912
2018.560621	-12.705151
2019.920673	-12.685390
2021.282558	-12.665015
2022.646281	-12.644456
2024.011846	-12.623666
2025.379256	-12.601629
2026.748515	-12.577631
2028.119626	-12.551539
2029.492594	-12.523964
2030.867422	-12.495596
2032.244114	-12.466697
2033.622673	-12.437456
2035.003104	-12.408530
2036.385411	-12.380607
2037.769597	-12.354078
2039.155665	-12.328998
2040.543621	-12.305641
2041.933467	-12.284502
2043.325208	-12.265767
2044.718847	-12.248887
2046.114389	-12.233083
2047.511837	-12.218713
2048.911195	-12.206432
2050.312467	-12.196430
2051.715657	-12.188407
2053.120769	-12.181504
2054.527807	-12.175317
2055.936775	-12.170059
2057.347677	-12.165257
2058.760516	-12.159977
2060.175297	-12.153501
2061.592025	-12.145509
2063.010701	-12.135544
2064.431332	-12.123837
2065.853921	-12.111037
2067.278472	-12.097103
2068.704988	-12.082048
2070.133475	-12.066456
2071.563936	-12.051215
2072.996375	-12.036962
2074.430796	-12.024038
2075.867204	-12.012499
2077.305603	-12.001856
2078.745996	-11.992435
2080.188389	-11.985481
2081.632784	-11.980365
2083.079187	-11.975403
2084.527601	-11.970087
2085.978030	-11.965136
2087.430480	-11.961321
2088.884954	-11.958665
2090.341455	-11.956869
2091.799990	-11.955920
2093.260561	-11.956128
2094.723173	-11.957286
2096.187831	-11.958221
2097.654538	-11.957959
2099.123300	-11.956580
2100.594119	-11.954021
2102.067001	-11.950465
2103.541950	-11.946323
2105.018971	-11.941894
2106.498067	-11.937340
2107.979243	-11.933247
2109.462503	-11.930512
2110.947853	-11.929137
2112.435295	-11.929115
2113.924836	-11.930648
2115.416478	-11.933608
2116.910227	-11.937719
2118.406087	-11.942944
2119.904063	-11.949463
2121.404158	-11.957822
2122.906378	-11.968520
2124.410727	-11.981475
2125.917210	-11.996026
2127.425831	-12.011625
2128.936594	-12.028237
2130.449505	-12.045671
2131.964567	-12.063434
2133.481786	-12.081070
2135.001166	-12.098105
2136.522711	-12.113723
2138.046427	-12.127855
2139.572317	-12.141031
2141.100388	-12.153234
2142.630642	-12.164060
2144.163085	-12.173469
2145.697722	-12.182177
2147.234558	-12.191529
2148.773596	-12.202013
2150.314842	-12.213268
2151.858301	-12.225312
2153.403977	-12.238912
2154.951875	-12.254755
2156.502000	-12.272577
2158.054357	-12.291176
2159.608950	-12.310721
2161.165785	-12.332206
2162.724866	-12.355597
2164.286198	-12.379752
2165.849786	-12.404428
2167.415635	-12.430802
2168.983749	-12.459136
2170.554134	-12.488582
2172.126795	-12.518707
2173.701737	-12.549729
2175.278964	-12.581707
2176.858481	-12.614455
2178.440294	-12.647730
2180.024408	-12.681261
2181.610827	-12.714862
2183.199557	-12.748467
2184.790602	-12.782025
2186.383968	-12.815622
2187.979660	-12.849117
2189.577683	-12.882256
2191.178041	-12.915030
2192.780741	-12.946953
2194.385787	-12.978385
2195.993185	-13.010311
2197.602939	-13.042500
2199.215054	-13.074082
2200.829537	-13.105599
2202.446392	-13.138760
2204.065624	-13.174205
2205.687239	-13.210610
2207.311242	-13.247709
2208.937638	-13.287642
2210.566433	-13.331217
2212.197631	-13.376954
2213.831239	-13.423957
2215.467261	-13.472980
2217.105703	-13.525098
2218.746570	-13.579647
2220.389867	-13.634411
2222.035601	-13.689482
2223.683776	-13.746619
2225.334398	-13.806057
2226.987472	-13.865742
2228.643004	-13.924187
2230.300999	-13.982893
2231.961463	-14.043312
2233.624402	-14.104276
2235.289820	-14.164877
2236.957723	-14.226089
2238.628118	-14.288557
2240.301009	-14.350685
2241.976402	-14.410863
2243.654303	-14.469999
2245.334717	-14.530053
2247.017650	-14.590181
2248.703108	-14.648802
2250.391096	-14.706233
2252.081620	-14.765329
2253.774686	-14.825158
2255.470300	-14.883636
2257.168467	-14.942342
2258.869193	-15.003479
2260.572484	-15.067337
2262.278345	-15.133114
2263.986783	-15.200540
2265.697804	-15.271699
2267.411412	-15.347552
2269.127615	-15.426378
2270.846417	-15.508109
2272.567826	-15.594026
2274.291846	-15.683435
2276.018484	-15.774325
2277.747745	-15.865798
2279.479637	-15.959901
2281.214164	-16.055831
2282.951333	-16.149867
2284.691149	-16.243550
2286.433619	-16.338079
2288.178750	-16.432865
2289.926546	-16.527420
2291.677014	-16.620921
2293.430161	-16.713938
2295.185992	-16.806020
2296.944513	-16.897110
2298.705732	-16.986494
2300.469653	-17.074059
2302.236283	-17.161752
2304.005629	-17.248516
2305.777696	-17.335130
2307.552492	-17.422823
2309.330022	-17.509303
2311.110292	-17.596271
2312.893310	-17.685416
2314.679080	-17.777039
2316.467611	-17.870852
2318.258907	-17.966970
2320.052976	-18.065333
2321.849824	-18.166271
2323.649457	-18.274225
2325.451883	-18.387341
2327.257106	-18.502524
2329.065135	-18.622545
2330.875975	-18.747249
2332.689633	-18.875627
2334.506116	-19.007684
2336.325430	-19.139754
2338.147581	-19.270883
2339.972578	-19.403625
2341.800425	-19.534859
2343.631130	-19.662231
2345.464700	-19.787086
2347.301141	-19.911295
2349.140461	-20.035072
2350.982665	-20.155039
2352.827760	-20.267578
2354.675754	-20.377589
2356.526653	-20.490301
2358.380464	-20.603195
2360.237195	-20.712364
2362.096851	-20.817550
2363.959440	-20.925124
2365.824968	-21.039359
2367.693444	-21.153135
2369.564873	-21.260643
2371.439263	-21.369210
2373.316620	-21.488949
2375.196953	-21.610174
2377.080267	-21.723319
2378.966570	-21.841086
2380.855869	-21.979817
2382.748171	-22.124680
2384.643484	-22.263490
2386.541815	-22.413798
2388.443170	-22.582419
2390.347557	-22.750265
2392.254984	-22.910126
2394.165457	-23.074328
2396.078984	-23.245897
2397.995572	-23.410292
2399.915229	-23.563325
2401.837961	-23.709926
2403.763777	-23.854871
2405.692684	-23.998810
2407.624689	-24.132464
2409.559800	-24.256338
2411.498023	-24.388025
2413.439368	-24.520171
2415.383840	-24.630307
2417.331449	-24.736504
2419.282201	-24.862390
2421.236104	-24.982649
2423.193165	-25.081665
2425.153393	-25.196358
2427.116795	-25.326548
2429.083378	-25.439292
2431.053151	-25.553130
2433.026121	-25.683560
2435.002297	-25.813917
2436.981685	-25.944477
2438.964293	-26.092455
2440.950131	-26.256094
2442.939204	-26.420940
2444.931522	-26.593018
2446.927092	-26.786408
2448.925923	-26.987511
2450.928022	-27.188008
2452.933397	-27.387855
2454.942056	-27.589618
2456.954008	-27.785415
2458.969260	-27.962872
2460.987821	-28.130195
2463.009699	-28.288716
2465.034902	-28.419542
2467.063437	-28.542117
2469.095315	-28.665081
2471.130542	-28.781878
2473.169127	-28.889806
2475.211078	-29.000402
2477.256404	-29.110044
2479.305112	-29.211188
2481.357212	-29.315614
2483.412713	-29.420049
2485.471621	-29.517826
2487.533946	-29.615915
2489.599696	-29.725327
2491.668880	-29.833035
2493.741507	-29.948594
2495.817585	-30.082790
2497.897122	-30.229953
2499.980127	-30.395846
2502.066609	-30.583074
2504.156578	-30.783447
2506.250040	-31.002448
2508.347006	-31.227471
2510.447483	-31.478550
2512.551482	-31.728823
2514.659010	-31.978706
2516.770076	-32.217211
2518.884690	-32.444427
2521.002861	-32.658433
2523.124597	-32.834751
2525.249907	-32.966210
2527.378801	-33.082583
2529.511287	-33.196940
2531.647375	-33.276459
2533.787074	-33.355237
2535.930393	-33.449921
2538.077340	-33.530020
2540.227927	-33.619815
2542.382160	-33.676740
2544.540051	-33.735901
2546.701608	-33.802535
2548.866840	-33.849655
2551.035757	-33.905892
2553.208369	-33.978950
2555.384684	-34.070712
2557.564713	-34.183411
2559.748465	-34.325821
2561.935948	-34.452987
2564.127174	-34.649251
2566.322152	-34.889715
2568.520890	-35.118220
2570.723399	-35.404125
2572.929689	-35.706091
2575.139769	-36.031527
2577.353649	-36.399356
2579.571340	-36.720211
2581.792849	-37.034771
2584.018189	-37.353248
2586.247368	-37.544885
2588.480396	-37.754297
2590.717284	-37.911966
2592.958041	-38.002284
2595.202678	-38.119674
2597.451204	-38.176690
2599.703630	-38.238050
2601.959966	-38.323056
2604.220222	-38.361918
2606.484408	-38.376057
2608.752535	-38.332616
2611.024612	-38.311097
2613.300651	-38.307665
2615.580661	-38.199130
2617.864653	-38.179761
2620.152638	-38.209594
2622.444625	-38.189721
2624.740626	-38.268888
2627.040651	-38.383329
2629.344710	-38.509685
2631.652814	-38.706543
2633.964974	-38.922926
2636.281200	-39.196089
2638.601504	-39.559880
2640.925896	-39.937409
2643.254386	-40.330810
2645.586987	-40.822855
2647.923707	-41.263763
2650.264559	-41.595009
2652.609554	-41.984215
2654.958702	-42.343700
2657.312015	-42.577132
2659.669503	-42.902475
2662.031178	-43.175182
2664.397051	-43.353207
2666.767132	-43.619030
2669.141434	-43.787685
2671.519968	-43.890781
2673.902745	-43.937221
2676.289776	-43.842227
2678.681072	-43.717650
2681.076646	-43.457090
2683.476508	-43.213028
2685.880671	-43.069066
2688.289145	-42.859688
2690.701942	-42.747195
2693.119075	-42.687801
2695.540554	-42.620981
2697.966391	-42.575019
2700.396599	-42.662846
2702.831189	-42.776496
2705.270172	-42.915201
2707.713561	-43.211012
2710.161368	-43.612519
2712.613605	-43.863130
2715.070283	-44.241238
2717.531416	-44.673406
2719.997014	-44.911085
2722.467090	-45.207171
2724.941657	-45.683710
2727.420726	-45.893766
2729.904310	-46.283121
2732.392421	-46.958322
2734.885072	-47.358043
2737.382275	-47.955193
2739.884042	-48.770701
2742.390387	-49.243262
2744.901321	-49.773279
2747.416857	-50.107126
2749.937008	-49.963174
2752.461787	-50.022082
2754.991206	-49.697688
2757.525279	-49.332885
2760.064017	-49.138235
2762.607434	-48.738359
2765.155544	-48.508993
2767.708358	-48.210494
2770.265890	-47.868906
2772.828153	-47.917621
2775.395160	-47.900823
2777.966924	-47.965699
2780.543459	-48.180670
2783.124778	-48.310700
2785.710894	-48.406254
2788.301821	-48.517321
2790.897572	-48.513629
2793.498160	-48.486215
2796.103599	-48.512538
2798.713903	-48.562836
2801.329085	-48.672055
2803.949159	-48.838829
2806.574139	-49.285363
2809.204038	-49.708627
2811.838871	-50.236887
2814.478650	-51.071809
2817.123391	-51.723559
2819.773107	-52.554752
2822.427812	-53.231386
2825.087521	-53.989188
2827.752247	-54.306209
2830.422005	-55.009243
2833.096808	-55.289498
2835.776672	-55.345840
2838.461611	-55.058084
2841.151638	-54.790558
2843.846769	-54.375815
2846.547019	-54.347371
2849.252401	-54.349592
2851.962930	-54.615291
2854.678621	-55.111446
2857.399489	-55.331886
2860.125549	-55.455190
2862.856815	-55.613225
2865.593302	-55.250093
2868.335026	-54.811915
2871.082002	-54.358535
2873.834244	-53.886126
2876.591767	-53.459466
2879.354588	-53.222255
2882.122721	-53.133750
2884.896181	-53.180843
2887.674984	-53.407484
2890.459146	-53.573388
2893.248681	-53.996271
2896.043606	-54.433049
2898.843937	-54.919900
2901.649687	-55.272780
2904.460875	-56.160028
2907.277515	-56.824661
2910.099623	-57.902310
2912.927215	-58.374870
2915.760308	-58.507481
2918.598916	-58.104795
2921.443057	-57.927444
2924.292747	-57.391154
2927.148002	-57.854769
2930.008837	-57.807532
2932.875270	-58.431289
2935.747318	-58.970609
2938.624995	-59.999586
2941.508320	-61.017552
2944.397308	-62.299416
2947.291977	-63.240265
2950.192343	-63.734848
2953.098423	-63.819043
2956.010234	-62.473043
2958.927792	-62.865135
2961.851116	-61.281889
2964.780221	-61.273419
2967.715126	-60.437376
2970.655847	-60.068841
2973.602402	-59.611619
2976.554808	-59.052056
2979.513083	-59.017981
2982.477243	-58.958617
2985.447308	-59.639321
2988.423293	-60.050346
2991.405218	-62.036337
2994.393099	-62.293931
2997.386955	-63.165243
