# 2022-03-21_14.49.25
# shape = sech2
# FWHM_ps = 0.1
# carrier_nm = 1542
# frep_MHz = 12126
# pow_mW = 8000
# GDD = 0.0
# propa_len = 0.15222222222222223
# untap_len = 0.01
# taper_len = 0.09222222222222223
# waist_len = 0.02
# uptap_len = 0.02
# untap_scale = 1.0
# waist_scale = 0.2666666666666667
# workingDir = NL_20110305_12 (Spirou)
# axis = slow
# window_ps = 10.0
# steps = 200
# points = 13000
# 
# wavelength [nm]	 power spectral density [dB]
1000.248639	-26.794718
1000.582480	-26.726651
1000.916545	-26.645460
1001.250832	-26.571627
1001.585343	-26.525722
1001.920077	-26.517398
1002.255035	-26.541664
1002.590218	-26.580679
1002.925624	-26.610262
1003.261255	-26.609766
1003.597111	-26.571947
1003.933192	-26.506518
1004.269497	-26.435656
1004.606029	-26.384227
1004.942785	-26.369690
1005.279768	-26.395158
1005.616977	-26.447868
1005.954412	-26.503163
1006.292074	-26.533746
1006.629962	-26.521621
1006.968077	-26.467561
1007.306420	-26.390881
1007.644990	-26.320747
1007.983787	-26.283090
1008.322813	-26.290822
1008.662067	-26.338671
1009.001549	-26.404558
1009.341259	-26.457474
1009.681199	-26.470537
1010.021367	-26.433937
1010.361765	-26.360313
1010.702392	-26.278952
1011.043250	-26.221983
1011.384337	-26.210549
1011.725654	-26.247002
1012.067202	-26.314405
1012.408980	-26.381872
1012.750989	-26.416802
1013.093230	-26.400623
1013.435702	-26.339010
1013.778405	-26.258882
1014.121341	-26.194545
1014.464508	-26.172156
1014.807908	-26.199165
1015.151540	-26.261676
1015.495405	-26.329321
1015.839503	-26.367420
1016.183835	-26.354092
1016.528400	-26.291765
1016.873198	-26.205831
1017.218231	-26.131414
1017.563498	-26.096249
1017.908999	-26.109213
1018.254735	-26.157342
1018.600707	-26.210628
1018.946913	-26.235200
1019.293354	-26.211190
1019.640032	-26.143409
1019.986945	-26.058942
1020.334094	-25.992094
1020.681480	-25.967920
1021.029102	-25.991419
1021.376961	-26.045610
1021.725058	-26.098258
1022.073391	-26.117112
1022.421962	-26.087497
1022.770772	-26.021061
1023.119819	-25.949052
1023.469104	-25.905156
1023.818628	-25.909184
1024.168391	-25.957506
1024.518393	-26.024268
1024.868634	-26.072850
1025.219115	-26.073969
1025.569836	-26.022949
1025.920796	-25.943211
1026.271997	-25.873464
1026.623438	-25.846317
1026.975121	-25.873135
1027.327044	-25.938691
1027.679208	-26.007050
1028.031614	-26.038523
1028.384262	-26.011662
1028.737152	-25.936994
1029.090284	-25.851038
1029.443659	-25.795668
1029.797276	-25.796262
1030.151137	-25.850517
1030.505240	-25.929753
1030.859587	-25.991263
1031.214178	-25.999925
1031.569013	-25.949676
1031.924093	-25.868178
1032.279417	-25.798428
1032.634985	-25.773715
1032.990799	-25.801353
1033.346858	-25.860688
1033.703162	-25.912664
1034.059712	-25.919783
1034.416509	-25.868952
1034.773551	-25.780554
1035.130841	-25.695343
1035.488377	-25.649164
1035.846160	-25.653360
1036.204190	-25.690378
1036.562468	-25.723307
1036.920994	-25.715614
1037.279768	-25.653887
1037.638790	-25.557949
1037.998061	-25.468127
1038.357581	-25.419229
1038.717350	-25.421971
1039.077368	-25.458690
1039.437636	-25.492031
1039.798154	-25.484198
1040.158922	-25.420919
1040.519940	-25.323016
1040.881209	-25.233237
1041.242729	-25.188199
1041.604501	-25.197336
1041.966524	-25.239214
1042.328798	-25.274252
1042.691325	-25.265764
1043.054103	-25.201791
1043.417135	-25.103512
1043.780419	-25.013686
1044.143956	-24.968562
1044.507746	-24.975849
1044.871791	-25.011230
1045.236088	-25.034512
1045.600641	-25.014655
1045.965447	-24.948450
1046.330508	-24.861940
1046.695824	-24.794721
1047.061395	-24.775834
1047.427222	-24.805066
1047.793304	-24.851176
1048.159642	-24.871784
1048.526237	-24.842369
1048.893088	-24.772271
1049.260196	-24.695383
1049.627561	-24.648611
1049.995183	-24.650406
1050.363063	-24.689179
1050.731201	-24.726438
1051.099597	-24.721012
1051.468251	-24.659970
1051.837164	-24.568295
1052.206336	-24.487344
1052.575767	-24.447603
1052.945458	-24.453232
1053.315409	-24.481023
1053.685619	-24.490701
1054.056090	-24.450535
1054.426821	-24.362743
1054.797814	-24.263123
1055.169067	-24.192923
1055.540582	-24.169648
1055.912359	-24.179104
1056.284398	-24.187995
1056.656698	-24.163995
1057.029262	-24.095655
1057.402088	-24.000768
1057.775177	-23.915715
1058.148530	-23.869146
1058.522146	-23.860794
1058.896027	-23.861724
1059.270171	-23.836049
1059.644580	-23.768617
1060.019254	-23.674335
1060.394193	-23.584916
1060.769397	-23.527756
1061.144867	-23.509633
1061.520602	-23.511232
1061.896604	-23.497996
1062.272872	-23.445378
1062.649407	-23.359383
1063.026210	-23.271942
1063.403279	-23.215009
1063.780616	-23.198120
1064.158221	-23.204275
1064.536094	-23.202039
1064.914235	-23.166465
1065.292645	-23.096461
1065.671325	-23.017413
1066.050273	-22.962721
1066.429491	-22.948720
1066.808979	-22.962261
1067.188738	-22.970207
1067.568766	-22.944051
1067.949066	-22.881076
1068.329636	-22.805438
1068.710478	-22.750068
1069.091592	-22.733423
1069.472977	-22.746613
1069.854635	-22.758246
1070.236565	-22.736655
1070.618768	-22.674609
1071.001243	-22.595113
1071.383993	-22.532607
1071.767016	-22.507513
1072.150313	-22.512940
1072.533884	-22.519973
1072.917730	-22.499257
1073.301850	-22.443081
1073.686246	-22.370448
1074.070917	-22.310425
1074.455864	-22.279267
1074.841087	-22.268712
1075.226586	-22.252851
1075.612362	-22.208671
1075.998415	-22.135140
1076.384745	-22.054320
1076.771353	-21.992565
1077.158238	-21.960521
1077.545401	-21.946291
1077.932843	-21.925538
1078.320564	-21.880176
1078.708564	-21.812415
1079.096842	-21.742720
1079.485401	-21.692576
1079.874240	-21.667191
1080.263358	-21.651403
1080.652757	-21.622485
1081.042438	-21.568400
1081.432399	-21.496767
1081.822641	-21.428163
1082.213166	-21.379801
1082.603972	-21.353448
1082.995061	-21.334655
1083.386433	-21.305409
1083.778087	-21.260273
1084.170025	-21.211146
1084.562246	-21.176557
1084.954751	-21.165633
1085.347541	-21.170083
1085.740615	-21.170128
1086.133973	-21.149270
1086.527617	-21.107193
1086.921546	-21.059819
1087.315761	-21.024766
1087.710262	-21.006174
1088.105050	-20.991861
1088.500124	-20.965695
1088.895485	-20.923421
1089.291134	-20.876846
1089.687070	-20.842799
1090.083294	-20.828318
1090.479806	-20.824473
1090.876607	-20.814815
1091.273696	-20.791394
1091.671075	-20.763939
1092.068744	-20.750830
1092.466702	-20.760564
1092.864950	-20.780122
1093.263489	-20.782385
1093.662319	-20.747537
1094.061440	-20.681134
1094.460852	-20.609894
1094.860555	-20.558987
1095.260551	-20.532034
1095.660840	-20.509365
1096.061421	-20.466310
1096.462295	-20.396144
1096.863462	-20.317447
1097.264923	-20.257966
1097.666678	-20.231612
1098.068727	-20.228302
1098.471071	-20.225281
1098.873710	-20.207518
1099.276644	-20.179280
1099.679874	-20.157034
1100.083400	-20.150764
1100.487222	-20.152764
1100.891340	-20.142757
1101.295756	-20.106134
1101.700468	-20.047714
1102.105478	-19.986683
1102.510787	-19.937675
1102.916393	-19.898812
1103.322298	-19.855615
1103.728502	-19.797418
1104.135005	-19.729595
1104.541807	-19.670783
1104.948909	-19.636547
1105.356312	-19.626936
1105.764015	-19.628653
1106.172019	-19.629010
1106.580324	-19.627045
1106.988931	-19.632057
1107.397840	-19.652273
1107.807051	-19.684200
1108.216564	-19.711950
1108.626380	-19.719030
1109.036500	-19.703572
1109.446923	-19.679496
1109.857649	-19.660681
1110.268680	-19.645622
1110.680016	-19.618271
1111.091657	-19.564127
1111.503602	-19.486742
1111.915854	-19.407736
1112.328411	-19.349461
1112.741275	-19.316879
1113.154445	-19.294906
1113.567922	-19.264195
1113.981706	-19.221242
1114.395798	-19.183157
1114.810198	-19.171544
1115.224906	-19.190576
1115.639923	-19.221019
1116.055249	-19.237276
1116.470884	-19.231272
1116.886829	-19.216696
1117.303084	-19.210012
1117.719650	-19.211712
1118.136526	-19.206562
1118.553713	-19.178965
1118.971212	-19.126431
1119.389022	-19.059533
1119.807145	-18.991712
1120.225580	-18.929032
1120.644328	-18.867310
1121.063389	-18.799629
1121.482763	-18.727472
1121.902452	-18.662723
1122.322454	-18.615459
1122.742771	-18.582123
1123.163404	-18.551368
1123.584351	-18.521490
1124.005614	-18.505749
1124.427193	-18.515684
1124.849089	-18.542602
1125.271301	-18.564009
1125.693830	-18.569637
1126.116677	-18.573323
1126.539842	-18.592958
1126.963324	-18.625201
1127.387126	-18.647850
1127.811246	-18.645076
1128.235685	-18.622330
1128.660444	-18.595421
1129.085522	-18.571950
1129.510922	-18.546457
1129.936641	-18.509548
1130.362682	-18.457255
1130.789044	-18.394533
1131.215728	-18.333035
1131.642734	-18.283111
1132.070063	-18.243140
1132.497714	-18.200494
1132.925689	-18.148170
1133.353987	-18.097639
1133.782610	-18.066334
1134.211556	-18.054598
1134.640827	-18.043771
1135.070424	-18.020436
1135.500345	-17.993527
1135.930593	-17.980436
1136.361166	-17.983703
1136.792067	-17.988886
1137.223294	-17.982215
1137.654848	-17.961636
1138.086730	-17.933276
1138.518940	-17.906793
1138.951479	-17.890674
1139.384346	-17.880567
1139.817543	-17.855107
1140.251069	-17.799904
1140.684925	-17.733971
1141.119111	-17.690868
1141.553628	-17.671255
1141.988475	-17.637457
1142.423655	-17.568646
1142.859166	-17.496790
1143.295009	-17.461527
1143.731185	-17.450551
1144.167694	-17.418256
1144.604536	-17.357502
1145.041711	-17.310875
1145.479221	-17.303646
1145.917065	-17.307405
1146.355245	-17.288957
1146.793759	-17.261339
1147.232609	-17.253766
1147.671795	-17.260487
1148.111317	-17.257737
1148.551177	-17.251823
1148.991373	-17.264488
1149.431907	-17.281827
1149.872779	-17.270513
1150.313989	-17.243930
1150.755538	-17.250814
1151.197426	-17.286976
1151.639653	-17.284578
1152.082220	-17.222847
1152.525128	-17.178009
1152.968376	-17.203985
1153.411966	-17.233106
1153.855897	-17.172364
1154.300169	-17.063751
1154.744784	-17.026619
1155.189742	-17.065397
1155.635042	-17.053387
1156.080687	-16.934392
1156.526674	-16.823366
1156.973007	-16.821011
1157.419683	-16.855111
1157.866705	-16.792723
1158.314072	-16.658960
1158.761786	-16.594312
1159.209845	-16.627429
1159.658251	-16.635429
1160.107004	-16.544471
1160.556104	-16.450485
1161.005553	-16.453902
1161.455349	-16.499699
1161.905494	-16.470647
1162.355989	-16.383332
1162.806832	-16.356574
1163.258026	-16.413187
1163.709570	-16.444775
1164.161464	-16.388530
1164.613710	-16.331643
1165.066307	-16.364324
1165.519256	-16.435916
1165.972558	-16.434680
1166.426212	-16.368800
1166.880219	-16.350751
1167.334580	-16.414759
1167.789295	-16.463860
1168.244364	-16.421346
1168.699788	-16.354393
1169.155567	-16.364318
1169.611702	-16.427858
1170.068193	-16.430001
1170.525041	-16.343921
1170.982245	-16.277112
1171.439807	-16.302243
1171.897726	-16.344618
1172.356004	-16.291247
1172.814640	-16.170857
1173.273635	-16.112056
1173.732989	-16.145102
1174.192703	-16.154423
1174.652778	-16.054739
1175.113213	-15.930400
1175.574009	-15.900141
1176.035167	-15.935256
1176.496687	-15.905491
1176.958569	-15.786652
1177.420814	-15.699543
1177.883422	-15.713538
1178.346394	-15.741740
1178.809730	-15.681016
1179.273430	-15.580536
1179.737496	-15.556252
1180.201927	-15.605254
1180.666723	-15.614899
1181.131886	-15.545360
1181.597416	-15.491194
1182.063312	-15.521600
1182.529576	-15.574652
1182.996209	-15.561067
1183.463209	-15.506825
1183.930579	-15.500785
1184.398317	-15.549991
1184.866426	-15.577543
1185.334904	-15.549729
1185.803754	-15.521372
1186.272974	-15.536342
1186.742566	-15.562905
1187.212529	-15.555430
1187.682865	-15.525889
1188.153574	-15.511811
1188.624656	-15.512549
1189.096112	-15.500958
1189.567942	-15.472836
1190.040147	-15.446522
1190.512726	-15.426549
1190.985681	-15.401123
1191.459012	-15.368292
1191.932720	-15.336926
1192.406804	-15.307016
1192.881265	-15.272490
1193.356104	-15.237493
1193.831322	-15.208313
1194.306918	-15.178102
1194.782893	-15.139053
1195.259248	-15.102279
1195.735982	-15.081783
1196.213097	-15.065857
1196.690593	-15.032798
1197.168471	-14.990691
1197.646730	-14.967929
1198.125371	-14.965428
1198.604395	-14.951956
1199.083803	-14.915147
1199.563594	-14.883568
1200.043769	-14.878375
1200.524329	-14.877599
1201.005273	-14.853880
1201.486604	-14.820639
1201.968320	-14.807077
1202.450422	-14.807590
1202.932912	-14.792962
1203.415789	-14.762613
1203.899054	-14.744890
1204.382707	-14.745498
1204.866748	-14.737192
1205.351179	-14.708148
1205.836000	-14.683590
1206.321211	-14.682110
1206.806812	-14.682757
1207.292805	-14.660274
1207.779189	-14.628472
1208.265965	-14.615911
1208.753134	-14.618442
1209.240696	-14.608088
1209.728651	-14.580014
1210.217000	-14.558457
1210.705744	-14.554021
1211.194883	-14.547837
1211.684417	-14.526131
1212.174347	-14.501991
1212.664673	-14.490383
1213.155396	-14.482685
1213.646516	-14.462855
1214.138034	-14.435430
1214.629951	-14.416143
1215.122266	-14.404775
1215.614980	-14.386913
1216.108095	-14.358509
1216.601609	-14.332312
1217.095524	-14.316481
1217.589841	-14.301723
1218.084559	-14.277490
1218.579679	-14.248995
1219.075202	-14.228486
1219.571128	-14.215747
1220.067458	-14.198726
1220.564191	-14.173288
1221.061330	-14.150008
1221.558874	-14.136564
1222.056823	-14.125000
1222.555178	-14.104945
1223.053940	-14.081670
1223.553109	-14.067486
1224.052686	-14.060104
1224.552671	-14.045756
1225.053065	-14.023418
1225.553867	-14.007222
1226.055079	-14.001690
1226.556702	-13.992815
1227.058735	-13.972355
1227.561179	-13.952735
1228.064035	-13.944395
1228.567303	-13.936698
1229.070983	-13.917417
1229.575077	-13.895346
1230.079585	-13.883928
1230.584506	-13.875525
1231.089842	-13.855610
1231.595594	-13.831052
1232.101761	-13.817928
1232.608345	-13.811066
1233.115345	-13.792699
1233.622762	-13.766292
1234.130597	-13.751174
1234.638851	-13.746585
1235.147523	-13.732460
1235.656615	-13.706741
1236.166126	-13.689511
1236.676058	-13.685545
1237.186411	-13.675537
1237.697185	-13.652600
1238.208381	-13.634717
1238.719999	-13.629830
1239.232040	-13.620972
1239.744505	-13.599676
1240.257394	-13.582349
1240.770708	-13.577469
1241.284446	-13.568414
1241.798610	-13.546124
1242.313201	-13.527985
1242.828218	-13.523892
1243.343662	-13.516165
1243.859534	-13.493363
1244.375834	-13.473468
1244.892563	-13.469473
1245.409721	-13.463631
1245.927309	-13.441580
1246.445327	-13.419979
1246.963777	-13.414321
1247.482657	-13.409141
1248.001970	-13.388568
1248.521716	-13.367035
1249.041894	-13.359574
1249.562506	-13.353189
1250.083553	-13.333981
1250.605034	-13.315265
1251.126950	-13.309349
1251.649302	-13.302331
1252.172091	-13.283508
1252.695316	-13.267843
1253.218979	-13.265444
1253.743079	-13.259472
1254.267619	-13.240101
1254.792597	-13.225472
1255.318015	-13.225049
1255.843874	-13.219790
1256.370173	-13.199542
1256.896913	-13.183757
1257.424095	-13.182345
1257.951720	-13.175944
1258.479787	-13.154900
1259.008298	-13.137521
1259.537254	-13.132403
1260.066654	-13.122139
1260.596499	-13.100327
1261.126790	-13.083755
1261.657527	-13.076274
1262.188711	-13.061740
1262.720342	-13.038902
1263.252422	-13.024340
1263.784950	-13.016860
1264.317928	-12.999848
1264.851355	-12.976777
1265.385232	-12.963895
1265.919560	-12.955640
1266.454340	-12.935856
1266.989572	-12.912109
1267.525256	-12.899906
1268.061394	-12.889719
1268.597985	-12.866566
1269.135031	-12.841453
1269.672531	-12.828368
1270.210487	-12.815235
1270.748899	-12.789425
1271.287768	-12.763970
1271.827094	-12.749798
1272.366877	-12.733608
1272.907119	-12.706824
1273.447820	-12.683433
1273.988981	-12.669559
1274.530601	-12.651579
1275.072683	-12.626284
1275.615226	-12.607222
1276.158230	-12.594573
1276.701697	-12.575094
1277.245627	-12.551726
1277.790021	-12.536933
1278.334879	-12.524809
1278.880202	-12.503255
1279.425991	-12.480845
1279.972245	-12.468305
1280.518966	-12.454907
1281.066155	-12.431286
1281.613811	-12.409656
1282.161936	-12.397500
1282.710529	-12.381557
1283.259593	-12.356992
1283.809126	-12.337608
1284.359131	-12.325768
1284.909607	-12.307900
1285.460555	-12.284964
1286.011976	-12.270353
1286.563870	-12.260331
1287.116237	-12.242840
1287.669080	-12.224339
1288.222397	-12.215489
1288.776191	-12.207514
1289.330460	-12.192016
1289.885207	-12.179145
1290.440431	-12.174385
1290.996133	-12.166559
1291.552314	-12.153362
1292.108975	-12.145716
1292.666115	-12.141941
1293.223737	-12.131779
1293.781839	-12.120660
1294.340424	-12.117189
1294.899491	-12.111965
1295.459041	-12.098713
1296.019075	-12.089827
1296.579593	-12.089072
1297.140597	-12.081973
1297.702086	-12.068110
1298.264061	-12.062575
1298.826524	-12.062594
1299.389474	-12.054136
1299.952912	-12.043164
1300.516839	-12.041263
1301.081255	-12.039636
1301.646162	-12.030775
1302.211559	-12.025271
1302.777448	-12.025742
1303.343829	-12.020937
1303.910702	-12.013677
1304.478069	-12.014145
1305.045930	-12.014384
1305.614285	-12.006624
1306.183136	-12.002957
1306.752483	-12.007009
1307.322326	-12.004262
1307.892666	-11.996009
1308.463504	-11.996846
1309.034841	-12.000254
1309.606677	-11.993761
1310.179012	-11.988327
1310.751849	-11.991533
1311.325186	-11.989776
1311.899025	-11.981453
1312.473366	-11.980598
1313.048211	-11.981915
1313.623559	-11.973778
1314.199412	-11.967201
1314.775770	-11.968887
1315.352634	-11.963992
1315.930004	-11.952411
1316.507881	-11.949161
1317.086266	-11.947678
1317.665159	-11.935934
1318.244562	-11.926190
1318.824474	-11.924195
1319.404897	-11.915334
1319.985831	-11.901714
1320.567276	-11.896785
1321.149234	-11.890879
1321.731706	-11.875954
1322.314691	-11.866706
1322.898190	-11.863511
1323.482205	-11.850636
1324.066736	-11.836264
1324.651783	-11.832412
1325.237347	-11.824309
1325.823430	-11.807257
1326.410031	-11.798468
1326.997151	-11.793486
1327.584791	-11.778068
1328.172952	-11.764683
1328.761634	-11.760083
1329.350839	-11.747785
1329.940566	-11.730994
1330.530817	-11.724361
1331.121592	-11.715658
1331.712891	-11.697463
1332.304716	-11.687048
1332.897068	-11.681694
1333.489946	-11.665354
1334.083352	-11.650347
1334.677287	-11.645451
1335.271750	-11.633397
1335.866744	-11.616278
1336.462268	-11.610002
1337.058323	-11.602514
1337.654910	-11.586071
1338.252029	-11.577601
1338.849682	-11.573275
1339.447869	-11.558681
1340.046591	-11.547921
1340.645848	-11.546030
1341.245641	-11.534621
1341.845972	-11.520810
1342.446840	-11.519095
1343.048246	-11.512815
1343.650191	-11.498258
1344.252677	-11.494568
1344.855702	-11.492629
1345.459269	-11.479618
1346.063379	-11.473109
1346.668030	-11.473714
1347.273226	-11.464229
1347.878965	-11.456614
1348.485250	-11.458876
1349.092080	-11.452855
1349.699456	-11.444078
1350.307380	-11.446768
1350.915851	-11.444609
1351.524871	-11.435856
1352.134441	-11.438752
1352.744560	-11.440812
1353.355231	-11.432171
1353.966453	-11.433250
1354.578227	-11.439200
1355.190555	-11.432858
1355.803436	-11.431829
1356.416872	-11.440529
1357.030863	-11.438261
1357.645411	-11.435924
1358.260515	-11.445046
1358.876177	-11.446301
1359.492397	-11.443873
1360.109176	-11.453105
1360.726516	-11.457257
1361.344416	-11.455140
1361.962877	-11.464411
1362.581901	-11.470877
1363.201487	-11.468595
1363.821637	-11.477707
1364.442352	-11.487079
1365.063632	-11.484761
1365.685478	-11.492402
1366.307891	-11.504286
1366.930871	-11.502382
1367.554420	-11.506914
1368.178538	-11.519630
1368.803226	-11.519359
1369.428485	-11.521784
1370.054315	-11.534350
1370.680717	-11.535736
1371.307693	-11.537190
1371.935242	-11.549229
1372.563366	-11.551370
1373.192065	-11.552213
1373.821341	-11.564506
1374.451193	-11.567529
1375.081623	-11.567778
1375.712632	-11.580934
1376.344221	-11.585850
1376.976389	-11.586060
1377.609139	-11.600394
1378.242470	-11.608127
1378.876384	-11.608780
1379.510881	-11.623443
1380.145963	-11.633016
1380.781629	-11.633876
1381.417881	-11.648171
1382.054720	-11.658885
1382.692147	-11.660113
1383.330161	-11.673972
1383.968765	-11.684668
1384.607959	-11.685256
1385.247743	-11.697868
1385.888119	-11.707422
1386.529087	-11.706812
1387.170648	-11.718494
1387.812804	-11.727339
1388.455554	-11.726239
1389.098899	-11.738272
1389.742842	-11.747820
1390.387381	-11.747397
1391.032519	-11.760512
1391.678256	-11.771059
1392.324592	-11.771694
1392.971529	-11.785721
1393.619068	-11.796455
1394.267208	-11.797792
1394.915952	-11.812631
1395.565300	-11.823449
1396.215253	-11.825777
1396.865812	-11.841904
1397.516977	-11.852823
1398.168749	-11.856376
1398.821130	-11.873802
1399.474120	-11.884438
1400.127719	-11.888996
1400.781930	-11.907234
1401.436752	-11.917183
1402.092186	-11.922888
1402.748234	-11.941716
1403.404897	-11.950663
1404.062174	-11.957685
1404.720067	-11.976938
1405.378577	-11.984912
1406.037705	-11.994003
1406.697451	-12.014229
1407.357817	-12.021888
1408.018803	-12.033248
1408.680410	-12.053102
1409.342639	-12.058974
1410.005492	-12.071051
1410.668968	-12.088999
1411.333068	-12.093682
1411.997795	-12.108087
1412.663147	-12.125752
1413.329127	-12.131868
1413.995736	-12.150127
1414.662973	-12.167879
1415.330840	-12.176422
1415.999339	-12.198639
1416.668469	-12.216862
1417.338232	-12.229863
1418.008628	-12.256822
1418.679659	-12.275870
1419.351325	-12.293441
1420.023628	-12.322234
1420.696568	-12.339030
1421.370145	-12.358806
1422.044362	-12.387101
1422.719219	-12.402983
1423.394717	-12.427875
1424.070856	-12.458301
1424.747638	-12.477533
1425.425064	-12.508783
1426.103134	-12.539278
1426.781850	-12.560403
1427.461212	-12.593799
1428.141221	-12.620249
1428.821878	-12.642615
1429.503185	-12.676974
1430.185141	-12.700967
1430.867749	-12.727707
1431.551008	-12.763013
1432.234920	-12.785283
1432.919486	-12.814449
1433.604707	-12.844737
1434.290583	-12.862219
1434.977116	-12.890490
1435.664307	-12.914682
1436.352156	-12.933766
1437.040664	-12.967452
1437.729833	-12.993397
1438.419663	-13.021390
1439.110156	-13.058939
1439.801312	-13.082140
1440.493132	-13.110203
1441.185617	-13.138724
1441.878768	-13.154108
1442.572586	-13.181350
1443.267072	-13.205688
1443.962228	-13.227384
1444.658053	-13.264496
1445.354549	-13.293847
1446.051717	-13.327375
1446.749558	-13.368091
1447.448073	-13.394684
1448.147263	-13.428300
1448.847128	-13.457651
1449.547671	-13.476112
1450.248891	-13.507090
1450.950789	-13.530671
1451.653368	-13.558132
1452.356627	-13.600795
1453.060568	-13.634799
1453.765192	-13.679934
1454.470500	-13.726533
1455.176492	-13.758886
1455.883170	-13.798263
1456.590534	-13.823452
1457.298586	-13.841724
1458.007327	-13.867928
1458.716758	-13.883168
1459.426880	-13.912619
1460.137693	-13.952188
1460.849199	-13.992228
1461.561398	-14.054920
1462.274293	-14.113469
1462.987883	-14.170299
1463.702170	-14.229114
1464.417155	-14.260818
1465.132838	-14.287653
1465.849222	-14.300848
1466.566306	-14.298204
1467.284093	-14.309970
1468.002582	-14.319519
1468.721775	-14.347752
1469.441674	-14.402614
1470.162278	-14.463600
1470.883590	-14.551735
1471.605609	-14.640417
1472.328338	-14.718634
1473.051777	-14.792524
1473.775928	-14.827395
1474.500790	-14.842543
1475.226367	-14.833914
1475.952657	-14.798352
1476.679663	-14.770964
1477.407386	-14.738243
1478.135826	-14.725150
1478.864985	-14.743200
1479.594863	-14.776061
1480.325463	-14.848650
1481.056784	-14.934806
1481.788828	-15.027691
1482.521597	-15.128456
1483.255090	-15.198083
1483.989309	-15.249899
1484.724256	-15.261549
1485.459931	-15.225462
1486.196336	-15.164394
1486.933471	-15.059637
1487.671337	-14.944012
1488.409937	-14.822606
1489.149270	-14.697375
1489.889337	-14.599333
1490.630141	-14.513962
1491.371682	-14.464664
1492.113961	-14.457977
1492.856979	-14.486586
1493.600738	-14.578127
1494.345238	-14.716766
1495.090481	-14.915479
1495.836467	-15.182916
1496.583198	-15.499648
1497.330675	-15.885313
1498.078899	-16.310105
1498.827872	-16.760289
1499.577593	-17.218938
1500.328065	-17.621072
1501.079289	-17.950464
1501.831265	-18.139603
1502.583995	-18.172727
1503.337480	-18.061977
1504.091721	-17.814644
1504.846719	-17.505786
1505.602475	-17.151177
1506.358991	-16.800113
1507.116268	-16.474730
1507.874306	-16.170609
1508.633108	-15.910885
1509.392673	-15.665983
1510.153004	-15.435887
1510.914101	-15.201545
1511.675965	-14.936779
1512.438599	-14.645600
1513.202002	-14.300834
1513.966176	-13.916542
1514.731122	-13.496165
1515.496842	-13.048161
1516.263336	-12.602506
1517.030607	-12.161519
1517.798654	-11.751369
1518.567479	-11.381114
1519.337083	-11.058905
1520.107468	-10.803534
1520.878634	-10.611602
1521.650584	-10.497657
1522.423317	-10.465112
1523.196836	-10.516853
1523.971141	-10.668278
1524.746233	-10.917211
1525.522115	-11.279354
1526.298786	-11.763666
1527.076249	-12.374744
1527.854504	-13.130724
1528.633553	-14.019350
1529.413397	-15.020711
1530.194037	-16.052070
1530.975474	-16.893161
1531.757709	-17.228552
1532.540745	-16.812591
1533.324581	-15.752743
1534.109220	-14.393689
1534.894662	-12.987527
1535.680909	-11.668018
1536.467961	-10.486319
1537.255821	-9.442663
1538.044489	-8.539338
1538.833967	-7.763009
1539.624256	-7.103960
1540.415357	-6.556054
1541.207271	-6.106240
1542.000000	-5.753242
1542.793545	-5.488718
1543.587907	-5.309054
1544.383087	-5.212405
1545.179088	-5.192455
1545.975909	-5.251666
1546.773552	-5.384553
1547.572019	-5.591585
1548.371311	-5.872136
1549.171428	-6.223887
1549.972373	-6.650725
1550.774147	-7.147249
1551.576751	-7.716955
1552.380185	-8.355651
1553.184453	-9.060611
1553.989554	-9.827338
1554.795490	-10.639381
1555.602263	-11.484390
1556.409873	-12.322666
1557.218322	-13.113646
1558.027612	-13.788572
1558.837743	-14.286140
1559.648717	-14.560797
1560.460536	-14.602104
1561.273200	-14.450992
1562.086710	-14.158392
1562.901069	-13.797782
1563.716278	-13.409969
1564.532337	-13.038189
1565.349249	-12.696525
1566.167014	-12.401393
1566.985634	-12.158218
1567.805111	-11.966143
1568.625444	-11.828296
1569.446637	-11.736283
1570.268690	-11.694855
1571.091605	-11.693447
1571.915382	-11.733138
1572.740024	-11.807553
1573.565532	-11.914817
1574.391907	-12.052565
1575.219150	-12.211685
1576.047262	-12.394379
1576.876246	-12.590591
1577.706103	-12.803580
1578.536833	-13.022192
1579.368439	-13.247383
1580.200922	-13.473119
1581.034282	-13.693686
1581.868522	-13.906914
1582.703643	-14.104039
1583.539646	-14.288839
1584.376532	-14.448466
1585.214304	-14.586848
1586.052962	-14.694210
1586.892508	-14.776700
1587.732943	-14.827540
1588.574269	-14.850297
1589.416487	-14.847180
1590.259599	-14.821145
1591.103605	-14.777678
1591.948508	-14.715099
1592.794309	-14.645298
1593.641009	-14.565671
1594.488609	-14.487150
1595.337112	-14.405124
1596.186518	-14.331615
1597.036829	-14.261717
1597.888047	-14.201083
1598.740172	-14.147242
1599.593207	-14.104966
1600.447153	-14.073685
1601.302010	-14.050901
1602.157782	-14.039756
1603.014469	-14.036143
1603.872072	-14.043189
1604.730593	-14.053363
1605.590034	-14.074172
1606.450397	-14.097313
1607.311681	-14.126798
1608.173890	-14.154471
1609.037024	-14.186332
1609.901085	-14.214798
1610.766075	-14.241767
1611.631995	-14.264963
1612.498846	-14.285120
1613.366630	-14.299222
1614.235349	-14.306131
1615.105004	-14.311627
1615.975596	-14.312312
1616.847128	-14.312884
1617.719600	-14.311148
1618.593014	-14.315678
1619.467372	-14.320590
1620.342675	-14.335678
1621.218924	-14.358994
1622.096122	-14.396933
1622.974270	-14.442765
1623.853369	-14.505056
1624.733420	-14.579037
1625.614427	-14.666553
1626.496389	-14.763345
1627.379308	-14.871208
1628.263187	-14.981551
1629.148026	-15.091619
1630.033828	-15.200868
1630.920593	-15.304817
1631.808324	-15.399064
1632.697022	-15.481628
1633.586688	-15.554489
1634.477324	-15.612068
1635.368932	-15.661584
1636.261514	-15.702672
1637.155070	-15.738521
1638.049602	-15.766543
1638.945113	-15.798580
1639.841603	-15.830117
1640.739075	-15.867970
1641.637529	-15.911027
1642.536968	-15.964859
1643.437393	-16.020874
1644.338806	-16.089091
1645.241209	-16.162959
1646.144602	-16.242330
1647.048988	-16.320010
1647.954368	-16.401286
1648.860744	-16.473854
1649.768118	-16.543103
1650.676491	-16.603433
1651.585865	-16.654961
1652.496241	-16.691372
1653.407621	-16.723746
1654.320008	-16.744206
1655.233401	-16.759758
1656.147804	-16.769930
1657.063218	-16.778684
1657.979645	-16.779756
1658.897085	-16.785252
1659.815542	-16.785726
1660.735016	-16.784178
1661.655509	-16.778212
1662.577023	-16.771228
1663.499560	-16.753521
1664.423121	-16.736258
1665.347709	-16.710368
1666.273324	-16.680038
1667.199969	-16.644363
1668.127645	-16.608260
1669.056353	-16.563139
1669.986097	-16.521715
1670.916877	-16.474654
1671.848695	-16.426222
1672.781553	-16.375617
1673.715452	-16.325560
1674.650395	-16.268370
1675.586383	-16.215704
1676.523418	-16.157730
1677.461501	-16.097924
1678.400635	-16.036906
1679.340821	-15.974629
1680.282061	-15.907599
1681.224357	-15.843120
1682.167710	-15.773268
1683.112122	-15.704042
1684.057595	-15.637408
1685.004132	-15.569581
1685.951732	-15.504149
1686.900400	-15.441204
1687.850135	-15.376216
1688.800940	-15.313728
1689.752818	-15.251925
1690.705768	-15.184280
1691.659795	-15.120308
1692.614898	-15.053649
1693.571081	-14.987797
1694.528345	-14.924481
1695.486691	-14.862113
1696.446122	-14.799979
1697.406640	-14.743523
1698.368245	-14.683107
1699.330941	-14.626636
1700.294729	-14.568215
1701.259611	-14.509689
1702.225588	-14.453777
1703.192664	-14.397130
1704.160838	-14.341425
1705.130114	-14.290705
1706.100493	-14.237803
1707.071977	-14.188411
1708.044568	-14.140124
1709.018268	-14.089567
1709.993079	-14.043611
1710.969003	-13.995193
1711.946041	-13.949465
1712.924196	-13.906040
1713.903469	-13.863155
1714.883862	-13.823259
1715.865378	-13.784415
1716.848017	-13.745442
1717.831783	-13.709949
1718.816677	-13.670869
1719.802701	-13.636186
1720.789857	-13.600776
1721.778147	-13.565438
1722.767573	-13.533940
1723.758136	-13.499800
1724.749840	-13.470171
1725.742685	-13.439894
1726.736673	-13.409324
1727.731808	-13.381323
1728.728090	-13.352654
1729.725521	-13.325330
1730.724105	-13.298931
1731.723842	-13.272400
1732.724735	-13.248827
1733.726785	-13.223612
1734.729995	-13.201840
1735.734366	-13.179490
1736.739902	-13.158097
1737.746603	-13.138504
1738.754472	-13.115744
1739.763510	-13.097897
1740.773721	-13.076310
1741.785105	-13.058199
1742.797665	-13.039900
1743.811403	-13.020342
1744.826321	-13.003656
1745.842422	-12.983769
1746.859706	-12.967825
1747.878177	-12.949255
1748.897835	-12.933162
1749.918685	-12.916991
1750.940726	-12.900883
1751.963963	-12.886460
1752.988395	-12.870765
1754.014027	-12.859282
1755.040860	-12.844440
1756.068895	-12.833186
1757.098135	-12.820515
1758.128583	-12.808664
1759.160240	-12.798423
1760.193109	-12.786797
1761.227191	-12.779522
1762.262488	-12.768651
1763.299004	-12.761388
1764.336740	-12.751930
1765.375697	-12.743118
1766.415880	-12.734295
1767.457288	-12.726038
1768.499926	-12.718741
1769.543794	-12.710349
1770.588895	-12.704911
1771.635231	-12.697506
1772.682805	-12.691905
1773.731619	-12.683310
1774.781674	-12.678631
1775.832973	-12.670963
1776.885519	-12.665918
1777.939312	-12.659937
1778.994357	-12.655136
1780.050654	-12.651707
1781.108207	-12.647188
1782.167017	-12.644540
1783.227087	-12.639390
1784.288418	-12.637173
1785.351013	-12.632818
1786.414875	-12.631002
1787.480006	-12.627832
1788.546407	-12.626556
1789.614082	-12.623703
1790.683032	-12.624079
1791.753259	-12.621998
1792.824767	-12.623295
1793.897557	-12.621403
1794.971632	-12.622711
1796.046994	-12.620605
1797.123645	-12.622663
1798.201588	-12.622647
1799.280824	-12.625125
1800.361357	-12.626491
1801.443188	-12.628301
1802.526320	-12.628860
1803.610756	-12.630637
1804.696497	-12.632421
1805.783546	-12.635297
1806.871906	-12.637805
1807.961578	-12.641700
1809.052565	-12.644579
1810.144870	-12.648528
1811.238494	-12.651885
1812.333441	-12.656892
1813.429713	-12.660476
1814.527311	-12.665944
1815.626239	-12.669998
1816.726499	-12.677363
1817.828094	-12.681982
1818.931025	-12.690240
1820.035295	-12.695101
1821.140906	-12.703442
1822.247862	-12.708883
1823.356165	-12.718233
1824.465816	-12.725792
1825.576819	-12.736646
1826.689175	-12.744303
1827.802888	-12.755092
1828.917960	-12.762913
1830.034394	-12.772882
1831.152191	-12.781900
1832.271354	-12.792039
1833.391887	-12.802630
1834.513790	-12.812375
1835.637068	-12.823778
1836.761722	-12.831913
1837.887755	-12.843323
1839.015169	-12.850962
1840.143968	-12.863284
1841.274153	-12.870649
1842.405727	-12.882846
1843.538693	-12.890042
1844.673053	-12.901300
1845.808810	-12.909705
1846.945966	-12.920070
1848.084525	-12.930462
1849.224488	-12.939133
1850.365858	-12.950540
1851.508638	-12.958445
1852.652831	-12.970700
1853.798438	-12.979139
1854.945463	-12.991203
1856.093909	-13.001087
1857.243777	-13.011355
1858.395071	-13.023091
1859.547794	-13.031747
1860.701947	-13.045071
1861.857533	-13.055387
1863.014556	-13.069800
1864.173018	-13.080996
1865.332922	-13.093367
1866.494270	-13.107211
1867.657065	-13.118535
1868.821309	-13.134891
1869.987006	-13.145395
1871.154158	-13.159899
1872.322768	-13.172615
1873.492839	-13.185353
1874.664373	-13.200363
1875.837373	-13.210224
1877.011841	-13.225663
1878.187782	-13.237909
1879.365197	-13.251292
1880.544089	-13.266810
1881.724460	-13.276973
1882.906315	-13.291887
1884.089655	-13.302240
1885.274483	-13.312450
1886.460803	-13.325758
1887.648616	-13.335040
1888.837927	-13.350225
1890.028736	-13.360152
1891.221049	-13.369503
1892.414866	-13.382071
1893.610192	-13.389809
1894.807028	-13.404774
1896.005379	-13.415552
1897.205246	-13.424596
1898.406633	-13.437628
1899.609542	-13.446734
1900.813977	-13.460373
1902.019940	-13.472389
1903.227434	-13.480598
1904.436462	-13.493422
1905.647028	-13.507053
1906.859133	-13.518691
1908.072781	-13.532927
1909.287976	-13.542917
1910.504719	-13.553898
1911.723013	-13.569963
1912.942863	-13.579687
1914.164270	-13.593105
1915.387238	-13.608178
1916.611770	-13.616587
1917.837868	-13.630790
1919.065536	-13.643460
1920.294777	-13.652181
1921.525594	-13.668135
1922.757989	-13.678458
1923.991967	-13.687064
1925.227529	-13.700491
1926.464679	-13.709617
1927.703420	-13.717777
1928.943755	-13.730165
1930.185688	-13.737660
1931.429221	-13.743798
1932.674356	-13.753194
1933.921099	-13.760497
1935.169451	-13.765361
1936.419415	-13.774871
1937.670996	-13.780793
1938.924195	-13.782043
1940.179017	-13.790060
1941.435463	-13.796779
1942.693538	-13.797775
1943.953245	-13.806801
1945.214586	-13.814692
1946.477566	-13.815853
1947.742186	-13.823059
1949.008451	-13.831083
1950.276363	-13.831171
1951.545926	-13.836161
1952.817143	-13.844739
1954.090017	-13.846488
1955.364551	-13.848019
1956.640749	-13.855727
1957.918615	-13.860072
1959.198150	-13.862126
1960.479359	-13.868105
1961.762244	-13.875689
1963.046810	-13.877505
1964.333059	-13.880505
1965.620995	-13.888391
1966.910621	-13.892700
1968.201940	-13.891458
1969.494956	-13.895077
1970.789672	-13.902456
1972.086091	-13.901651
1973.384217	-13.898355
1974.684053	-13.900203
1975.985602	-13.900897
1977.288869	-13.895435
1978.593855	-13.892447
1979.900566	-13.892669
1981.209003	-13.887925
1982.519171	-13.879035
1983.831073	-13.874404
1985.144712	-13.873158
1986.460093	-13.866316
1987.777217	-13.855318
1989.096089	-13.848292
1990.416713	-13.845315
1991.739092	-13.839510
1993.063228	-13.828680
1994.389127	-13.820308
1995.716791	-13.816224
1997.046223	-13.810298
1998.377428	-13.798463
1999.710409	-13.788622
2001.045169	-13.785498
2002.381713	-13.781941
2003.720043	-13.773092
2005.060163	-13.761837
2006.402077	-13.755560
2007.745788	-13.751696
2009.091301	-13.743986
2010.438618	-13.733147
2011.787743	-13.724459
2013.138680	-13.719455
2014.491433	-13.713802
2015.846005	-13.703207
2017.202399	-13.690958
2018.560621	-13.680258
2019.920673	-13.672720
2021.282558	-13.663117
2022.646281	-13.648841
2024.011846	-13.631764
2025.379256	-13.616335
2026.748515	-13.605363
2028.119626	-13.594192
2029.492594	-13.578105
2030.867422	-13.559119
2032.244114	-13.541183
2033.622673	-13.527180
2035.003104	-13.515423
2036.385411	-13.502123
2037.769597	-13.486890
2039.155665	-13.470260
2040.543621	-13.454830
2041.933467	-13.443502
2043.325208	-13.434135
2044.718847	-13.424480
2046.114389	-13.412826
2047.511837	-13.399315
2048.911195	-13.388359
2050.312467	-13.380641
2051.715657	-13.374708
2053.120769	-13.368727
2054.527807	-13.360845
2055.936775	-13.350771
2057.347677	-13.341013
2058.760516	-13.331565
2060.175297	-13.322811
2061.592025	-13.317612
2063.010701	-13.310376
2064.431332	-13.300344
2065.853921	-13.287752
2067.278472	-13.274047
2068.704988	-13.258543
2070.133475	-13.243629
2071.563936	-13.230168
2072.996375	-13.216472
2074.430796	-13.205451
2075.867204	-13.192270
2077.305603	-13.177933
2078.745996	-13.161336
2080.188389	-13.144131
2081.632784	-13.128661
2083.079187	-13.114724
2084.527601	-13.103024
2085.978030	-13.092747
2087.430480	-13.084891
2088.884954	-13.079271
2090.341455	-13.074034
2091.799990	-13.067169
2093.260561	-13.060481
2094.723173	-13.053758
2096.187831	-13.046369
2097.654538	-13.038007
2099.123300	-13.031958
2100.594119	-13.028189
2102.067001	-13.024043
2103.541950	-13.024431
2105.018971	-13.026406
2106.498067	-13.028780
2107.979243	-13.031644
2109.462503	-13.034207
2110.947853	-13.036344
2112.435295	-13.036282
2113.924836	-13.036643
2115.416478	-13.034236
2116.910227	-13.026308
2118.406087	-13.017300
2119.904063	-13.007169
2121.404158	-12.994767
2122.906378	-12.979829
2124.410727	-12.966243
2125.917210	-12.954073
2127.425831	-12.941743
2128.936594	-12.928062
2130.449505	-12.915586
2131.964567	-12.905514
2133.481786	-12.896469
2135.001166	-12.888480
2136.522711	-12.883770
2138.046427	-12.882874
2139.572317	-12.884701
2141.100388	-12.888325
2142.630642	-12.894791
2144.163085	-12.903372
2145.697722	-12.912519
2147.234558	-12.922192
2148.773596	-12.933621
2150.314842	-12.948710
2151.858301	-12.964599
2153.403977	-12.978750
2154.951875	-12.992957
2156.502000	-13.010372
2158.054357	-13.029181
2159.608950	-13.047140
2161.165785	-13.060651
2162.724866	-13.073981
2164.286198	-13.088913
2165.849786	-13.103894
2167.415635	-13.113897
2168.983749	-13.116831
2170.554134	-13.119536
2172.126795	-13.124464
2173.701737	-13.130537
2175.278964	-13.134056
2176.858481	-13.135008
2178.440294	-13.137379
2180.024408	-13.145991
2181.610827	-13.158146
2183.199557	-13.170547
2184.790602	-13.180747
2186.383968	-13.193667
2187.979660	-13.216473
2189.577683	-13.246315
2191.178041	-13.273249
2192.780741	-13.287303
2194.385787	-13.294776
2195.993185	-13.307208
2197.602939	-13.337206
2199.215054	-13.372454
