# 2022-03-22_08.46.19
# shape = sech2
# FWHM_ps = 0.11
# carrier_nm = 1542
# frep_MHz = 12126
# pow_mW = 8000
# GDD = 0.0
# propa_len = 0.10488888888888889
# untap_len = 0.01
# taper_len = 0.04488888888888889
# waist_len = 0.02
# uptap_len = 0.02
# untap_scale = 1.0
# waist_scale = 0.11578947368421054
# workingDir = NL_20110305_12 (Spirou)
# axis = slow
# window_ps = 10.0
# steps = 200
# points = 21700
# 
# wavelength [nm]	 power spectral density [dB]
600.043425	-77.264257
600.163550	-78.396314
600.283723	-81.531768
600.403943	-78.875734
600.524212	-76.102263
600.644529	-80.105141
600.764895	-79.619725
600.885308	-75.922978
601.005770	-78.808844
601.126280	-81.194141
601.246839	-76.703227
601.367446	-78.441327
601.488101	-78.871853
601.608804	-79.925339
601.729557	-78.569197
601.850357	-75.516397
601.971206	-80.575497
602.092104	-79.644220
602.213050	-76.397533
602.334045	-79.004248
602.455089	-78.091105
602.576181	-77.945069
602.697322	-79.385005
602.818511	-78.006574
602.939749	-77.544428
603.061036	-78.512779
603.182372	-78.796248
603.303757	-77.765671
603.425191	-77.779669
603.546673	-79.027083
603.668204	-76.966442
603.789785	-77.408977
603.911414	-80.606591
604.033092	-77.557407
604.154820	-76.179619
604.276596	-78.666032
604.398422	-79.284133
604.520297	-78.374020
604.642220	-76.536531
604.764193	-76.776997
604.886216	-80.554699
605.008287	-77.454318
605.130408	-75.544185
605.252578	-79.696444
605.374798	-77.152390
605.497066	-74.905100
605.619385	-79.966217
605.741752	-79.020624
605.864169	-75.052334
605.986636	-78.567318
606.109152	-76.759531
606.231718	-78.654788
606.354333	-78.593638
606.476998	-74.547568
606.599712	-79.732819
606.722476	-76.938970
606.845290	-76.656057
606.968154	-78.456526
607.091067	-76.312268
607.214030	-78.150805
607.337043	-75.992577
607.460106	-77.776772
607.583219	-78.576105
607.706381	-75.727724
607.829594	-76.765647
607.952856	-77.041156
608.076169	-79.193412
608.199531	-76.602597
608.322944	-74.945592
608.446407	-79.007609
608.569920	-76.533425
608.693483	-75.650827
608.817096	-78.555380
608.940759	-77.300880
609.064473	-74.766607
609.188237	-76.930645
609.312051	-79.395810
609.435916	-76.348197
609.559831	-76.264018
609.683796	-76.078549
609.807812	-77.114603
609.931878	-77.457493
610.055995	-75.620364
610.180162	-77.690401
610.304380	-76.276394
610.428648	-75.595602
610.552967	-76.386083
610.677337	-78.245393
610.801757	-77.289452
610.926228	-73.778018
611.050750	-78.129421
611.175323	-76.683907
611.299946	-74.358904
611.424620	-78.831756
611.549345	-75.623725
611.674121	-75.592854
611.798948	-77.200109
611.923826	-75.205883
612.048755	-78.591571
612.173734	-75.326210
612.298765	-74.418841
612.423847	-79.013379
612.548980	-75.510484
612.674165	-75.199491
612.799400	-77.514743
612.924687	-75.282424
613.050025	-76.527079
613.175414	-76.018358
613.300854	-75.970924
613.426346	-77.453325
613.551889	-74.351163
613.677484	-76.786510
613.803130	-76.102327
613.928827	-76.282664
614.054576	-75.925051
614.180377	-74.617213
614.306229	-78.211638
614.432132	-74.537128
614.558087	-75.041218
614.684094	-78.474780
614.810153	-74.716451
614.936263	-74.292543
615.062425	-77.380364
615.188639	-75.965779
615.314904	-74.661952
615.441222	-76.187592
615.567591	-75.870549
615.694012	-74.802024
615.820486	-76.376246
615.947011	-75.536337
616.073588	-76.110386
616.200217	-75.699137
616.326898	-74.174205
616.453632	-76.513636
616.580417	-75.900383
616.707255	-75.344047
616.834144	-75.190156
616.961086	-76.774629
617.088081	-74.408555
617.215127	-74.278613
617.342226	-79.627133
617.469378	-73.771685
617.596581	-74.879911
617.723837	-76.809041
617.851146	-73.297463
617.978507	-77.746562
618.105920	-74.297720
618.233386	-75.884356
618.360905	-75.269789
618.488476	-73.465322
618.616100	-77.746473
618.743777	-73.596799
618.871506	-76.114826
618.999288	-75.657228
619.127123	-74.255377
619.255011	-75.896194
619.382951	-74.183077
619.510945	-76.009814
619.638991	-76.196476
619.767090	-73.467891
619.895243	-76.373045
620.023448	-75.053203
620.151706	-73.425074
620.280017	-77.035601
620.408382	-75.459511
620.536799	-74.298239
620.665270	-75.274018
620.793794	-75.252150
620.922371	-74.873665
621.051002	-75.003375
621.179686	-75.547649
621.308423	-75.464615
621.437213	-74.301264
621.566057	-75.269937
621.694954	-74.890217
621.823905	-74.897555
621.952909	-75.626335
622.081967	-74.587889
622.211079	-75.470748
622.340244	-74.469077
622.469462	-74.236541
622.598735	-76.726710
622.728061	-73.308891
622.857441	-75.980660
622.986874	-74.952921
623.116361	-73.979574
623.245903	-75.570725
623.375498	-74.127142
623.505147	-76.511422
623.634850	-73.276908
623.764606	-75.463635
623.894417	-75.639963
624.024282	-73.007176
624.154201	-76.132649
624.284174	-74.926802
624.414202	-74.006404
624.544283	-75.199509
624.674419	-75.356128
624.804609	-73.808943
624.934853	-75.461037
625.065151	-74.948315
625.195504	-73.653116
625.325911	-76.430403
625.456373	-73.012834
625.586889	-77.326354
625.717460	-73.229209
625.848085	-74.369078
625.978764	-76.246249
626.109498	-72.983379
626.240287	-76.282820
626.371131	-74.013444
626.502029	-75.836522
626.632982	-74.134927
626.763989	-73.877610
626.895052	-77.208160
627.026169	-72.505246
627.157341	-75.273970
627.288568	-75.624417
627.419850	-72.793247
627.551187	-76.702081
627.682579	-74.027010
627.814026	-74.791547
627.945528	-73.915316
628.077085	-75.377846
628.208697	-74.905594
628.340364	-72.953752
628.472087	-77.100277
628.603865	-74.120213
628.735698	-73.320470
628.867586	-76.015269
628.999530	-74.164736
629.131529	-73.834184
629.263584	-75.794658
629.395694	-74.575639
629.527859	-74.223463
629.660080	-75.332796
629.792357	-73.914590
629.924689	-75.028733
630.057077	-73.437595
630.189520	-76.110196
630.322019	-74.363481
630.454574	-73.775060
630.587184	-76.525725
630.719851	-73.735014
630.852573	-73.664163
630.985351	-76.511101
631.118185	-72.864470
631.251075	-76.389608
631.384021	-74.265882
631.517023	-74.373756
631.650081	-75.252066
631.783195	-73.600491
631.916365	-75.810983
632.049592	-74.028479
632.182874	-75.142047
632.316213	-74.488870
632.449608	-75.657670
632.583059	-73.699674
632.716567	-74.586748
632.850131	-75.848246
632.983751	-73.540943
633.117428	-75.414280
633.251161	-75.738697
633.384951	-74.129705
633.518797	-73.147240
633.652700	-79.094377
633.786660	-71.269272
633.920676	-75.943163
634.054749	-74.419717
634.188879	-71.894379
634.323065	-79.871577
634.457308	-71.874241
634.591608	-76.933089
634.725965	-73.486158
634.860379	-75.548439
634.994850	-74.719983
635.129377	-74.612900
635.263962	-75.887285
635.398604	-73.924204
635.533303	-75.518970
635.668058	-74.604075
635.802872	-76.196465
635.937742	-73.603799
636.072669	-76.838643
636.207654	-74.429750
636.342696	-73.931971
636.477796	-76.184002
636.612953	-75.192416
636.748167	-74.211037
636.883439	-76.678752
637.018768	-75.290013
637.154155	-74.788387
637.289599	-74.608588
637.425101	-76.673793
637.560660	-72.646738
637.696277	-77.832100
637.831952	-74.146542
637.967685	-73.432097
638.103475	-79.396147
638.239324	-72.471348
638.375230	-78.176233
638.511194	-73.352718
638.647215	-76.423339
638.783295	-75.334419
638.919433	-75.290910
639.055629	-76.743162
639.191883	-75.791470
639.328195	-74.035750
639.464565	-77.752329
639.600994	-73.955097
639.737481	-74.069962
639.874025	-80.013548
640.010629	-72.399957
640.147290	-78.911060
640.284010	-74.562937
640.420789	-73.923469
640.557625	-77.452698
640.694521	-75.506604
640.831474	-75.030618
640.968487	-77.281136
641.105558	-77.017162
641.242687	-74.270826
641.379876	-78.108597
641.517123	-75.351406
641.654429	-74.649967
641.791793	-77.387071
641.929216	-76.263353
642.066699	-75.425835
642.204240	-77.745889
642.341840	-77.513704
642.479499	-74.684411
642.617217	-77.049097
642.754994	-77.393121
642.892830	-73.732126
643.030726	-79.601721
643.168680	-75.870154
643.306694	-75.634999
643.444767	-77.953278
643.582899	-76.815670
643.721091	-75.835913
643.859342	-74.539074
643.997652	-80.907928
644.136022	-71.976160
644.274451	-82.786577
644.412940	-74.135728
644.551488	-74.638166
644.690096	-81.352647
644.828763	-74.670609
644.967490	-77.267519
645.106277	-78.923130
645.245124	-76.383213
645.384030	-76.188192
645.522997	-82.818909
645.662023	-73.786371
645.801109	-79.752102
645.940255	-75.787070
646.079460	-76.400684
646.218726	-77.952999
646.358052	-76.963125
646.497438	-78.994900
646.636884	-74.986898
646.776391	-85.091762
646.915957	-75.001806
647.055584	-78.054967
647.195271	-79.242601
647.335019	-77.246937
647.474826	-76.388819
647.614695	-85.617990
647.754623	-74.740098
647.894612	-76.820860
648.034662	-79.806499
648.174772	-73.289611
648.314943	-86.809973
648.455174	-75.231066
648.595466	-76.386275
648.735819	-84.768706
648.876233	-75.712349
649.016707	-78.900635
649.157242	-79.888500
649.297838	-77.438737
649.438495	-79.467203
649.579213	-78.160892
649.719992	-78.969885
649.860832	-74.867543
650.001733	-87.376088
650.142695	-75.146701
650.283718	-82.541744
650.424803	-78.912106
650.565949	-81.050304
650.707156	-76.833414
650.848424	-86.634556
650.989754	-76.018801
651.131145	-78.587495
651.272597	-81.942811
651.414111	-75.239039
651.555687	-84.018641
651.697324	-77.931398
651.839022	-76.728431
651.980782	-85.158759
652.122604	-78.901711
652.264488	-77.741290
652.406433	-83.833466
652.548441	-78.324332
652.690510	-76.955813
652.832640	-86.798714
652.974833	-76.441190
653.117088	-80.732295
653.259405	-80.441407
653.401784	-79.266541
653.544224	-79.282115
653.686727	-83.142080
653.829293	-77.057085
653.971920	-77.105736
654.114609	-83.616656
654.257361	-73.995988
654.400175	-81.429860
654.543052	-76.612659
654.685991	-74.571695
654.828992	-89.259399
654.972056	-74.694086
655.115183	-84.639555
655.258372	-76.818758
655.401623	-83.190491
655.544937	-75.004479
655.688314	-90.555299
655.831754	-74.030883
655.975256	-79.723568
656.118822	-77.172821
656.262450	-77.401551
656.406141	-78.403177
656.549894	-80.241523
656.693711	-75.944424
656.837591	-76.410466
656.981534	-79.039849
657.125540	-73.517115
657.269610	-87.056767
657.413742	-75.431506
657.557938	-76.148533
657.702196	-82.375595
657.846519	-73.698365
657.990904	-73.913334
658.135353	-77.352517
658.279866	-71.538372
658.424441	-88.204986
658.569081	-74.673962
658.713784	-76.012737
658.858550	-77.600057
659.003381	-74.309354
659.148274	-71.324230
659.293232	-80.263444
659.438253	-69.852636
659.583339	-83.012182
659.728488	-72.755131
659.873701	-74.931845
660.018978	-77.287894
660.164318	-73.994869
660.309723	-76.615929
660.455192	-74.261852
660.600725	-76.601634
660.746323	-72.619186
660.891984	-78.013063
661.037710	-72.391385
661.183500	-74.373701
661.329354	-75.756772
661.475272	-72.239895
661.621255	-76.044787
661.767303	-73.820220
661.913415	-72.358454
662.059591	-76.210021
662.205833	-72.497941
662.352138	-71.364172
662.498509	-78.265600
662.644944	-69.479449
662.791443	-75.262905
662.938008	-71.480827
663.084638	-70.423497
663.231332	-76.999096
663.378091	-69.653569
663.524915	-75.036810
663.671804	-71.391074
663.818759	-72.224541
663.965778	-71.741964
664.112863	-72.923783
664.260012	-70.401333
664.407227	-73.072835
664.554507	-71.081950
664.701853	-70.672787
664.849264	-73.188839
664.996740	-69.980725
665.144282	-70.751232
665.291889	-72.460551
665.439561	-68.882954
665.587300	-72.686116
665.735103	-69.744580
665.882973	-70.025514
666.030908	-71.423448
666.178909	-70.081586
666.326976	-69.052907
666.475109	-73.667397
666.623307	-66.810729
666.771571	-72.714742
666.919902	-67.219503
667.068298	-68.872740
667.216761	-69.573178
667.365289	-68.370094
667.513884	-69.413746
667.662545	-70.093065
667.811272	-67.895704
667.960065	-69.776816
668.108925	-68.737903
668.257851	-68.108345
668.406843	-69.712088
668.555902	-68.282704
668.705027	-67.584987
668.854219	-70.582422
669.003478	-66.145103
669.152803	-70.029818
669.302195	-67.168874
669.451653	-67.123666
669.601179	-69.246766
669.750771	-66.591299
669.900430	-68.295522
670.050156	-67.918248
670.199949	-66.735817
670.349808	-68.218058
670.499735	-66.936308
670.649729	-66.722724
670.799790	-68.310679
670.949918	-65.770978
671.100114	-67.913925
671.250377	-66.269617
671.400707	-66.419727
671.551104	-67.169065
671.701569	-66.153822
671.852101	-66.360639
672.002700	-67.051388
672.153368	-65.191183
672.304102	-67.428061
672.454905	-65.457874
672.605775	-66.087506
672.756713	-66.155027
672.907718	-65.228820
673.058791	-64.505089
673.209933	-66.690247
673.361142	-62.927626
673.512419	-68.882718
673.663764	-63.227836
673.815177	-66.528148
673.966658	-65.369754
674.118207	-64.015230
674.269825	-66.483729
674.421510	-63.674823
674.573264	-64.963103
674.725086	-64.615948
674.876977	-64.042303
675.028936	-64.933784
675.180963	-64.348051
675.333059	-64.192908
675.485224	-64.877642
675.637457	-63.618594
675.789758	-64.552748
675.942129	-63.929538
676.094568	-63.807485
676.247075	-64.232176
676.399652	-63.889999
676.552298	-63.235875
676.705012	-64.751386
676.857795	-62.523683
677.010648	-64.569791
677.163569	-63.349853
677.316560	-62.753749
677.469619	-64.693038
677.622748	-61.910532
677.775946	-64.211064
677.929214	-62.572507
678.082551	-62.803781
678.235957	-63.441040
678.389432	-62.286773
678.542977	-63.020932
678.696592	-62.881988
678.850276	-61.739052
679.004030	-63.985924
679.157853	-61.144136
679.311746	-63.795437
679.465709	-61.726018
679.619742	-62.285438
679.773844	-62.686553
679.928017	-61.508622
680.082259	-62.332153
680.236571	-61.623525
680.390954	-61.696691
680.545406	-61.739932
680.699929	-61.851759
680.854522	-61.128128
681.009185	-62.403030
681.163918	-60.603335
681.318722	-62.133538
681.473596	-61.054478
681.628540	-61.204605
681.783555	-61.819127
681.938641	-60.657364
682.093797	-61.463747
682.249023	-60.990098
682.404321	-60.363573
682.559689	-61.890630
682.715128	-59.887430
682.870637	-61.641651
683.026218	-60.297341
683.181869	-60.438630
683.337591	-61.240175
683.493385	-59.614107
683.649249	-61.636795
683.805185	-59.695121
683.961191	-60.692274
684.117269	-60.677629
684.273418	-59.493427
684.429639	-61.299756
684.585930	-59.124651
684.742294	-61.029303
684.898728	-59.184935
685.055234	-60.692379
685.211812	-59.128396
685.368461	-60.680806
685.525182	-58.840832
685.681975	-60.797872
685.838839	-58.592456
685.995775	-60.515490
686.152783	-59.037683
686.309863	-59.501570
686.467014	-59.732505
686.624238	-58.836491
686.781534	-59.698348
686.938902	-59.073664
687.096342	-58.879831
687.253854	-59.743188
687.411438	-58.176687
687.569095	-60.038130
687.726824	-58.011411
687.884626	-59.296612
688.042499	-58.608526
688.200446	-58.563692
688.358465	-59.009537
688.516556	-58.292039
688.674720	-58.727862
688.832957	-58.609693
688.991266	-58.043439
689.149649	-59.102240
689.308104	-57.525854
689.466632	-59.184855
689.625233	-57.574200
689.783906	-58.638314
689.942653	-57.845783
690.101473	-58.170316
690.260367	-57.856109
690.419333	-58.065004
690.578372	-57.484255
690.737485	-58.259625
690.896672	-57.275754
691.055931	-58.019359
691.215264	-57.643316
691.374671	-57.326623
691.534151	-58.130897
691.693704	-56.902384
691.853332	-58.004179
692.013033	-57.168220
692.172807	-57.297521
692.332656	-57.691172
692.492578	-56.752971
692.652575	-57.689368
692.812645	-56.980291
692.972789	-56.948157
693.133007	-57.575183
693.293300	-56.342766
693.453666	-57.740117
693.614107	-56.379251
693.774622	-57.075752
693.935211	-57.054546
694.095875	-56.257243
694.256613	-57.320403
694.417426	-56.261843
694.578313	-56.618818
694.739274	-57.046079
694.900311	-55.652852
695.061421	-57.661226
695.222607	-55.376166
695.383868	-57.249462
695.545203	-55.876693
695.706613	-56.315797
695.868098	-56.374828
696.029658	-55.965551
696.191293	-56.164232
696.353003	-56.260337
696.514789	-55.589140
696.676649	-56.694197
696.838585	-55.194654
697.000596	-56.619188
697.162682	-55.397810
697.324844	-56.088538
697.487081	-55.661075
697.649394	-55.713310
697.811782	-55.698052
697.974246	-55.685442
698.136786	-55.444619
698.299401	-55.733978
698.462092	-55.251802
698.624859	-55.576319
698.787702	-55.163290
698.950621	-55.545464
699.113616	-55.073493
699.276686	-55.541231
699.439833	-54.954293
699.603056	-55.427512
699.766355	-54.980230
699.929731	-55.176255
700.093183	-55.048264
700.256711	-55.017605
700.420315	-54.954588
700.583996	-55.044783
700.747754	-54.707094
700.911588	-55.176142
701.075499	-54.447222
701.239486	-55.199729
701.403550	-54.417139
701.567691	-54.940948
701.731909	-54.564541
701.896203	-54.567949
702.060575	-54.775435
702.225024	-54.189746
702.389549	-54.863414
702.554152	-53.934690
702.718832	-54.850742
702.883589	-53.949346
703.048424	-54.544062
703.213335	-54.264178
703.378324	-54.082687
703.543391	-54.452293
703.708535	-53.919018
703.873757	-54.242956
704.039056	-54.106716
704.204433	-53.872573
704.369887	-54.290107
704.535420	-53.691204
704.701030	-54.147653
704.866718	-53.734282
705.032484	-53.958310
705.198328	-53.747937
705.364250	-53.908378
705.530250	-53.571490
705.696328	-54.017421
705.862485	-53.355805
706.028720	-53.973200
706.195033	-53.338857
706.361424	-53.854726
706.527894	-53.292566
706.694442	-53.707900
706.861069	-53.262357
707.027775	-53.559946
707.194559	-53.256959
707.361422	-53.433187
707.528363	-53.290958
707.695384	-53.320496
707.862483	-53.207028
708.029661	-53.350761
708.196918	-52.951486
708.364254	-53.464679
708.531670	-52.722382
708.699164	-53.551351
708.866738	-52.584254
709.034391	-53.499729
709.202123	-52.607374
709.369935	-53.231434
709.537826	-52.807016
709.705796	-52.829397
709.873847	-53.067417
710.041976	-52.574726
710.210186	-52.989344
710.378475	-52.726677
710.546844	-52.566310
710.715292	-53.094841
710.883821	-52.113151
711.052429	-53.381856
711.221118	-51.885880
711.389887	-53.299789
711.558735	-52.026099
711.727664	-52.862427
711.896673	-52.390249
712.065763	-52.326970
712.234932	-52.759967
712.404183	-52.006201
712.573513	-52.725745
712.742924	-52.169226
712.912416	-52.255218
713.081988	-52.581653
713.251641	-51.791959
713.421375	-52.837472
713.591190	-51.610265
713.761085	-52.747800
713.931061	-51.717312
714.101119	-52.427182
714.271257	-51.951379
714.441476	-52.045124
714.611777	-52.206200
714.782159	-51.736212
714.952622	-52.285467
715.123166	-51.724969
715.293792	-51.994464
715.464499	-52.056900
715.635288	-51.505103
715.806158	-52.432856
715.977110	-51.147008
716.148143	-52.572648
716.319259	-51.112176
716.490456	-52.257329
716.661735	-51.433455
716.833096	-51.713612
717.004538	-51.884793
717.176063	-51.222007
717.347670	-52.109054
717.519359	-51.148568
717.691130	-51.805490
717.862984	-51.486610
718.034920	-51.335022
718.206938	-51.801034
718.379039	-51.117050
718.551222	-51.711204
718.723488	-51.227894
718.895836	-51.448513
719.068267	-51.347221
719.240781	-51.366103
719.413377	-51.213304
719.586057	-51.453421
719.758819	-51.026068
719.931664	-51.474257
720.104593	-51.047839
720.277604	-51.276706
720.450699	-51.233447
720.623876	-51.037420
720.797137	-51.295725
720.970482	-51.048122
721.143910	-51.088690
721.317421	-51.175454
721.491016	-50.978884
721.664694	-50.988067
721.838456	-51.248881
722.012302	-50.579918
722.186231	-51.552371
722.360244	-50.463615
722.534342	-51.235342
722.708523	-50.846890
722.882788	-50.629379
723.057137	-51.308807
723.231570	-50.468971
723.406088	-51.046029
723.580689	-50.979500
723.755375	-50.255592
723.930146	-51.659897
724.105000	-49.926665
724.279940	-51.508525
724.454963	-50.413107
724.630072	-50.597021
724.805265	-51.230286
724.980543	-50.013045
725.155905	-51.388035
725.331353	-50.144585
725.506885	-50.890373
725.682503	-50.568504
725.858205	-50.511507
726.033993	-50.720774
726.209865	-50.477432
726.385823	-50.602461
726.561866	-50.495833
726.737995	-50.639992
726.914209	-50.290976
727.090508	-50.801513
727.266893	-50.183833
727.443364	-50.620183
727.619920	-50.528082
727.796562	-50.102311
727.973290	-50.910197
728.150103	-49.957076
728.327003	-50.637789
728.503988	-50.364110
728.681060	-50.167548
728.858218	-50.574476
729.035461	-50.185156
729.212791	-50.209733
729.390208	-50.553272
729.567710	-49.924720
729.745299	-50.579298
729.922975	-50.147382
730.100737	-50.131841
730.278586	-50.550672
730.456521	-49.856764
730.634543	-50.551366
730.812652	-50.006919
730.990848	-50.259483
731.169130	-50.143903
731.347500	-50.250125
731.525957	-49.883656
731.704500	-50.545340
731.883131	-49.709857
732.061850	-50.397484
732.240655	-50.159872
732.419548	-49.662583
732.598528	-50.841358
732.777596	-49.363842
732.956751	-50.547980
733.135994	-49.994121
733.315325	-49.675337
733.494744	-50.676335
733.674250	-49.445000
733.853844	-50.399562
734.033526	-49.887117
734.213296	-49.879657
734.393154	-50.208588
734.573101	-49.814177
734.753135	-50.055834
734.933258	-49.987601
735.113469	-49.953319
735.293769	-49.887067
735.474157	-50.140248
735.654633	-49.699108
735.835198	-50.134095
736.015852	-49.861409
736.196594	-49.828309
736.377426	-50.095292
736.558346	-49.817883
736.739355	-49.726494
736.920453	-50.381397
737.101640	-49.182237
737.282916	-50.686220
737.464282	-49.383484
737.645736	-49.959523
737.827280	-50.193652
738.008914	-49.324791
738.190637	-50.430136
738.372449	-49.485224
738.554351	-49.985980
738.736342	-49.840657
738.918424	-49.857785
739.100595	-49.694199
739.282855	-50.126291
739.465206	-49.516939
739.647647	-50.030744
739.830178	-49.881223
740.012799	-49.530239
740.195510	-50.241540
740.378311	-49.487291
740.561203	-49.883312
740.744185	-50.001464
740.927258	-49.448750
741.110421	-50.164833
741.293674	-49.605043
741.477018	-49.781451
741.660453	-49.894662
741.843979	-49.718540
742.027596	-49.762758
742.211303	-49.890070
742.395102	-49.735163
742.578991	-49.735913
742.762972	-49.919679
742.947044	-49.759863
743.131207	-49.524309
743.315461	-50.405858
743.499807	-48.992505
743.684244	-50.595897
743.868773	-49.388912
744.053394	-49.622829
744.238106	-50.384034
744.422910	-49.141733
744.607805	-50.177086
744.792793	-49.840969
744.977872	-49.354923
745.163044	-50.266721
745.348307	-49.696003
745.533663	-49.357395
745.719111	-50.630523
745.904651	-49.108160
746.090283	-50.002021
746.276008	-50.204048
746.461826	-49.033950
746.647735	-50.590951
746.833738	-49.472044
747.019833	-49.443217
747.206021	-50.595883
747.392302	-49.118031
747.578676	-50.216874
747.765143	-49.941939
747.951703	-49.406070
748.138356	-50.366708
748.325102	-49.559493
748.511941	-49.943599
748.698874	-49.900662
748.885900	-49.916166
749.073019	-49.694127
749.260232	-50.157564
749.447539	-49.691055
749.634939	-49.929665
749.822433	-50.016906
750.010021	-49.731288
750.197703	-50.092080
750.385479	-49.697254
750.573348	-50.284194
750.761312	-49.421624
750.949370	-50.542119
751.137523	-49.491929
751.325769	-50.059040
751.514110	-50.195355
751.702545	-49.522434
751.891075	-50.358940
752.079700	-49.844874
752.268419	-49.745881
752.457233	-50.409385
752.646142	-49.622057
752.835145	-50.186688
753.024244	-50.105656
753.213437	-49.780831
753.402726	-50.249797
753.592110	-49.994316
753.781589	-49.867937
753.971163	-50.369340
754.160833	-49.837482
754.350598	-50.024750
754.540459	-50.466481
754.730415	-49.454350
754.920467	-50.822295
755.110615	-49.658998
755.300858	-50.180121
755.491198	-50.347966
755.681633	-49.873604
755.872164	-50.182098
756.062792	-50.359596
756.253515	-49.936292
756.444335	-50.098135
756.635252	-50.671317
756.826264	-49.539403
757.017373	-50.648591
757.208579	-50.214061
757.399881	-49.848024
757.591280	-50.507373
757.782776	-50.408729
757.974368	-49.686509
758.166058	-50.766521
758.357844	-50.313457
758.549728	-49.588589
758.741708	-51.212047
758.933786	-49.840808
759.125961	-49.866605
759.318233	-51.219023
759.510603	-49.695288
759.703071	-50.219523
759.895635	-51.099034
760.088298	-49.636038
760.281058	-50.405466
760.473916	-50.966656
760.666872	-49.629034
760.859926	-50.627441
761.053078	-50.861072
761.246328	-49.582056
761.439676	-51.002396
761.633122	-50.452412
761.826667	-50.050335
762.020310	-50.558397
762.214052	-50.921286
762.407892	-49.583446
762.601831	-51.249570
762.795868	-50.311816
762.990004	-50.069476
763.184239	-51.031277
763.378573	-50.320624
763.573006	-50.241000
763.767538	-50.959951
763.962169	-50.326382
764.156900	-50.323390
764.351729	-51.072018
764.546658	-50.013655
764.741687	-50.957891
764.936815	-50.422500
765.132042	-50.553530
765.327370	-50.641508
765.522797	-50.615045
765.718324	-50.445848
765.913950	-50.816493
766.109677	-50.489419
766.305504	-50.524953
766.501431	-50.927205
766.697458	-50.303971
766.893586	-50.752982
767.089814	-50.758351
767.286142	-50.510604
767.482571	-50.447507
767.679100	-51.298349
767.875730	-49.941299
768.072461	-50.981662
768.269293	-50.857802
768.466225	-50.204780
768.663259	-50.811245
768.860393	-51.096222
769.057629	-50.004569
769.254966	-51.048538
769.452404	-50.790041
769.649944	-50.293906
769.847585	-50.779261
770.045328	-50.996806
770.243172	-50.200860
770.441118	-50.777852
770.639166	-51.055683
770.837315	-50.019003
771.035567	-51.029281
771.233920	-50.751537
771.432376	-50.075719
771.630934	-51.176988
771.829594	-50.478739
772.028356	-50.151727
772.227220	-51.398455
772.426188	-49.904888
772.625257	-50.704364
772.824430	-50.945792
773.023705	-49.824656
773.223083	-51.013965
773.422563	-50.695633
773.622147	-49.673319
773.821834	-51.397641
774.021624	-50.243007
774.221517	-49.851610
774.421513	-51.270291
774.621613	-50.226985
774.821816	-49.769151
775.022122	-51.333433
775.222532	-50.010290
775.423046	-49.960215
775.623664	-51.086538
775.824385	-49.899653
776.025211	-50.219380
776.226140	-50.643733
776.427173	-49.930289
776.628311	-50.438253
776.829553	-50.214493
777.030899	-49.997934
777.232350	-50.579650
777.433905	-49.731580
777.635564	-50.333431
777.837328	-50.171421
778.039197	-49.886800
778.241171	-50.051823
778.443250	-50.285103
778.645433	-49.700067
778.847722	-50.038058
779.050116	-50.045499
779.252615	-49.927139
779.455219	-49.559944
779.657929	-50.303751
779.860744	-49.617829
780.063665	-49.712713
780.266691	-49.776177
780.469823	-50.063574
780.673061	-49.195564
780.876405	-49.905214
781.079855	-49.817779
781.283410	-49.294234
781.487072	-49.524805
781.690840	-49.902296
781.894715	-49.037330
782.098695	-49.714077
782.302783	-49.279251
782.506976	-49.440583
782.711277	-49.280855
782.915684	-49.199671
783.120198	-49.317990
783.324818	-49.294147
783.529546	-48.817322
783.734381	-49.357445
783.939322	-49.191915
784.144372	-48.578780
784.349528	-49.236151
784.554792	-49.146092
784.760163	-48.326822
784.965642	-49.171589
785.171228	-48.973632
785.376922	-48.284665
785.582724	-48.929811
785.788634	-48.737711
785.994651	-48.442677
786.200777	-48.459721
786.407011	-48.693473
786.613353	-48.325373
786.819804	-48.413329
787.026363	-48.185738
787.233030	-48.547934
787.439806	-48.102662
787.646691	-48.004541
787.853684	-48.374397
788.060786	-48.079594
788.267997	-47.697931
788.475317	-48.297912
788.682746	-47.836582
788.890285	-47.766557
789.097932	-47.812844
789.305689	-47.918077
789.513555	-47.512639
789.721531	-47.697824
789.929617	-47.593083
790.137812	-47.655218
790.346117	-47.243064
790.554531	-47.532790
790.763056	-47.542048
790.971691	-47.035631
791.180436	-47.258028
791.389291	-47.529434
791.598256	-46.738248
791.807332	-47.230831
792.016518	-47.156701
792.225815	-46.748644
792.435222	-46.975173
792.644740	-47.004404
792.854369	-46.429472
793.064109	-47.105737
793.273960	-46.559042
793.483922	-46.384271
793.693995	-46.901257
793.904180	-46.372748
794.114475	-46.267366
794.324882	-46.648535
794.535401	-46.202667
794.746031	-46.206569
794.956774	-46.411829
795.167627	-45.921945
795.378593	-46.268803
795.589671	-46.057366
795.800861	-45.780575
796.012162	-46.153508
796.223577	-45.848552
796.435103	-45.599304
796.646742	-46.017528
796.858493	-45.616095
797.070357	-45.529369
797.282334	-45.687018
797.494423	-45.551554
797.706626	-45.400712
797.918941	-45.381194
798.131369	-45.393404
798.343911	-45.419639
798.556566	-44.974018
798.769334	-45.344432
798.982215	-45.200922
799.195210	-44.872005
799.408319	-45.106616
799.621541	-45.032278
799.834877	-44.647012
800.048327	-45.160543
800.261890	-44.563488
800.475568	-44.660333
800.689360	-44.882353
800.903266	-44.523480
801.117287	-44.325767
801.331422	-44.770145
801.545671	-44.340848
801.760036	-44.310565
801.974514	-44.270659
802.189108	-44.429235
802.403816	-44.100378
802.618640	-44.019558
802.833578	-44.269318
803.048632	-44.005106
803.263800	-43.764692
803.479085	-44.156297
803.694484	-43.749725
803.909999	-43.722668
804.125630	-43.892828
804.341376	-43.560057
804.557239	-43.637594
804.773217	-43.622738
804.989311	-43.461473
805.205521	-43.458997
805.421847	-43.357437
805.638290	-43.417707
805.854849	-43.312296
806.071524	-43.023679
806.288316	-43.340580
806.505225	-43.187930
806.722250	-42.937486
806.939393	-42.877030
807.156652	-43.165803
807.374028	-43.027596
807.591521	-42.468168
807.809132	-42.780748
808.026859	-43.266618
808.244705	-42.311874
808.462667	-42.366090
808.680748	-42.974560
808.898946	-42.622690
809.117261	-42.077098
809.335695	-42.425399
809.554246	-42.731913
809.772916	-42.160595
809.991704	-41.958809
810.210610	-42.488230
810.429634	-42.174636
810.648777	-42.018381
810.868039	-41.936150
811.087419	-42.030333
811.306918	-42.138895
811.526535	-41.749593
811.746272	-41.605780
811.966127	-42.036190
812.186102	-41.855726
812.406196	-41.406997
812.626409	-41.480937
812.846742	-42.021649
813.067194	-41.390522
813.287766	-41.101759
813.508457	-41.750987
813.729269	-41.464734
813.950200	-41.030936
814.171251	-41.305662
814.392422	-41.424593
814.613714	-41.013714
814.835126	-41.028235
815.056658	-41.253428
815.278311	-40.939885
815.500084	-40.854788
815.721978	-41.096457
815.943993	-40.753613
816.166128	-40.827704
816.388385	-40.818962
816.610762	-40.705116
816.833261	-40.570847
817.055881	-40.788115
817.278623	-40.548661
817.501486	-40.350097
817.724471	-40.632966
817.947577	-40.528886
818.170805	-40.179797
818.394155	-40.381504
818.617627	-40.411840
818.841221	-40.197792
819.064937	-40.101468
819.288775	-40.271532
819.512736	-40.073265
819.736819	-40.018688
819.961025	-40.114521
820.185354	-39.886685
820.409805	-39.906262
820.634379	-39.962558
820.859076	-39.879119
821.083897	-39.605547
821.308840	-39.818756
821.533907	-39.858794
821.759097	-39.528609
821.984411	-39.483869
822.209848	-39.736651
822.435409	-39.586115
822.661093	-39.316822
822.886902	-39.402057
823.112834	-39.556240
823.338891	-39.249049
823.565072	-39.313080
823.791377	-39.257052
824.017807	-39.170214
824.244361	-39.149309
824.471039	-39.328903
824.697843	-38.892661
824.924771	-38.885821
825.151824	-39.248243
825.379002	-39.029061
825.606306	-38.593810
825.833734	-38.886444
826.061288	-39.055966
826.288967	-38.658435
826.516772	-38.606140
826.744703	-38.780761
826.972759	-38.614413
827.200941	-38.575070
827.429249	-38.614399
827.657683	-38.449102
827.886243	-38.334633
828.114930	-38.560987
828.343743	-38.444433
828.572682	-38.181470
828.801748	-38.162733
829.030941	-38.463010
829.260260	-38.217677
829.489706	-37.993195
829.719280	-38.070955
829.948980	-38.214802
830.178808	-37.979992
830.408763	-37.985716
830.638845	-37.906860
830.869055	-37.807251
831.099393	-37.952883
831.329858	-37.992701
831.560451	-37.538420
831.791173	-37.579020
832.022022	-37.971634
832.252999	-37.796142
832.484105	-37.301013
832.715339	-37.471124
832.946702	-37.810811
833.178193	-37.592950
833.409813	-37.189358
833.641561	-37.384788
833.873439	-37.532146
834.105445	-37.365079
834.337581	-37.228257
834.569846	-37.277228
834.802241	-37.122116
835.034764	-37.272279
835.267418	-37.268159
835.500201	-37.019525
835.733114	-36.888852
835.966157	-37.193904
836.199329	-37.117583
836.432632	-36.837915
836.666065	-36.767705
836.899629	-37.062107
837.133323	-36.875151
837.367147	-36.672454
837.601102	-36.784622
837.835188	-36.850261
838.069405	-36.546238
838.303752	-36.645277
838.538231	-36.763067
838.772841	-36.557217
839.007582	-36.339850
839.242455	-36.594786
839.477459	-36.651904
839.712595	-36.308701
839.947863	-36.197109
840.183263	-36.534802
840.418794	-36.416908
840.654458	-36.123695
840.890254	-36.171842
841.126182	-36.343002
841.362242	-36.165193
841.598435	-36.027305
841.834761	-36.118368
842.071220	-36.139167
842.307811	-35.918606
842.544536	-35.951924
842.781393	-36.041600
843.018384	-35.901429
843.255508	-35.776244
843.492765	-35.846455
843.730156	-35.860707
843.967681	-35.732026
844.205339	-35.680126
844.443132	-35.742154
844.681058	-35.613132
844.919118	-35.549727
845.157313	-35.667446
845.395642	-35.609059
845.634105	-35.372346
845.872703	-35.376331
846.111436	-35.584112
846.350303	-35.514551
846.589306	-35.188730
846.828443	-35.227332
847.067716	-35.418045
847.307124	-35.354458
847.546667	-35.138357
847.786345	-35.130499
848.026160	-35.170900
848.266110	-35.116237
848.506195	-35.125263
848.746417	-35.134223
848.986775	-34.897621
849.227269	-34.844274
849.467899	-35.094375
849.708666	-35.113148
849.949569	-34.700356
850.190609	-34.638632
850.431785	-35.001055
850.673099	-34.955027
850.914549	-34.574082
851.156137	-34.602919
851.397861	-34.834762
851.639723	-34.655874
851.881723	-34.475799
852.123860	-34.689035
852.366135	-34.644539
852.608547	-34.320331
852.851098	-34.389215
853.093786	-34.709663
853.336613	-34.478596
853.579578	-34.116582
853.822681	-34.290962
854.065923	-34.538581
854.309304	-34.336384
854.552823	-34.107277
854.796481	-34.186146
855.040278	-34.242249
855.284215	-34.168083
855.528290	-34.155539
855.772505	-34.119329
856.016859	-34.002696
856.261353	-33.943642
856.505987	-34.067715
856.750760	-34.124381
856.995673	-33.912944
857.240727	-33.702027
857.485920	-33.867995
857.731254	-34.106604
857.976729	-33.842932
858.222343	-33.558651
858.468099	-33.753446
858.713995	-33.939841
858.960032	-33.650273
859.206211	-33.551069
859.452530	-33.777214
859.698991	-33.688505
859.945593	-33.405119
860.192336	-33.526571
860.439222	-33.765202
860.686248	-33.560115
860.933417	-33.258281
861.180728	-33.360402
861.428181	-33.638588
861.675776	-33.533464
861.923514	-33.183839
862.171394	-33.226969
862.419417	-33.501830
862.667582	-33.355156
862.915890	-33.083592
863.164342	-33.274320
863.412936	-33.410413
863.661674	-33.082648
863.910555	-32.937842
864.159579	-33.255177
864.408747	-33.362712
864.658059	-33.005146
864.907515	-32.764445
865.157114	-33.027826
865.406858	-33.290112
865.656746	-33.018382
865.906778	-32.704489
866.156955	-32.870797
866.407277	-33.019013
866.657743	-32.870863
866.908354	-32.810379
867.159110	-32.873959
867.410011	-32.745487
867.661057	-32.604406
867.912249	-32.720173
868.163586	-32.937992
868.415069	-32.754236
868.666697	-32.356729
868.918472	-32.427398
869.170392	-32.865477
869.422458	-32.788692
869.674671	-32.346599
869.927030	-32.267739
870.179536	-32.540323
870.432188	-32.646519
870.684987	-32.420001
870.937933	-32.271927
871.191026	-32.379253
871.444266	-32.348279
871.697653	-32.223165
871.951188	-32.334873
872.204870	-32.424042
872.458700	-32.175700
872.712677	-31.964933
872.966803	-32.117700
873.221076	-32.420213
873.475498	-32.244489
873.730068	-31.840097
873.984787	-31.871344
874.239654	-32.194615
874.494669	-32.180616
874.749834	-31.903020
875.005147	-31.810144
875.260610	-31.969442
875.516222	-31.964315
875.771983	-31.779935
876.027894	-31.822990
876.283954	-31.961936
876.540164	-31.820633
876.796524	-31.572942
877.053033	-31.621876
877.309693	-31.912673
877.566503	-31.873290
877.823464	-31.509247
878.080575	-31.425541
878.337837	-31.660586
878.595249	-31.776771
878.852813	-31.562246
879.110528	-31.405567
879.368393	-31.517586
879.626410	-31.550301
879.884579	-31.399105
880.142899	-31.375214
880.401371	-31.522714
880.659994	-31.528394
880.918770	-31.232017
881.177698	-31.110744
881.436778	-31.379483
881.696010	-31.569294
881.955395	-31.323302
882.214933	-30.988917
882.474623	-31.062770
882.734467	-31.355193
882.994463	-31.346609
883.254613	-31.098038
883.514916	-30.996985
883.775372	-31.097847
884.035982	-31.111863
884.296746	-31.006837
884.557664	-31.045550
884.818735	-31.125685
885.079961	-30.992439
885.341341	-30.765037
885.602876	-30.806938
885.864565	-31.090006
886.126409	-31.095763
886.388407	-30.775514
886.650561	-30.579124
886.912870	-30.769857
887.175334	-30.983907
887.437953	-30.883083
887.700728	-30.641050
887.963658	-30.594871
888.226745	-30.698951
888.489987	-30.726914
888.753385	-30.645161
889.016940	-30.608659
889.280651	-30.627175
889.544518	-30.583053
889.808543	-30.458439
890.072723	-30.453197
890.337061	-30.569982
890.601556	-30.616369
890.866208	-30.418765
891.131017	-30.268703
891.395984	-30.344134
891.661109	-30.500527
891.926391	-30.432908
892.191831	-30.263687
892.457429	-30.232203
892.723186	-30.307408
892.989100	-30.279874
893.255173	-30.180707
893.521405	-30.178830
893.787796	-30.259059
894.054345	-30.221169
894.321053	-30.052035
894.587921	-29.958215
894.854948	-30.097034
895.122134	-30.227307
895.389480	-30.109311
895.656986	-29.863628
895.924651	-29.848284
896.192477	-30.002958
896.460463	-30.062204
896.728609	-29.926009
896.996915	-29.824995
897.265382	-29.829021
897.534010	-29.846481
897.802799	-29.791521
898.071749	-29.758891
898.340860	-29.818937
898.610132	-29.846315
898.879566	-29.690108
899.149162	-29.524218
899.418919	-29.588546
899.688838	-29.794338
899.958919	-29.798729
900.229162	-29.562167
900.499568	-29.380538
900.770136	-29.453620
901.040867	-29.646998
901.311761	-29.669498
901.582817	-29.485682
901.854037	-29.351839
902.125420	-29.375205
902.396966	-29.433561
902.668676	-29.438847
902.940550	-29.419309
903.212587	-29.401415
903.484788	-29.336893
903.757153	-29.232908
904.029683	-29.193300
904.302377	-29.318277
904.575236	-29.427299
904.848259	-29.323179
905.121447	-29.090029
905.394800	-29.034264
905.668319	-29.196282
905.942002	-29.361983
906.215852	-29.252255
906.489866	-29.036701
906.764047	-28.987568
907.038393	-29.123969
907.312906	-29.188808
907.587584	-29.106600
907.862429	-29.008161
908.137441	-29.044646
908.412619	-29.089882
908.687964	-29.011732
908.963476	-28.911796
909.239155	-28.964284
909.515002	-29.089769
909.791015	-29.077408
910.067197	-28.886957
910.343546	-28.770275
910.620063	-28.881960
910.896748	-29.050373
911.173601	-29.016135
911.450623	-28.823312
911.727813	-28.720028
912.005171	-28.810025
912.282699	-28.921295
912.560395	-28.871799
912.838261	-28.754661
913.116296	-28.723633
913.394500	-28.783345
913.672874	-28.778959
913.951418	-28.678197
914.230131	-28.623364
914.509015	-28.704087
914.788068	-28.767558
915.067292	-28.674511
915.346687	-28.495432
915.626252	-28.471571
915.905988	-28.608772
916.185895	-28.695132
916.465973	-28.565346
916.746223	-28.383979
917.026644	-28.363895
917.307236	-28.483744
917.588000	-28.518820
917.868937	-28.407305
918.150045	-28.303610
918.431325	-28.330731
918.712778	-28.375334
918.994404	-28.304058
919.276202	-28.193021
919.558173	-28.195180
919.840317	-28.298176
920.122634	-28.304067
920.405125	-28.142345
920.687789	-27.992827
920.970627	-28.032034
921.253639	-28.191335
921.536824	-28.226683
921.820184	-28.046722
922.103718	-27.865635
922.387427	-27.872965
922.671310	-28.030231
922.955368	-28.079972
923.239601	-27.947421
923.524009	-27.792481
923.808592	-27.798855
924.093351	-27.880201
924.378285	-27.880719
924.663396	-27.777705
924.948682	-27.730832
925.234144	-27.770195
925.519782	-27.788970
925.805597	-27.695439
926.091589	-27.601657
926.377757	-27.614153
926.664102	-27.707385
926.950624	-27.720427
927.237323	-27.599341
927.524200	-27.464667
927.811255	-27.469860
928.098487	-27.589311
928.385897	-27.639898
928.673485	-27.513601
928.961251	-27.373029
929.249196	-27.386510
929.537319	-27.493688
929.825621	-27.488012
930.114102	-27.370787
930.402762	-27.314174
930.691601	-27.375445
930.980620	-27.413127
931.269818	-27.335053
931.559196	-27.229317
931.848753	-27.222281
932.138491	-27.315532
932.428409	-27.369095
932.718508	-27.269517
933.008787	-27.105282
933.299246	-27.084912
933.589887	-27.225003
933.880709	-27.314877
934.171712	-27.200286
934.462896	-27.034177
934.754262	-27.007918
935.045810	-27.117953
935.337539	-27.192503
935.629451	-27.117476
935.921545	-26.979298
936.213822	-26.959091
936.506281	-27.051484
936.798922	-27.088982
937.091747	-26.984794
937.384755	-26.893572
937.677946	-26.915699
937.971321	-27.002520
938.264879	-27.007328
938.558621	-26.898896
938.852547	-26.790230
939.146657	-26.820766
939.440952	-26.932933
939.735431	-26.947576
940.030095	-26.833823
940.324943	-26.727650
940.619977	-26.733358
940.915196	-26.815791
941.210600	-26.854388
941.506189	-26.773825
941.801965	-26.678756
942.097926	-26.682488
942.394074	-26.727907
942.690407	-26.725955
942.986927	-26.662848
943.283634	-26.621598
943.580527	-26.635325
943.877608	-26.676019
944.174875	-26.627919
944.472330	-26.539471
944.769972	-26.508501
945.067802	-26.564093
945.365820	-26.611171
945.664026	-26.566721
945.962420	-26.451663
946.261002	-26.391651
946.559773	-26.446428
946.858733	-26.511896
947.157881	-26.492153
947.457219	-26.385327
947.756746	-26.311339
948.056462	-26.333430
948.356368	-26.392182
948.656464	-26.376409
948.956749	-26.299560
949.257225	-26.239056
949.557891	-26.254797
949.858748	-26.287210
950.159796	-26.255715
950.461034	-26.180016
950.762463	-26.144317
951.064084	-26.168063
951.365896	-26.202962
951.667900	-26.157826
951.970095	-26.070894
952.272483	-26.023346
952.575063	-26.052492
952.877835	-26.096937
953.180799	-26.074147
953.483956	-25.981252
953.787307	-25.914486
954.090850	-25.923097
954.394586	-25.965390
954.698516	-25.963680
955.002640	-25.885218
955.306957	-25.821139
955.611469	-25.808604
955.916174	-25.836133
956.221074	-25.828886
956.526169	-25.768300
956.831458	-25.710887
957.136942	-25.703330
957.442622	-25.721631
957.748496	-25.708619
958.054567	-25.644040
958.360833	-25.584041
958.667294	-25.580907
958.973952	-25.608405
959.280806	-25.606918
959.587857	-25.538655
959.895104	-25.466997
960.202548	-25.452663
960.510189	-25.486578
960.818027	-25.497727
961.126062	-25.444772
961.434295	-25.377321
961.742726	-25.350564
962.051355	-25.370149
962.360182	-25.378109
962.669207	-25.346270
962.978431	-25.297222
963.287854	-25.272831
963.597475	-25.278047
963.907296	-25.278262
964.217315	-25.250172
964.527535	-25.208633
964.837954	-25.190218
965.148573	-25.204977
965.459392	-25.211642
965.770411	-25.177908
966.081630	-25.120627
966.393051	-25.098678
966.704672	-25.127186
967.016494	-25.152514
967.328517	-25.123272
967.640742	-25.055716
967.953169	-25.020803
968.265797	-25.039356
968.578627	-25.072747
968.891660	-25.060726
969.204895	-25.006494
969.518332	-24.961256
969.831972	-24.958385
970.145816	-24.982982
970.459862	-24.980893
970.774112	-24.942302
971.088565	-24.897393
971.403223	-24.888680
971.718084	-24.902472
972.033149	-24.897078
972.348419	-24.857983
972.663893	-24.815222
972.979572	-24.808559
973.295456	-24.822942
973.611546	-24.822296
973.927840	-24.774939
974.244340	-24.722603
974.561046	-24.706265
974.877958	-24.734028
975.195076	-24.740190
975.512401	-24.697408
975.829932	-24.636372
976.147670	-24.611548
976.465615	-24.627203
976.783767	-24.637470
977.102126	-24.615662
977.420693	-24.560177
977.739468	-24.522544
978.058451	-24.521291
978.377642	-24.536780
978.697041	-24.519153
979.016649	-24.468104
979.336466	-24.433655
979.656492	-24.429708
979.976727	-24.439272
980.297171	-24.418245
980.617825	-24.370758
980.938689	-24.328917
981.259763	-24.325857
981.581048	-24.342455
981.902542	-24.326835
982.224248	-24.272558
982.546164	-24.218484
982.868291	-24.206103
983.190630	-24.226922
983.513180	-24.229065
983.835942	-24.180513
984.158916	-24.113443
984.482101	-24.084609
984.805500	-24.098404
985.129110	-24.109172
985.452934	-24.077369
985.776970	-24.017843
986.101220	-23.973963
986.425683	-23.972239
986.750359	-23.976977
987.075250	-23.961158
987.400354	-23.914562
987.725673	-23.870854
988.051206	-23.853888
988.376954	-23.857071
988.702916	-23.845296
989.029094	-23.802526
989.355487	-23.759879
989.682095	-23.744276
990.008919	-23.750164
990.335959	-23.742610
990.663216	-23.696313
990.990688	-23.651041
991.318377	-23.634601
991.646283	-23.647153
991.974406	-23.648667
992.302746	-23.611450
992.631304	-23.559632
992.960079	-23.530870
993.289072	-23.544262
993.618283	-23.556956
993.947713	-23.541181
994.277361	-23.487774
994.607227	-23.449756
994.937313	-23.451118
995.267618	-23.471497
995.598142	-23.469695
995.928886	-23.428892
996.259849	-23.390735
996.591033	-23.380593
996.922437	-23.397495
997.254061	-23.400078
997.585906	-23.373724
997.917972	-23.340763
998.250260	-23.326895
998.582768	-23.339757
998.915498	-23.341380
999.248450	-23.319388
999.581624	-23.286215
999.915020	-23.273416
1000.248639	-23.286732
1000.582480	-23.288704
1000.916545	-23.264693
1001.250832	-23.223872
1001.585343	-23.205811
1001.920077	-23.216528
1002.255035	-23.222601
1002.590218	-23.198757
1002.925624	-23.150237
1003.261255	-23.116697
1003.597111	-23.116246
1003.933192	-23.122784
1004.269497	-23.104431
1004.606029	-23.052202
1004.942785	-23.004743
1005.279768	-22.986868
1005.616977	-22.987319
1005.954412	-22.970639
1006.292074	-22.922032
1006.629962	-22.868943
1006.968077	-22.837019
1007.306420	-22.828652
1007.644990	-22.809640
1007.983787	-22.766743
1008.322813	-22.713249
1008.662067	-22.677861
1009.001549	-22.665706
1009.341259	-22.646291
1009.681199	-22.607354
1010.021367	-22.556309
1010.361765	-22.524339
1010.702392	-22.514875
1011.043250	-22.500705
1011.384337	-22.468830
1011.725654	-22.422973
1012.067202	-22.391992
1012.408980	-22.385892
1012.750989	-22.381384
1013.093230	-22.361987
1013.435702	-22.321721
1013.778405	-22.288853
1014.121341	-22.283176
1014.464508	-22.284797
1014.807908	-22.275439
1015.151540	-22.240781
1015.495405	-22.209195
1015.839503	-22.197904
1016.183835	-22.195617
1016.528400	-22.188331
1016.873198	-22.160783
1017.218231	-22.130207
1017.563498	-22.108352
1017.908999	-22.099786
1018.254735	-22.090078
1018.600707	-22.063298
1018.946913	-22.028680
1019.293354	-22.003088
1019.640032	-21.991243
1019.986945	-21.975239
1020.334094	-21.942913
1020.681480	-21.908867
1021.029102	-21.882064
1021.376961	-21.867298
1021.725058	-21.849466
1022.073391	-21.819648
1022.421962	-21.784035
1022.770772	-21.754013
1023.119819	-21.741692
1023.469104	-21.732106
1023.818628	-21.705411
1024.168391	-21.672590
1024.518393	-21.646234
1024.868634	-21.635809
1025.219115	-21.632396
1025.569836	-21.620059
1025.920796	-21.597919
1026.271997	-21.571936
1026.623438	-21.566869
1026.975121	-21.574975
1027.327044	-21.573173
1027.679208	-21.559695
1028.031614	-21.548351
1028.384262	-21.546538
1028.737152	-21.554272
1029.090284	-21.565895
1029.443659	-21.565832
1029.797276	-21.554881
1030.151137	-21.558108
1030.505240	-21.571576
1030.859587	-21.579300
1031.214178	-21.582777
1031.569013	-21.577621
1031.924093	-21.575584
1032.279417	-21.584398
1032.634985	-21.591940
1032.990799	-21.586817
1033.346858	-21.572745
1033.703162	-21.568720
1034.059712	-21.566704
1034.416509	-21.562732
1034.773551	-21.552330
1035.130841	-21.523588
1035.488377	-21.503113
1035.846160	-21.497197
1036.204190	-21.481575
1036.562468	-21.454995
1036.920994	-21.419669
1037.279768	-21.383514
1037.638790	-21.366291
1037.998061	-21.345776
1038.357581	-21.307001
1038.717350	-21.263330
1039.077368	-21.222265
1039.437636	-21.195947
1039.798154	-21.168511
1040.158922	-21.127293
1040.519940	-21.082034
1040.881209	-21.041308
1041.242729	-21.009431
1041.604501	-20.978657
1041.966524	-20.943074
1042.328798	-20.902838
1042.691325	-20.862622
1043.054103	-20.829803
1043.417135	-20.805322
1043.780419	-20.776583
1044.143956	-20.741254
1044.507746	-20.702941
1044.871791	-20.677262
1045.236088	-20.660697
1045.600641	-20.634762
1045.965447	-20.604846
1046.330508	-20.573960
1046.695824	-20.552399
1047.061395	-20.540992
1047.427222	-20.518767
1047.793304	-20.492660
1048.159642	-20.467415
1048.526237	-20.447946
1048.893088	-20.437729
1049.260196	-20.418986
1049.627561	-20.393374
1049.995183	-20.370660
1050.363063	-20.352393
1050.731201	-20.339122
1051.099597	-20.320881
1051.468251	-20.295444
1051.837164	-20.271444
1052.206336	-20.251489
1052.575767	-20.236026
1052.945458	-20.215785
1053.315409	-20.187334
1053.685619	-20.162186
1054.056090	-20.141181
1054.426821	-20.122599
1054.797814	-20.099590
1055.169067	-20.069234
1055.540582	-20.043582
1055.912359	-20.021539
1056.284398	-20.000503
1056.656698	-19.978516
1057.029262	-19.947927
1057.402088	-19.918723
1057.775177	-19.899746
1058.148530	-19.881199
1058.522146	-19.857724
1058.896027	-19.828884
1059.270171	-19.799781
1059.644580	-19.783356
1060.019254	-19.768472
1060.394193	-19.744855
1060.769397	-19.718146
1061.144867	-19.690375
1061.520602	-19.675743
1061.896604	-19.665083
1062.272872	-19.642390
1062.649407	-19.615315
1063.026210	-19.590834
1063.403279	-19.578262
1063.780616	-19.569441
1064.158221	-19.547295
1064.536094	-19.519711
1064.914235	-19.500694
1065.292645	-19.487794
1065.671325	-19.478205
1066.050273	-19.459293
1066.429491	-19.431551
1066.808979	-19.415263
1067.188738	-19.402138
1067.568766	-19.392142
1067.949066	-19.376410
1068.329636	-19.348532
1068.710478	-19.329476
1069.091592	-19.321617
1069.472977	-19.311498
1069.854635	-19.291560
1070.236565	-19.265974
1070.618768	-19.246443
1071.001243	-19.241559
1071.383993	-19.228432
1071.767016	-19.204000
1072.150313	-19.181206
1072.533884	-19.163450
1072.917730	-19.156089
1073.301850	-19.140922
1073.686246	-19.113372
1074.070917	-19.091807
1074.455864	-19.077417
1074.841087	-19.064924
1075.226586	-19.048654
1075.612362	-19.020188
1075.998415	-18.997338
1076.384745	-18.987792
1076.771353	-18.972798
1077.158238	-18.949633
1077.545401	-18.924913
1077.932843	-18.903105
1078.320564	-18.893467
1078.708564	-18.878926
1079.096842	-18.849670
1079.485401	-18.826214
1079.874240	-18.810699
1080.263358	-18.797540
1080.652757	-18.780483
1081.042438	-18.751995
1081.432399	-18.727404
1081.822641	-18.716330
1082.213166	-18.702912
1082.603972	-18.680633
1082.995061	-18.652604
1083.386433	-18.630617
1083.778087	-18.622062
1084.170025	-18.607302
1084.562246	-18.578471
1084.954751	-18.553779
1085.347541	-18.537306
1085.740615	-18.525586
1086.133973	-18.509590
1086.527617	-18.479154
1086.921546	-18.453962
1087.315761	-18.444916
1087.710262	-18.431948
1088.105050	-18.408699
1088.500124	-18.381471
1088.895485	-18.359461
1089.291134	-18.352146
1089.687070	-18.340582
1090.083294	-18.309849
1090.479806	-18.283954
1090.876607	-18.274152
1091.273696	-18.264493
1091.671075	-18.245334
1092.068744	-18.217329
1092.466702	-18.197237
1092.864950	-18.192346
1093.263489	-18.180591
1093.662319	-18.154594
1094.061440	-18.131987
1094.460852	-18.120607
1094.860555	-18.114601
1095.260551	-18.099389
1095.660840	-18.071706
1096.061421	-18.053705
1096.462295	-18.050735
1096.863462	-18.040757
1097.264923	-18.018097
1097.666678	-17.995263
1098.068727	-17.983289
1098.471071	-17.980734
1098.873710	-17.965987
1099.276644	-17.937130
1099.679874	-17.921206
1100.083400	-17.917554
1100.487222	-17.903692
1100.891340	-17.881545
1101.295756	-17.861143
1101.700468	-17.847088
1102.105478	-17.838523
1102.510787	-17.820937
1102.916393	-17.793468
1103.322298	-17.777618
1103.728502	-17.768328
1104.135005	-17.748997
1104.541807	-17.725076
1104.948909	-17.703257
1105.356312	-17.689117
1105.764015	-17.675583
1106.172019	-17.649766
1106.580324	-17.623642
1106.988931	-17.609623
1107.397840	-17.593711
1107.807051	-17.569481
1108.216564	-17.546477
1108.626380	-17.525552
1109.036500	-17.507507
1109.446923	-17.490220
1109.857649	-17.465365
1110.268680	-17.441553
1110.680016	-17.426152
1111.091657	-17.406906
1111.503602	-17.383335
1111.915854	-17.363358
1112.328411	-17.344527
1112.741275	-17.325350
1113.154445	-17.306079
1113.567922	-17.284904
1113.981706	-17.266185
1114.395798	-17.249661
1114.810198	-17.228705
1115.224906	-17.209802
1115.639923	-17.194325
1116.055249	-17.173404
1116.470884	-17.154156
1116.886829	-17.139918
1117.303084	-17.121482
1117.719650	-17.101461
1118.136526	-17.084105
1118.553713	-17.066181
1118.971212	-17.050122
1119.389022	-17.034267
1119.807145	-17.012129
1120.225580	-16.992060
1120.644328	-16.979687
1121.063389	-16.962152
1121.482763	-16.939805
1121.902452	-16.921695
1122.322454	-16.902641
1122.742771	-16.884240
1123.163404	-16.868988
1123.584351	-16.846537
1124.005614	-16.822168
1124.427193	-16.806195
1124.849089	-16.788777
1125.271301	-16.766204
1125.693830	-16.744960
1126.116677	-16.722117
1126.539842	-16.700708
1126.963324	-16.684912
1127.387126	-16.662859
1127.811246	-16.634490
1128.235685	-16.613713
1128.660444	-16.596926
1129.085522	-16.574584
1129.510922	-16.550473
1129.936641	-16.526208
1130.362682	-16.503611
1130.789044	-16.487227
1131.215728	-16.466790
1131.642734	-16.437345
1132.070063	-16.415064
1132.497714	-16.400648
1132.925689	-16.379796
1133.353987	-16.354708
1133.782610	-16.332499
1134.211556	-16.312817
1134.640827	-16.296966
1135.070424	-16.278479
1135.500345	-16.251873
1135.930593	-16.231456
1136.361166	-16.221285
1136.792067	-16.203103
1137.223294	-16.177699
1137.654848	-16.160384
1138.086730	-16.147717
1138.518940	-16.131715
1138.951479	-16.113133
1139.384346	-16.093049
1139.817543	-16.078075
1140.251069	-16.068783
1140.684925	-16.051699
1141.119111	-16.028597
1141.553628	-16.016735
1141.988475	-16.009239
1142.423655	-15.990533
1142.859166	-15.970484
1143.295009	-15.959390
1143.731185	-15.948582
1144.167694	-15.932878
1144.604536	-15.915950
1145.041711	-15.900057
1145.479221	-15.889047
1145.917065	-15.878311
1146.355245	-15.858256
1146.793759	-15.839342
1147.232609	-15.832144
1147.671795	-15.820242
1148.111317	-15.796524
1148.551177	-15.780056
1148.991373	-15.772590
1149.431907	-15.756173
1149.872779	-15.734312
1150.313989	-15.719094
1150.755538	-15.706177
1151.197426	-15.689828
1151.639653	-15.670837
1152.082220	-15.651567
1152.525128	-15.636246
1152.968376	-15.622498
1153.411966	-15.601746
1153.855897	-15.579370
1154.300169	-15.565608
1154.744784	-15.551007
1155.189742	-15.527300
1155.635042	-15.506320
1156.080687	-15.492555
1156.526674	-15.474558
1156.973007	-15.451613
1157.419683	-15.432524
1157.866705	-15.415783
1158.314072	-15.396730
1158.761786	-15.376781
1159.209845	-15.356591
1159.658251	-15.337559
1160.107004	-15.321104
1160.556104	-15.301744
1161.005553	-15.279220
1161.455349	-15.262192
1161.905494	-15.247551
1162.355989	-15.225889
1162.806832	-15.204619
1163.258026	-15.190993
1163.709570	-15.174580
1164.161464	-15.152437
1164.613710	-15.135678
1165.066307	-15.122395
1165.519256	-15.103565
1165.972558	-15.085274
1166.426212	-15.071500
1166.880219	-15.055519
1167.334580	-15.038575
1167.789295	-15.024704
1168.244364	-15.009491
1168.699788	-14.993630
1169.155567	-14.981108
1169.611702	-14.967403
1170.068193	-14.951241
1170.525041	-14.939140
1170.982245	-14.928365
1171.439807	-14.912945
1171.897726	-14.899333
1172.356004	-14.890553
1172.814640	-14.877901
1173.273635	-14.863095
1173.732989	-14.853628
1174.192703	-14.844264
1174.652778	-14.829897
1175.113213	-14.818742
1175.574009	-14.810816
1176.035167	-14.798489
1176.496687	-14.785691
1176.958569	-14.777920
1177.420814	-14.767521
1177.883422	-14.754085
1178.346394	-14.744997
1178.809730	-14.736571
1179.273430	-14.723123
1179.737496	-14.711821
1180.201927	-14.704322
1180.666723	-14.692228
1181.131886	-14.678843
1181.597416	-14.669974
1182.063312	-14.660016
1182.529576	-14.645978
1182.996209	-14.634489
1183.463209	-14.625301
1183.930579	-14.611984
1184.398317	-14.598840
1184.866426	-14.588337
1185.334904	-14.576035
1185.803754	-14.561872
1186.272974	-14.550264
1186.742566	-14.538082
1187.212529	-14.522967
1187.682865	-14.510418
1188.153574	-14.498683
1188.624656	-14.483039
1189.096112	-14.468362
1189.567942	-14.457131
1190.040147	-14.442792
1190.512726	-14.425655
1190.985681	-14.412941
1191.459012	-14.400819
1191.932720	-14.383712
1192.406804	-14.367723
1192.881265	-14.356079
1193.356104	-14.341243
1193.831322	-14.323501
1194.306918	-14.309934
1194.782893	-14.296737
1195.259248	-14.279816
1195.735982	-14.264149
1196.213097	-14.251168
1196.690593	-14.235439
1197.168471	-14.218733
1197.646730	-14.205598
1198.125371	-14.190991
1198.604395	-14.173596
1199.083803	-14.159421
1199.563594	-14.146680
1200.043769	-14.129670
1200.524329	-14.113077
1201.005273	-14.100988
1201.486604	-14.086649
1201.968320	-14.068580
1202.450422	-14.054238
1202.932912	-14.042312
1203.415789	-14.025919
1203.899054	-14.008992
1204.382707	-13.996263
1204.866748	-13.982691
1205.351179	-13.965734
1205.836000	-13.950846
1206.321211	-13.937973
1206.806812	-13.922608
1207.292805	-13.906633
1207.779189	-13.893303
1208.265965	-13.878969
1208.753134	-13.862638
1209.240696	-13.848804
1209.728651	-13.835473
1210.217000	-13.819412
1210.705744	-13.803944
1211.194883	-13.791385
1211.684417	-13.777088
1212.174347	-13.760276
1212.664673	-13.746166
1213.155396	-13.733944
1213.646516	-13.718264
1214.138034	-13.701907
1214.629951	-13.689207
1215.122266	-13.675717
1215.614980	-13.659580
1216.108095	-13.644810
1216.601609	-13.631808
1217.095524	-13.617220
1217.589841	-13.601736
1218.084559	-13.587963
1218.579679	-13.574288
1219.075202	-13.558854
1219.571128	-13.544464
1220.067458	-13.531331
1220.564191	-13.516333
1221.061330	-13.500765
1221.558874	-13.487557
1222.056823	-13.474180
1222.555178	-13.457956
1223.053940	-13.442960
1223.553109	-13.430516
1224.052686	-13.416028
1224.552671	-13.399337
1225.053065	-13.385287
1225.553867	-13.372462
1226.055079	-13.356642
1226.556702	-13.340624
1227.058735	-13.327023
1227.561179	-13.312738
1228.064035	-13.296401
1228.567303	-13.281377
1229.070983	-13.267292
1229.575077	-13.251334
1230.079585	-13.235224
1230.584506	-13.221136
1231.089842	-13.205601
1231.595594	-13.188551
1232.101761	-13.173529
1232.608345	-13.159123
1233.115345	-13.142222
1233.622762	-13.125260
1234.130597	-13.110625
1234.638851	-13.095432
1235.147523	-13.077972
1235.656615	-13.061432
1236.166126	-13.046714
1236.676058	-13.030750
1237.186411	-13.013491
1237.697185	-12.997520
1238.208381	-12.982473
1238.719999	-12.966085
1239.232040	-12.949393
1239.744505	-12.934307
1240.257394	-12.918758
1240.770708	-12.902141
1241.284446	-12.886804
1241.798610	-12.872353
1242.313201	-12.856264
1242.828218	-12.840104
1243.343662	-12.826362
1243.859534	-12.812207
1244.375834	-12.795727
1244.892563	-12.780992
1245.409721	-12.768519
1245.927309	-12.753987
1246.445327	-12.738418
1246.963777	-12.725357
1247.482657	-12.713028
1248.001970	-12.698888
1248.521716	-12.684846
1249.041894	-12.672715
1249.562506	-12.660742
1250.083553	-12.647356
1250.605034	-12.634461
1251.126950	-12.623425
1251.649302	-12.611804
1252.172091	-12.598749
1252.695316	-12.587302
1253.218979	-12.577372
1253.743079	-12.565350
1254.267619	-12.553011
1254.792597	-12.543496
1255.318015	-12.533446
1255.843874	-12.521302
1256.370173	-12.510739
1256.896913	-12.501827
1257.424095	-12.491493
1257.951720	-12.480330
1258.479787	-12.470691
1259.008298	-12.462073
1259.537254	-12.451888
1260.066654	-12.441502
1260.596499	-12.432773
1261.126790	-12.424276
1261.657527	-12.414374
1262.188711	-12.404624
1262.720342	-12.396929
1263.252422	-12.388659
1263.784950	-12.378557
1264.317928	-12.370188
1264.851355	-12.363488
1265.385232	-12.354614
1265.919560	-12.345171
1266.454340	-12.338602
1266.989572	-12.331628
1267.525256	-12.322736
1268.061394	-12.315064
1268.597985	-12.308884
1269.135031	-12.302044
1269.672531	-12.293908
1270.210487	-12.286927
1270.748899	-12.281873
1271.287768	-12.275038
1271.827094	-12.267015
1272.366877	-12.261816
1272.907119	-12.257166
1273.447820	-12.249851
1273.988981	-12.243017
1274.530601	-12.238969
1275.072683	-12.234050
1275.615226	-12.226921
1276.158230	-12.221316
1276.701697	-12.217579
1277.245627	-12.212338
1277.790021	-12.205831
1278.334879	-12.201021
1278.880202	-12.197198
1279.425991	-12.191592
1279.972245	-12.185782
1280.518966	-12.181692
1281.066155	-12.177162
1281.613811	-12.171319
1282.161936	-12.166333
1282.710529	-12.162299
1283.259593	-12.157265
1283.809126	-12.151292
1284.359131	-12.146428
1284.909607	-12.142822
1285.460555	-12.137120
1286.011976	-12.130592
1286.563870	-12.126609
1287.116237	-12.122598
1287.669080	-12.116111
1288.222397	-12.110172
1288.776191	-12.106292
1289.330460	-12.101369
1289.885207	-12.095069
1290.440431	-12.089852
1290.996133	-12.085413
1291.552314	-12.080114
1292.108975	-12.074165
1292.666115	-12.069380
1293.223737	-12.064993
1293.781839	-12.058868
1294.340424	-12.053350
1294.899491	-12.049821
1295.459041	-12.044359
1296.019075	-12.038077
1296.579593	-12.033763
1297.140597	-12.029791
1297.702086	-12.024299
1298.264061	-12.018475
1298.826524	-12.014102
1299.389474	-12.010406
1299.952912	-12.004803
1300.516839	-11.999035
1301.081255	-11.995450
1301.646162	-11.990934
1302.211559	-11.985209
1302.777448	-11.980653
1303.343829	-11.976428
1303.910702	-11.971432
1304.478069	-11.966167
1305.045930	-11.961722
1305.614285	-11.957537
1306.183136	-11.951936
1306.752483	-11.946654
1307.322326	-11.942979
1307.892666	-11.938245
1308.463504	-11.932142
1309.034841	-11.927522
1309.606677	-11.923746
1310.179012	-11.918623
1310.751849	-11.912778
1311.325186	-11.908289
1311.899025	-11.904593
1312.473366	-11.899170
1313.048211	-11.893630
1313.623559	-11.889996
1314.199412	-11.885606
1314.775770	-11.880106
1315.352634	-11.875932
1315.930004	-11.872089
1316.507881	-11.867439
1317.086266	-11.862573
1317.665159	-11.858927
1318.244562	-11.855473
1318.824474	-11.850581
1319.404897	-11.846249
1319.985831	-11.843599
1320.567276	-11.839699
1321.149234	-11.835158
1321.731706	-11.831929
1322.314691	-11.828933
1322.898190	-11.825365
1323.482205	-11.821340
1324.066736	-11.818659
1324.651783	-11.815902
1325.237347	-11.811790
1325.823430	-11.809099
1326.410031	-11.806806
1326.997151	-11.803305
1327.584791	-11.800043
1328.172952	-11.797996
1328.761634	-11.795687
1329.350839	-11.792242
1329.940566	-11.789505
1330.530817	-11.788166
1331.121592	-11.785724
1331.712891	-11.782247
1332.304716	-11.780964
1332.897068	-11.779570
1333.489946	-11.776576
1334.083352	-11.774731
1334.677287	-11.773891
1335.271750	-11.772211
1335.866744	-11.769752
1336.462268	-11.768930
1337.058323	-11.768808
1337.654910	-11.766518
1338.252029	-11.765142
1338.849682	-11.765623
1339.447869	-11.764653
1340.046591	-11.763388
1340.645848	-11.763066
1341.245641	-11.763246
1341.845972	-11.762836
1342.446840	-11.762352
1343.048246	-11.762663
1343.650191	-11.762655
1344.252677	-11.762588
1344.855702	-11.763610
1345.459269	-11.763498
1346.063379	-11.763464
1346.668030	-11.764810
1347.273226	-11.765632
1347.878965	-11.766033
1348.485250	-11.766264
1349.092080	-11.767972
1349.699456	-11.769660
1350.307380	-11.769667
1350.915851	-11.770783
1351.524871	-11.772930
1352.134441	-11.774495
1352.744560	-11.775477
1353.355231	-11.776558
1353.966453	-11.779253
1354.578227	-11.781184
1355.190555	-11.782201
1355.803436	-11.784280
1356.416872	-11.786626
1357.030863	-11.789046
1357.645411	-11.790638
1358.260515	-11.792616
1358.876177	-11.795614
1359.492397	-11.797736
1360.109176	-11.799904
1360.726516	-11.802424
1361.344416	-11.804789
1361.962877	-11.807626
1362.581901	-11.810044
1363.201487	-11.812463
1363.821637	-11.815086
1364.442352	-11.817943
1365.063632	-11.820851
1365.685478	-11.822914
1366.307891	-11.825966
1366.930871	-11.829107
1367.554420	-11.831336
1368.178538	-11.834429
1368.803226	-11.837322
1369.428485	-11.839887
1370.054315	-11.842815
1370.680717	-11.845964
1371.307693	-11.848704
1371.935242	-11.850710
1372.563366	-11.854513
1373.192065	-11.857617
1373.821341	-11.859155
1374.451193	-11.862263
1375.081623	-11.865924
1375.712632	-11.868276
1376.344221	-11.869762
1376.976389	-11.873467
1377.609139	-11.876806
1378.242470	-11.877727
1378.876384	-11.880436
1379.510881	-11.884215
1380.145963	-11.885784
1380.781629	-11.887054
1381.417881	-11.890541
1382.054720	-11.893232
1382.692147	-11.893487
1383.330161	-11.895964
1383.968765	-11.899258
1384.607959	-11.899678
1385.247743	-11.900920
1385.888119	-11.903579
1386.529087	-11.905076
1387.170648	-11.905069
1387.812804	-11.907020
1388.455554	-11.908759
1389.098899	-11.908347
1389.742842	-11.909427
1390.387381	-11.910730
1391.032519	-11.910685
1391.678256	-11.910433
1392.324592	-11.911273
1392.971529	-11.911453
1393.619068	-11.910467
1394.267208	-11.910511
1394.915952	-11.910251
1395.565300	-11.909470
1396.215253	-11.908644
1396.865812	-11.907610
1397.516977	-11.906715
1398.168749	-11.905686
1398.821130	-11.904016
1399.474120	-11.902255
1400.127719	-11.901101
1400.781930	-11.899394
1401.436752	-11.896661
1402.092186	-11.894904
1402.748234	-11.892998
1403.404897	-11.890360
1404.062174	-11.887286
1404.720067	-11.885072
1405.378577	-11.882410
1406.037705	-11.879080
1406.697451	-11.875877
1407.357817	-11.872777
1408.018803	-11.869950
1408.680410	-11.866068
1409.342639	-11.862392
1410.005492	-11.859440
1410.668968	-11.855862
1411.333068	-11.851824
1411.997795	-11.848273
1412.663147	-11.845016
1413.329127	-11.841001
1413.995736	-11.837213
1414.662973	-11.833776
1415.330840	-11.829944
1415.999339	-11.826279
1416.668469	-11.822568
1417.338232	-11.818970
1418.008628	-11.815339
1418.679659	-11.811864
1419.351325	-11.808179
1420.023628	-11.805019
1420.696568	-11.801724
1421.370145	-11.798270
1422.044362	-11.795593
1422.719219	-11.792590
1423.394717	-11.789701
1424.070856	-11.787414
1424.747638	-11.785014
1425.425064	-11.782636
1426.103134	-11.780967
1426.781850	-11.779078
1427.461212	-11.777283
1428.141221	-11.776224
1428.821878	-11.774644
1429.503185	-11.773624
1430.185141	-11.772768
1430.867749	-11.771743
1431.551008	-11.771123
1432.234920	-11.770628
1432.919486	-11.769990
1433.604707	-11.769799
1434.290583	-11.769790
1434.977116	-11.769411
1435.664307	-11.770162
1436.352156	-11.770363
1437.040664	-11.770911
1437.729833	-11.772377
1438.419663	-11.773243
1439.110156	-11.774833
1439.801312	-11.777024
1440.493132	-11.778786
1441.185617	-11.781280
1441.878768	-11.784114
1442.572586	-11.786484
1443.267072	-11.789647
1443.962228	-11.792319
1444.658053	-11.795052
1445.354549	-11.797743
1446.051717	-11.799710
1446.749558	-11.801774
1447.448073	-11.802966
1448.147263	-11.803423
1448.847128	-11.803630
1449.547671	-11.802467
1450.248891	-11.800491
1450.950789	-11.797986
1451.653368	-11.793695
1452.356627	-11.788880
1453.060568	-11.783008
1453.765192	-11.775628
1454.470500	-11.767834
1455.176492	-11.758752
1455.883170	-11.748838
1456.590534	-11.738366
1457.298586	-11.726920
1458.007327	-11.715136
1458.716758	-11.702645
1459.426880	-11.689645
1460.137693	-11.676461
1460.849199	-11.662274
1461.561398	-11.648098
1462.274293	-11.633010
1462.987883	-11.616954
1463.702170	-11.600660
1464.417155	-11.582405
1465.132838	-11.563471
1465.849222	-11.542741
1466.566306	-11.520067
1467.284093	-11.495588
1468.002582	-11.468590
1468.721775	-11.439116
1469.441674	-11.406799
1470.162278	-11.371578
1470.883590	-11.333212
1471.605609	-11.291407
1472.328338	-11.246703
1473.051777	-11.198117
1473.775928	-11.146573
1474.500790	-11.091910
1475.226367	-11.033550
1475.952657	-10.973286
1476.679663	-10.909430
1477.407386	-10.843839
1478.135826	-10.776151
1478.864985	-10.706421
1479.594863	-10.636004
1480.325463	-10.564147
1481.056784	-10.492155
1481.788828	-10.420024
1482.521597	-10.348158
1483.255090	-10.277204
1483.989309	-10.207197
1484.724256	-10.138705
1485.459931	-10.071786
1486.196336	-10.006668
1486.933471	-9.943483
1487.671337	-9.882047
1488.409937	-9.822705
1489.149270	-9.764742
1489.889337	-9.708880
1490.630141	-9.654008
1491.371682	-9.600942
1492.113961	-9.548713
1492.856979	-9.497696
1493.600738	-9.447576
1494.345238	-9.398008
1495.090481	-9.349342
1495.836467	-9.300848
1496.583198	-9.253070
1497.330675	-9.205335
1498.078899	-9.158069
1498.827872	-9.110645
1499.577593	-9.063337
1500.328065	-9.015258
1501.079289	-8.966487
1501.831265	-8.915762
1502.583995	-8.862769
1503.337480	-8.806099
1504.091721	-8.745098
1504.846719	-8.678670
1505.602475	-8.606208
1506.358991	-8.527545
1507.116268	-8.442607
1507.874306	-8.352514
1508.633108	-8.258080
1509.392673	-8.161484
1510.153004	-8.064364
1510.914101	-7.969346
1511.675965	-7.878436
1512.438599	-7.794061
1513.202002	-7.718087
1513.966176	-7.652464
1514.731122	-7.598680
1515.496842	-7.558428
1516.263336	-7.532990
1517.030607	-7.524387
1517.798654	-7.534333
1518.567479	-7.565749
1519.337083	-7.621628
1520.107468	-7.706273
1520.878634	-7.824613
1521.650584	-7.982616
1522.423317	-8.187601
1523.196836	-8.447539
1523.971141	-8.772523
1524.746233	-9.173314
1525.522115	-9.663815
1526.298786	-10.259428
1527.076249	-10.980462
1527.854504	-11.851118
1528.633553	-12.903959
1529.413397	-14.179788
1530.194037	-15.731147
1530.975474	-17.609029
1531.757709	-19.799068
1532.540745	-21.926439
1533.324581	-22.755346
1534.109220	-21.498966
1534.894662	-19.387894
1535.680909	-17.402780
1536.467961	-15.762583
1537.255821	-14.452118
1538.044489	-13.420752
1538.833967	-12.623725
1539.624256	-12.026495
1540.415357	-11.603469
1541.207271	-11.334788
1542.000000	-11.204557
1542.793545	-11.198310
1543.587907	-11.301374
1544.383087	-11.496471
1545.179088	-11.760963
1545.975909	-12.064377
1546.773552	-12.365760
1547.572019	-12.615007
1548.371311	-12.758192
1549.171428	-12.751598
1549.972373	-12.575184
1550.774147	-12.240950
1551.576751	-11.785161
1552.380185	-11.254763
1553.184453	-10.693125
1553.989554	-10.134049
1554.795490	-9.600170
1555.602263	-9.105171
1556.409873	-8.655933
1557.218322	-8.255002
1558.027612	-7.902038
1558.837743	-7.594998
1559.648717	-7.330886
1560.460536	-7.106247
1561.273200	-6.917449
1562.086710	-6.760919
1562.901069	-6.633304
1563.716278	-6.531469
1564.532337	-6.452669
1565.349249	-6.394438
1566.167014	-6.354695
1566.985634	-6.331576
1567.805111	-6.323563
1568.625444	-6.329250
1569.446637	-6.347453
1570.268690	-6.376997
1571.091605	-6.416855
1571.915382	-6.465933
1572.740024	-6.523223
1573.565532	-6.587702
1574.391907	-6.658374
1575.219150	-6.734366
1576.047262	-6.814815
1576.876246	-6.899096
1577.706103	-6.986634
1578.536833	-7.077143
1579.368439	-7.170403
1580.200922	-7.266463
1581.034282	-7.365421
1581.868522	-7.467547
1582.703643	-7.573136
1583.539646	-7.682553
1584.376532	-7.796082
1585.214304	-7.914065
1586.052962	-8.036646
1586.892508	-8.164071
1587.732943	-8.296262
1588.574269	-8.433331
1589.416487	-8.575004
1590.259599	-8.721269
1591.103605	-8.871694
1591.948508	-9.026179
1592.794309	-9.184235
1593.641009	-9.345655
1594.488609	-9.510022
1595.337112	-9.677046
1596.186518	-9.846445
1597.036829	-10.017924
1597.888047	-10.191355
1598.740172	-10.366533
1599.593207	-10.543426
1600.447153	-10.722025
1601.302010	-10.902336
1602.157782	-11.084564
1603.014469	-11.268734
1603.872072	-11.455195
1604.730593	-11.644065
1605.590034	-11.835704
1606.450397	-12.030354
1607.311681	-12.228282
1608.173890	-12.429896
1609.037024	-12.635314
1609.901085	-12.845020
1610.766075	-13.059017
1611.631995	-13.277705
1612.498846	-13.501042
1613.366630	-13.729135
1614.235349	-13.961977
1615.105004	-14.199308
1615.975596	-14.441018
1616.847128	-14.686569
1617.719600	-14.935573
1618.593014	-15.187377
1619.467372	-15.441197
1620.342675	-15.696309
1621.218924	-15.951618
1622.096122	-16.206233
1622.974270	-16.458935
1623.853369	-16.708637
1624.733420	-16.954121
1625.614427	-17.194137
1626.496389	-17.427506
1627.379308	-17.652987
1628.263187	-17.869397
1629.148026	-18.075683
1630.033828	-18.270711
1630.920593	-18.453664
1631.808324	-18.623555
1632.697022	-18.779747
1633.586688	-18.921624
1634.477324	-19.048693
1635.368932	-19.160663
1636.261514	-19.257347
1637.155070	-19.338700
1638.049602	-19.404898
1638.945113	-19.456138
1639.841603	-19.492823
1640.739075	-19.515555
1641.637529	-19.524827
1642.536968	-19.521517
1643.437393	-19.506244
1644.338806	-19.479999
1645.241209	-19.443601
1646.144602	-19.397921
1647.048988	-19.343849
1647.954368	-19.282160
1648.860744	-19.213617
1649.768118	-19.139027
1650.676491	-19.058869
1651.585865	-18.973950
1652.496241	-18.884572
1653.407621	-18.791386
1654.320008	-18.694724
1655.233401	-18.594977
1656.147804	-18.492548
1657.063218	-18.387721
1657.979645	-18.280788
1658.897085	-18.172163
1659.815542	-18.062007
1660.735016	-17.950767
1661.655509	-17.838589
1662.577023	-17.725874
1663.499560	-17.612860
1664.423121	-17.499818
1665.347709	-17.387048
1666.273324	-17.274784
1667.199969	-17.163231
1668.127645	-17.052689
1669.056353	-16.943245
1669.986097	-16.835132
1670.916877	-16.728436
1671.848695	-16.623311
1672.781553	-16.519816
1673.715452	-16.418008
1674.650395	-16.317889
1675.586383	-16.219549
1676.523418	-16.122925
1677.461501	-16.028097
1678.400635	-15.935002
1679.340821	-15.843670
1680.282061	-15.754120
1681.224357	-15.666324
1682.167710	-15.580330
1683.112122	-15.496114
1684.057595	-15.413710
1685.004132	-15.333116
1685.951732	-15.254318
1686.900400	-15.177300
1687.850135	-15.102072
1688.800940	-15.028585
1689.752818	-14.956890
1690.705768	-14.886854
1691.659795	-14.818524
1692.614898	-14.751821
1693.571081	-14.686707
1694.528345	-14.623139
1695.486691	-14.561035
1696.446122	-14.500331
1697.406640	-14.440980
1698.368245	-14.382869
1699.330941	-14.325987
1700.294729	-14.270243
1701.259611	-14.215587
1702.225588	-14.161992
1703.192664	-14.109390
1704.160838	-14.057782
1705.130114	-14.007127
1706.100493	-13.957380
1707.071977	-13.908546
1708.044568	-13.860602
1709.018268	-13.813504
1709.993079	-13.767288
1710.969003	-13.721899
1711.946041	-13.677391
1712.924196	-13.633746
1713.903469	-13.590967
1714.883862	-13.549074
1715.865378	-13.508096
1716.848017	-13.468001
1717.831783	-13.428840
1718.816677	-13.390574
1719.802701	-13.353210
1720.789857	-13.316750
1721.778147	-13.281163
1722.767573	-13.246439
1723.758136	-13.212588
1724.749840	-13.179595
1725.742685	-13.147460
1726.736673	-13.116158
1727.731808	-13.085695
1728.728090	-13.056026
1729.725521	-13.027108
1730.724105	-12.998934
1731.723842	-12.971428
1732.724735	-12.944534
1733.726785	-12.918210
1734.729995	-12.892417
1735.734366	-12.867097
1736.739902	-12.842231
1737.746603	-12.817763
1738.754472	-12.793706
1739.763510	-12.770001
1740.773721	-12.746657
1741.785105	-12.723665
1742.797665	-12.701036
1743.811403	-12.678756
1744.826321	-12.656851
1745.842422	-12.635313
1746.859706	-12.614187
1747.878177	-12.593450
1748.897835	-12.573111
1749.918685	-12.553173
1750.940726	-12.533631
1751.963963	-12.514471
1752.988395	-12.495713
1754.014027	-12.477332
1755.040860	-12.459352
1756.068895	-12.441793
1757.098135	-12.424680
1758.128583	-12.408046
1759.160240	-12.391907
1760.193109	-12.376284
1761.227191	-12.361203
1762.262488	-12.346649
1763.299004	-12.332615
1764.336740	-12.319097
1765.375697	-12.306088
1766.415880	-12.293598
1767.457288	-12.281608
1768.499926	-12.270134
1769.543794	-12.259187
1770.588895	-12.248745
1771.635231	-12.238772
1772.682805	-12.229218
1773.731619	-12.219988
1774.781674	-12.211020
1775.832973	-12.202207
1776.885519	-12.193450
1777.939312	-12.184691
1778.994357	-12.175887
1780.050654	-12.167000
1781.108207	-12.158028
1782.167017	-12.148947
1783.227087	-12.139771
1784.288418	-12.130519
1785.351013	-12.121185
1786.414875	-12.111768
1787.480006	-12.102269
1788.546407	-12.092712
1789.614082	-12.083127
1790.683032	-12.073524
1791.753259	-12.063939
1792.824767	-12.054434
1793.897557	-12.045030
1794.971632	-12.035758
1796.046994	-12.026657
1797.123645	-12.017740
1798.201588	-12.009021
1799.280824	-12.000477
1800.361357	-11.992114
1801.443188	-11.983949
1802.526320	-11.975980
1803.610756	-11.968228
1804.696497	-11.960721
1805.783546	-11.953465
1806.871906	-11.946475
1807.961578	-11.939745
1809.052565	-11.933278
1810.144870	-11.927070
1811.238494	-11.921100
1812.333441	-11.915372
1813.429713	-11.909927
1814.527311	-11.904766
1815.626239	-11.899917
1816.726499	-11.895411
1817.828094	-11.891263
1818.931025	-11.887466
1820.035295	-11.884002
1821.140906	-11.880834
1822.247862	-11.877945
1823.356165	-11.875281
1824.465816	-11.872827
1825.576819	-11.870608
1826.689175	-11.868633
1827.802888	-11.866927
1828.917960	-11.865520
1830.034394	-11.864419
1831.152191	-11.863620
1832.271354	-11.863089
1833.391887	-11.862799
1834.513790	-11.862728
1835.637068	-11.862848
1836.761722	-11.863164
1837.887755	-11.863699
1839.015169	-11.864454
1840.143968	-11.865441
1841.274153	-11.866651
1842.405727	-11.868044
1843.538693	-11.869573
1844.673053	-11.871158
1845.808810	-11.872730
1846.945966	-11.874246
1848.084525	-11.875653
1849.224488	-11.876933
1850.365858	-11.878089
1851.508638	-11.879132
1852.652831	-11.880076
1853.798438	-11.880926
1854.945463	-11.881677
1856.093909	-11.882352
1857.243777	-11.882959
1858.395071	-11.883504
1859.547794	-11.884030
1860.701947	-11.884573
1861.857533	-11.885190
1863.014556	-11.885917
1864.173018	-11.886782
1865.332922	-11.887819
1866.494270	-11.889045
1867.657065	-11.890463
1868.821309	-11.892096
1869.987006	-11.893988
1871.154158	-11.896141
1872.322768	-11.898581
1873.492839	-11.901299
1874.664373	-11.904275
1875.837373	-11.907469
1877.011841	-11.910836
1878.187782	-11.914339
1879.365197	-11.917957
1880.544089	-11.921699
1881.724460	-11.925570
1882.906315	-11.929583
1884.089655	-11.933748
1885.274483	-11.938085
1886.460803	-11.942593
1887.648616	-11.947285
1888.837927	-11.952171
1890.028736	-11.957269
1891.221049	-11.962606
1892.414866	-11.968200
1893.610192	-11.974070
1894.807028	-11.980250
1896.005379	-11.986740
1897.205246	-11.993545
1898.406633	-12.000644
1899.609542	-12.008012
1900.813977	-12.015623
1902.019940	-12.023429
1903.227434	-12.031431
1904.436462	-12.039630
1905.647028	-12.048030
1906.859133	-12.056663
1908.072781	-12.065548
1909.287976	-12.074682
1910.504719	-12.084065
1911.723013	-12.093681
1912.942863	-12.103489
1914.164270	-12.113478
1915.387238	-12.123631
1916.611770	-12.133964
1917.837868	-12.144507
1919.065536	-12.155299
1920.294777	-12.166380
1921.525594	-12.177750
1922.757989	-12.189371
1923.991967	-12.201192
1925.227529	-12.213164
1926.464679	-12.225254
1927.703420	-12.237458
1928.943755	-12.249791
1930.185688	-12.262268
1931.429221	-12.274871
1932.674356	-12.287559
1933.921099	-12.300264
1935.169451	-12.312895
1936.419415	-12.325395
1937.670996	-12.337726
1938.924195	-12.349893
1940.179017	-12.361950
1941.435463	-12.373945
1942.693538	-12.385928
1943.953245	-12.397937
1945.214586	-12.409987
1946.477566	-12.422118
1947.742186	-12.434383
1949.008451	-12.446847
1950.276363	-12.459606
1951.545926	-12.472716
1952.817143	-12.486203
1954.090017	-12.500044
1955.364551	-12.514185
1956.640749	-12.528578
1957.918615	-12.543194
1959.198150	-12.558043
1960.479359	-12.573166
1961.762244	-12.588590
1963.046810	-12.604327
1964.333059	-12.620346
1965.620995	-12.636593
1966.910621	-12.653011
1968.201940	-12.669570
1969.494956	-12.686317
1970.789672	-12.703354
1972.086091	-12.720805
1973.384217	-12.738769
1974.684053	-12.757270
1975.985602	-12.776258
1977.288869	-12.795637
1978.593855	-12.815322
1979.900566	-12.835286
1981.209003	-12.855592
1982.519171	-12.876334
1983.831073	-12.897572
1985.144712	-12.919309
1986.460093	-12.941453
1987.777217	-12.963887
1989.096089	-12.986503
1990.416713	-13.009281
1991.739092	-13.032325
1993.063228	-13.055789
1994.389127	-13.079831
1995.716791	-13.104526
1997.046223	-13.129842
1998.377428	-13.155676
1999.710409	-13.181887
2001.045169	-13.208401
2002.381713	-13.235203
2003.720043	-13.262345
2005.060163	-13.289844
2006.402077	-13.317638
2007.745788	-13.345568
2009.091301	-13.373398
2010.438618	-13.400946
2011.787743	-13.428125
2013.138680	-13.455032
2014.491433	-13.481868
2015.846005	-13.508834
2017.202399	-13.536002
2018.560621	-13.563273
2019.920673	-13.590447
2021.282558	-13.617329
2022.646281	-13.643902
2024.011846	-13.670340
2025.379256	-13.696960
2026.748515	-13.724064
2028.119626	-13.751772
2029.492594	-13.780000
2030.867422	-13.808512
2032.244114	-13.837106
2033.622673	-13.865737
2035.003104	-13.894548
2036.385411	-13.923769
2037.769597	-13.953604
2039.155665	-13.984102
2040.543621	-14.015186
2041.933467	-14.046724
2043.325208	-14.078615
2044.718847	-14.110863
2046.114389	-14.143529
2047.511837	-14.176707
2048.911195	-14.210444
2050.312467	-14.244736
2051.715657	-14.279538
2053.120769	-14.314774
2054.527807	-14.350375
2055.936775	-14.386269
2057.347677	-14.422451
2058.760516	-14.458983
2060.175297	-14.496010
2061.592025	-14.533701
2063.010701	-14.572208
2064.431332	-14.611589
2065.853921	-14.651815
2067.278472	-14.692809
2068.704988	-14.734507
2070.133475	-14.776893
2071.563936	-14.819996
2072.996375	-14.863832
2074.430796	-14.908357
2075.867204	-14.953444
2077.305603	-14.998938
2078.745996	-15.044721
2080.188389	-15.090752
2081.632784	-15.137066
2083.079187	-15.183724
2084.527601	-15.230817
2085.978030	-15.278419
2087.430480	-15.326562
2088.884954	-15.375193
2090.341455	-15.424115
2091.799990	-15.473062
2093.260561	-15.521802
2094.723173	-15.570246
2096.187831	-15.618426
2097.654538	-15.666413
2099.123300	-15.714222
2100.594119	-15.761795
2102.067001	-15.809029
2103.541950	-15.855885
2105.018971	-15.902443
2106.498067	-15.948882
2107.979243	-15.995433
2109.462503	-16.042252
2110.947853	-16.089376
2112.435295	-16.136742
2113.924836	-16.184289
2115.416478	-16.232077
2116.910227	-16.280310
2118.406087	-16.329230
2119.904063	-16.379013
2121.404158	-16.429689
2122.906378	-16.481224
2124.410727	-16.533556
2125.917210	-16.586661
2127.425831	-16.640541
2128.936594	-16.695257
2130.449505	-16.750884
2131.964567	-16.807451
2133.481786	-16.864857
2135.001166	-16.922882
2136.522711	-16.981344
2138.046427	-17.040228
2139.572317	-17.099736
2141.100388	-17.160141
2142.630642	-17.221591
2144.163085	-17.284056
2145.697722	-17.347374
2147.234558	-17.411409
2148.773596	-17.476119
2150.314842	-17.541571
2151.858301	-17.607893
2153.403977	-17.675145
2154.951875	-17.743280
2156.502000	-17.812094
2158.054357	-17.881376
2159.608950	-17.951020
2161.165785	-18.021104
2162.724866	-18.091796
2164.286198	-18.163281
2165.849786	-18.235658
2167.415635	-18.308841
2168.983749	-18.382507
2170.554134	-18.456305
2172.126795	-18.530064
2173.701737	-18.603927
2175.278964	-18.678130
2176.858481	-18.752709
2178.440294	-18.827397
2180.024408	-18.901831
2181.610827	-18.975801
2183.199557	-19.049358
2184.790602	-19.122591
2186.383968	-19.195373
2187.979660	-19.267400
2189.577683	-19.338371
2191.178041	-19.408126
2192.780741	-19.476774
2194.385787	-19.544652
2195.993185	-19.612299
2197.602939	-19.680355
2199.215054	-19.749223
2200.829537	-19.818916
2202.446392	-19.889010
2204.065624	-19.959013
2205.687239	-20.028893
2207.311242	-20.099225
2208.937638	-20.170913
2210.566433	-20.244517
2212.197631	-20.319826
2213.831239	-20.396174
2215.467261	-20.473229
2217.105703	-20.551496
2218.746570	-20.631971
2220.389867	-20.715167
2222.035601	-20.800575
2223.683776	-20.887104
2225.334398	-20.974132
2226.987472	-21.062127
2228.643004	-21.152147
2230.300999	-21.244715
2231.961463	-21.339109
2233.624402	-21.433825
2235.289820	-21.528005
2236.957723	-21.622394
2238.628118	-21.718695
2240.301009	-21.817610
2241.976402	-21.918036
2243.654303	-22.018102
2245.334717	-22.117159
2247.017650	-22.216419
2248.703108	-22.317347
2250.391096	-22.419906
2252.081620	-22.522641
2253.774686	-22.624200
2255.470300	-22.724406
2257.168467	-22.823831
2258.869193	-22.922763
2260.572484	-23.021031
2262.278345	-23.118499
2263.986783	-23.215487
2265.697804	-23.312652
2267.411412	-23.410278
2269.127615	-23.507648
2270.846417	-23.603261
2272.567826	-23.695953
2274.291846	-23.786079
2276.018484	-23.875257
2277.747745	-23.964706
2279.479637	-24.053938
2281.214164	-24.141510
2282.951333	-24.226882
2284.691149	-24.311165
2286.433619	-24.395863
2288.178750	-24.481314
2289.926546	-24.566870
2291.677014	-24.652387
2293.430161	-24.739034
2295.185992	-24.828458
2296.944513	-24.921232
2298.705732	-25.016473
2300.469653	-25.112990
2302.236283	-25.210466
2304.005629	-25.309452
2305.777696	-25.410637
2307.552492	-25.514480
2309.330022	-25.621410
2311.110292	-25.731890
2312.893310	-25.845842
2314.679080	-25.962167
2316.467611	-26.079605
2318.258907	-26.198060
2320.052976	-26.318396
2321.849824	-26.440536
2323.649457	-26.562859
2325.451883	-26.684393
2327.257106	-26.807072
2329.065135	-26.934322
2330.875975	-27.066703
2332.689633	-27.200500
2334.506116	-27.331553
2336.325430	-27.459905
2338.147581	-27.589410
2339.972578	-27.723116
2341.800425	-27.859778
2343.631130	-27.995237
2345.464700	-28.126666
2347.301141	-28.255117
2349.140461	-28.384125
2350.982665	-28.515535
2352.827760	-28.646780
2354.675754	-28.773484
2356.526653	-28.894871
2358.380464	-29.014752
2360.237195	-29.135310
2362.096851	-29.251783
2363.959440	-29.356791
2365.824968	-29.450039
2367.693444	-29.540198
2369.564873	-29.634999
2371.439263	-29.731695
2373.316620	-29.820835
2375.196953	-29.899239
2377.080267	-29.974830
2378.966570	-30.056417
2380.855869	-30.142478
2382.748171	-30.225020
2384.643484	-30.302251
2386.541815	-30.381818
2388.443170	-30.470556
2390.347557	-30.566484
2392.254984	-30.663613
2394.165457	-30.761223
2396.078984	-30.864770
2397.995572	-30.978769
2399.915229	-31.103042
2401.837961	-31.235790
2403.763777	-31.376002
2405.692684	-31.521875
2407.624689	-31.671234
2409.559800	-31.825759
2411.498023	-31.990368
2413.439368	-32.165568
2415.383840	-32.344664
2417.331449	-32.521567
2419.282201	-32.697800
2421.236104	-32.877567
2423.193165	-33.059649
2425.153393	-33.240001
2427.116795	-33.420197
2429.083378	-33.606361
2431.053151	-33.798634
2433.026121	-33.988695
2435.002297	-34.170804
2436.981685	-34.350095
2438.964293	-34.534996
2440.950131	-34.724136
2442.939204	-34.906283
2444.931522	-35.073236
2446.927092	-35.226471
2448.925923	-35.369996
2450.928022	-35.502542
2452.933397	-35.619123
2454.942056	-35.717170
2456.954008	-35.800467
2458.969260	-35.876702
2460.987821	-35.948578
2463.009699	-36.010591
2465.034902	-36.058987
2467.063437	-36.100599
2469.095315	-36.143323
2471.130542	-36.185650
2473.169127	-36.225515
2475.211078	-36.271330
2477.256404	-36.331469
2479.305112	-36.400856
2481.357212	-36.469912
2483.412713	-36.541756
2485.471621	-36.629044
2487.533946	-36.735959
2489.599696	-36.854244
2491.668880	-36.978751
2493.741507	-37.116240
2495.817585	-37.271216
2497.897122	-37.436393
2499.980127	-37.605464
2502.066609	-37.781728
2504.156578	-37.965880
2506.250040	-38.152413
2508.347006	-38.342739
2510.447483	-38.546665
2512.551482	-38.765980
2514.659010	-38.987103
2516.770076	-39.195747
2518.884690	-39.393676
2521.002861	-39.594963
2523.124597	-39.807643
2525.249907	-40.029071
2527.378801	-40.257851
2529.511287	-40.494671
2531.647375	-40.731482
2533.787074	-40.963762
2535.930393	-41.208452
2538.077340	-41.482589
2540.227927	-41.772953
2542.382160	-42.060232
2544.540051	-42.352508
2546.701608	-42.651141
2548.866840	-42.919446
2551.035757	-43.141894
2553.208369	-43.351115
2555.384684	-43.544735
2557.564713	-43.678021
2559.748465	-43.769096
2561.935948	-43.871261
2564.127174	-43.950699
2566.322152	-43.948067
2568.520890	-43.906891
2570.723399	-43.891052
2572.929689	-43.876090
2575.139769	-43.824284
2577.353649	-43.755350
2579.571340	-43.694194
2581.792849	-43.640607
2584.018189	-43.598787
2586.247368	-43.581188
2588.480396	-43.594130
2590.717284	-43.631581
2592.958041	-43.684101
2595.202678	-43.754409
2597.451204	-43.854594
2599.703630	-43.987972
2601.959966	-44.146129
2604.220222	-44.309936
2606.484408	-44.458955
2608.752535	-44.610595
2611.024612	-44.794545
2613.300651	-44.973535
2615.580661	-45.101438
2617.864653	-45.237831
2620.152638	-45.444011
2622.444625	-45.662740
2624.740626	-45.842729
2627.040651	-46.039452
2629.344710	-46.295171
2631.652814	-46.576267
2633.964974	-46.862470
2636.281200	-47.199232
2638.601504	-47.623874
2640.925896	-48.082379
2643.254386	-48.514003
2645.586987	-48.978673
2647.923707	-49.512437
2650.264559	-50.080407
2652.609554	-50.626370
2654.958702	-51.189195
2657.312015	-51.817500
2659.669503	-52.294041
2662.031178	-52.637981
2664.397051	-52.988670
2666.767132	-53.389335
2669.141434	-53.704156
2671.519968	-53.721024
2673.902745	-53.677848
2676.289776	-53.561817
2678.681072	-53.366793
2681.076646	-53.106474
2683.476508	-52.867637
2685.880671	-52.767510
2688.289145	-52.484640
2690.701942	-52.190068
2693.119075	-52.072562
2695.540554	-52.081552
2697.966391	-51.865137
2700.396599	-51.812358
2702.831189	-51.967898
2705.270172	-51.926571
2707.713561	-52.021523
2710.161368	-52.119893
2712.613605	-52.274378
2715.070283	-52.342901
2717.531416	-52.357603
2719.997014	-52.294004
2722.467090	-52.390085
2724.941657	-52.272216
2727.420726	-52.233224
2729.904310	-52.250758
2732.392421	-52.305478
2734.885072	-52.384420
2737.382275	-52.399590
2739.884042	-52.440879
2742.390387	-52.689330
2744.901321	-52.805567
2747.416857	-53.092090
2749.937008	-53.496750
2752.461787	-53.811380
2754.991206	-54.226182
2757.525279	-54.791584
2760.064017	-55.237730
2762.607434	-55.813769
2765.155544	-56.404976
2767.708358	-57.483861
2770.265890	-58.291310
2772.828153	-58.779557
2775.395160	-59.774211
2777.966924	-61.299912
2780.543459	-62.303542
2783.124778	-63.370446
2785.710894	-63.941966
2788.301821	-64.328730
2790.897572	-65.101094
2793.498160	-64.997189
2796.103599	-64.103383
2798.713903	-63.531236
2801.329085	-62.946720
2803.949159	-62.344661
2806.574139	-62.442573
2809.204038	-62.347013
2811.838871	-62.619904
2814.478650	-62.277249
2817.123391	-62.453974
2819.773107	-63.518670
2822.427812	-64.602963
2825.087521	-63.637312
2827.752247	-63.715708
2830.422005	-64.346636
2833.096808	-63.702079
2835.776672	-63.265136
2838.461611	-62.885589
2841.151638	-61.896363
2843.846769	-61.095409
2846.547019	-60.975113
2849.252401	-60.566089
2851.962930	-60.306278
2854.678621	-60.059438
2857.399489	-59.736846
2860.125549	-59.667301
2862.856815	-59.855846
2865.593302	-59.777611
2868.335026	-59.746595
2871.082002	-59.972566
2873.834244	-60.479272
2876.591767	-61.035770
2879.354588	-61.038093
2882.122721	-61.345886
2884.896181	-62.404958
2887.674984	-62.499032
2890.459146	-62.840171
2893.248681	-64.060459
2896.043606	-65.095753
2898.843937	-65.260295
2901.649687	-66.983251
2904.460875	-68.886133
2907.277515	-69.973037
2910.099623	-72.520189
2912.927215	-74.325064
2915.760308	-71.546316
2918.598916	-71.327584
2921.443057	-71.350109
2924.292747	-69.732064
2927.148002	-69.305596
2930.008837	-68.828902
2932.875270	-68.737463
2935.747318	-69.352609
2938.624995	-70.623795
2941.508320	-70.056768
2944.397308	-70.696617
2947.291977	-78.507192
2950.192343	-79.045535
2953.098423	-74.678269
2956.010234	-84.684601
2958.927792	-82.098967
2961.851116	-80.242401
2964.780221	-84.085045
2967.715126	-75.275112
2970.655847	-76.930688
2973.602402	-76.413947
2976.554808	-70.526125
2979.513083	-71.432844
2982.477243	-74.166767
2985.447308	-70.756585
2988.423293	-68.400968
2991.405218	-69.699927
2994.393099	-69.848717
2997.386955	-69.546105
