# 2022-03-21_22.53.06
# shape = sech2
# FWHM_ps = 0.1
# carrier_nm = 1542
# frep_MHz = 12126
# pow_mW = 8000
# GDD = 0.0
# propa_len = 0.11866666666666668
# untap_len = 0.01
# taper_len = 0.05866666666666667
# waist_len = 0.02
# uptap_len = 0.02
# untap_scale = 1.0
# waist_scale = 0.27368421052631586
# workingDir = NL_20110305_12 (Spirou)
# axis = slow
# window_ps = 10.0
# steps = 200
# points = 21700
# 
# wavelength [nm]	 power spectral density [dB]
600.043425	-80.254166
600.163550	-80.046770
600.283723	-79.802367
600.403943	-79.528289
600.524212	-79.236051
600.644529	-78.937129
600.764895	-78.641019
600.885308	-78.354334
601.005770	-78.080427
601.126280	-77.819618
601.246839	-77.569673
601.367446	-77.326244
601.488101	-77.083734
601.608804	-76.836669
601.729557	-76.580703
601.850357	-76.313203
601.971206	-76.033689
602.092104	-75.743707
602.213050	-75.446477
602.334045	-75.146713
602.455089	-74.849566
602.576181	-74.559933
602.697322	-74.281764
602.818511	-74.017694
602.939749	-73.768964
603.061036	-73.535594
603.182372	-73.316436
603.303757	-73.109089
603.425191	-72.910439
603.546673	-72.717359
603.668204	-72.527291
603.789785	-72.338285
603.911414	-72.148893
604.033092	-71.958149
604.154820	-71.765824
604.276596	-71.572494
604.398422	-71.379506
604.520297	-71.188778
604.642220	-71.002287
604.764193	-70.821766
604.886216	-70.648712
605.008287	-70.484168
605.130408	-70.328847
605.252578	-70.183028
605.374798	-70.046422
605.497066	-69.918256
605.619385	-69.797522
605.741752	-69.683048
605.864169	-69.573459
605.986636	-69.467314
606.109152	-69.363481
606.231718	-69.261255
606.354333	-69.160196
606.476998	-69.059955
606.599712	-68.960534
606.722476	-68.862331
606.845290	-68.765999
606.968154	-68.672293
607.091067	-68.581956
607.214030	-68.495594
607.337043	-68.413689
607.460106	-68.336506
607.583219	-68.264183
607.706381	-68.196653
607.829594	-68.133617
607.952856	-68.074653
608.076169	-68.019275
608.199531	-67.967049
608.322944	-67.917484
608.446407	-67.869981
608.569920	-67.823937
608.693483	-67.779015
608.817096	-67.735135
608.940759	-67.692446
609.064473	-67.651302
609.188237	-67.612169
609.312051	-67.575473
609.435916	-67.541689
609.559831	-67.511324
609.683796	-67.484573
609.807812	-67.461229
609.931878	-67.440825
610.055995	-67.422872
610.180162	-67.406825
610.304380	-67.392076
610.428648	-67.377829
610.552967	-67.363213
610.677337	-67.347660
610.801757	-67.330897
610.926228	-67.312834
611.050750	-67.293585
611.175323	-67.273519
611.299946	-67.253091
611.424620	-67.232881
611.549345	-67.213640
611.674121	-67.196089
611.798948	-67.180745
611.923826	-67.167876
612.048755	-67.157354
612.173734	-67.148879
612.298765	-67.141896
612.423847	-67.135574
612.548980	-67.129047
612.674165	-67.121612
612.799400	-67.112836
612.924687	-67.102413
613.050025	-67.090019
613.175414	-67.075556
613.300854	-67.059322
613.426346	-67.041807
613.551889	-67.023458
613.677484	-67.004712
613.803130	-66.986102
613.928827	-66.968248
614.054576	-66.951724
614.180377	-66.936829
614.306229	-66.923571
614.432132	-66.911684
614.558087	-66.900690
614.684094	-66.890157
614.810153	-66.879739
614.936263	-66.869069
615.062425	-66.857673
615.188639	-66.845108
615.314904	-66.831270
615.441222	-66.816452
615.567591	-66.801113
615.694012	-66.785705
615.820486	-66.770513
615.947011	-66.755864
616.073588	-66.742299
616.200217	-66.730488
616.326898	-66.721055
616.453632	-66.714280
616.580417	-66.710070
616.707255	-66.708399
616.834144	-66.709226
616.961086	-66.712490
617.088081	-66.718075
617.215127	-66.725869
617.342226	-66.736056
617.469378	-66.748843
617.596581	-66.764320
617.723837	-66.782392
617.851146	-66.802742
617.978507	-66.825044
618.105920	-66.849052
618.233386	-66.874544
618.360905	-66.901291
618.488476	-66.929101
618.616100	-66.957776
618.743777	-66.987147
618.871506	-67.016906
618.999288	-67.046753
619.127123	-67.076484
619.255011	-67.106063
619.382951	-67.135740
619.510945	-67.166088
619.638991	-67.197672
619.767090	-67.230736
619.895243	-67.265306
620.023448	-67.301280
620.151706	-67.338544
620.280017	-67.376818
620.408382	-67.415624
620.536799	-67.454180
620.665270	-67.491699
620.793794	-67.527404
620.922371	-67.560539
621.051002	-67.590252
621.179686	-67.615832
621.308423	-67.636873
621.437213	-67.653292
621.566057	-67.665365
621.694954	-67.673525
621.823905	-67.678217
621.952909	-67.679909
622.081967	-67.679318
622.211079	-67.677293
622.340244	-67.674535
622.469462	-67.671179
622.598735	-67.667006
622.728061	-67.661696
622.857441	-67.654789
622.986874	-67.645548
623.116361	-67.633014
623.245903	-67.616114
623.375498	-67.594069
623.505147	-67.566488
623.634850	-67.533174
623.764606	-67.494146
623.894417	-67.449762
624.024282	-67.400853
624.154201	-67.348506
624.284174	-67.293725
624.414202	-67.237411
624.544283	-67.180407
624.674419	-67.123513
624.804609	-67.067316
624.934853	-67.012112
625.065151	-66.957868
625.195504	-66.904335
625.325911	-66.850829
625.456373	-66.796340
625.586889	-66.740136
625.717460	-66.681816
625.848085	-66.621038
625.978764	-66.557598
626.109498	-66.491721
626.240287	-66.423772
626.371131	-66.354060
626.502029	-66.283121
626.632982	-66.211812
626.763989	-66.141081
626.895052	-66.071700
627.026169	-66.004363
627.157341	-65.939788
627.288568	-65.878546
627.419850	-65.821117
627.551187	-65.767734
627.682579	-65.718468
627.814026	-65.673283
627.945528	-65.632126
628.077085	-65.594989
628.208697	-65.562061
628.340364	-65.533623
628.472087	-65.510003
628.603865	-65.491640
628.735698	-65.479038
628.867586	-65.472640
628.999530	-65.472724
629.131529	-65.479640
629.263584	-65.493788
629.395694	-65.515292
629.527859	-65.543932
629.660080	-65.579496
629.792357	-65.621824
629.924689	-65.670447
630.057077	-65.724648
630.189520	-65.783837
630.322019	-65.847644
630.454574	-65.915801
630.587184	-65.988087
630.719851	-66.064336
630.852573	-66.144595
630.985351	-66.229178
631.118185	-66.318523
631.251075	-66.413086
631.384021	-66.513426
631.517023	-66.619899
631.650081	-66.732492
631.783195	-66.851059
631.916365	-66.975261
632.049592	-67.104319
632.182874	-67.236903
632.316213	-67.371246
632.449608	-67.505679
632.583059	-67.638743
632.716567	-67.768671
632.850131	-67.893313
632.983751	-68.010497
633.117428	-68.118568
633.251161	-68.216873
633.384951	-68.305484
633.518797	-68.384555
633.652700	-68.454548
633.786660	-68.516360
633.920676	-68.571052
634.054749	-68.619495
634.188879	-68.662490
634.323065	-68.700784
634.457308	-68.734418
634.591608	-68.762829
634.725965	-68.785511
634.860379	-68.801661
634.994850	-68.809935
635.129377	-68.809005
635.263962	-68.798023
635.398604	-68.776541
635.533303	-68.744554
635.668058	-68.702498
635.802872	-68.651206
635.937742	-68.591964
636.072669	-68.526596
636.207654	-68.457143
636.342696	-68.385738
636.477796	-68.314369
636.612953	-68.244465
636.748167	-68.177435
636.883439	-68.114777
637.018768	-68.057380
637.154155	-68.005590
637.289599	-67.959613
637.425101	-67.919444
637.560660	-67.884825
637.696277	-67.855648
637.831952	-67.832224
637.967685	-67.815105
638.103475	-67.804580
638.239324	-67.801186
638.375230	-67.805691
638.511194	-67.818700
638.647215	-67.841056
638.783295	-67.874087
638.919433	-67.919300
639.055629	-67.977936
639.191883	-68.050796
639.328195	-68.138235
639.464565	-68.240489
639.600994	-68.358034
639.737481	-68.491124
639.874025	-68.639268
640.010629	-68.801399
640.147290	-68.976320
640.284010	-69.162716
640.420789	-69.359165
640.557625	-69.563970
640.694521	-69.775011
640.831474	-69.989657
640.968487	-70.205786
641.105558	-70.421780
641.242687	-70.635722
641.379876	-70.845003
641.517123	-71.046971
641.654429	-71.239092
641.791793	-71.418533
641.929216	-71.582097
642.066699	-71.725928
642.204240	-71.845733
642.341840	-71.937353
642.479499	-71.996665
642.617217	-72.019873
642.754994	-72.003724
642.892830	-71.946154
643.030726	-71.847408
643.168680	-71.710026
643.306694	-71.538014
643.444767	-71.336265
643.582899	-71.110488
643.721091	-70.867147
643.859342	-70.612707
643.997652	-70.353003
644.136022	-70.092953
644.274451	-69.836701
644.412940	-69.587606
644.551488	-69.348141
644.690096	-69.119680
644.828763	-68.903052
644.967490	-68.699036
645.106277	-68.507822
645.245124	-68.328861
645.384030	-68.161527
645.522997	-68.005284
645.662023	-67.859447
645.801109	-67.723477
645.940255	-67.597369
646.079460	-67.481326
646.218726	-67.375403
646.358052	-67.279645
646.497438	-67.194250
646.636884	-67.119917
646.776391	-67.057423
646.915957	-67.007564
647.055584	-66.971544
647.195271	-66.950633
647.335019	-66.945733
647.474826	-66.957413
647.614695	-66.986038
647.754623	-67.031954
647.894612	-67.095720
648.034662	-67.177762
648.174772	-67.277900
648.314943	-67.395364
648.455174	-67.529192
648.595466	-67.677712
648.735819	-67.838706
648.876233	-68.009934
649.016707	-68.188795
649.157242	-68.371870
649.297838	-68.555252
649.438495	-68.734714
649.579213	-68.906247
649.719992	-69.066110
649.860832	-69.210529
650.001733	-69.335732
650.142695	-69.438362
650.283718	-69.515617
650.424803	-69.565795
650.565949	-69.588496
650.707156	-69.583813
650.848424	-69.552250
650.989754	-69.495252
651.131145	-69.414811
651.272597	-69.312722
651.414111	-69.190933
651.555687	-69.051823
651.697324	-68.897753
651.839022	-68.731378
651.980782	-68.555939
652.122604	-68.374431
652.264488	-68.188536
652.406433	-67.999849
652.548441	-67.810839
652.690510	-67.624431
652.832640	-67.443201
652.974833	-67.269092
653.117088	-67.103635
653.259405	-66.948416
653.401784	-66.805173
653.544224	-66.675306
653.686727	-66.559939
653.829293	-66.460082
653.971920	-66.376185
654.114609	-66.308611
654.257361	-66.258136
654.400175	-66.225228
654.543052	-66.210000
654.685991	-66.212728
654.828992	-66.233751
654.972056	-66.273227
655.115183	-66.331214
655.258372	-66.407644
655.401623	-66.502500
655.544937	-66.615641
655.688314	-66.747438
655.831754	-66.898762
655.975256	-67.070457
656.118822	-67.262992
656.262450	-67.476529
656.406141	-67.711148
656.549894	-67.967234
656.693711	-68.245513
656.837591	-68.546737
656.981534	-68.871512
657.125540	-69.220207
657.269610	-69.591932
657.413742	-69.983997
657.557938	-70.392192
657.702196	-70.810929
657.846519	-71.232886
657.990904	-71.647291
658.135353	-72.038857
658.279866	-72.387804
658.424441	-72.672068
658.569081	-72.871099
658.713784	-72.968430
658.858550	-72.954522
659.003381	-72.829623
659.148274	-72.603391
659.293232	-72.293326
659.438253	-71.921919
659.583339	-71.511453
659.728488	-71.080905
659.873701	-70.645406
660.018978	-70.216181
660.164318	-69.801667
660.309723	-69.407861
660.455192	-69.038026
660.600725	-68.693116
660.746323	-68.373450
660.891984	-68.079611
661.037710	-67.811736
661.183500	-67.569041
661.329354	-67.349956
661.475272	-67.153066
661.621255	-66.977076
661.767303	-66.821265
661.913415	-66.685111
662.059591	-66.567576
662.205833	-66.467346
662.352138	-66.383668
662.498509	-66.316541
662.644944	-66.265924
662.791443	-66.231709
662.938008	-66.214121
663.084638	-66.213026
663.231332	-66.228611
663.378091	-66.261755
663.524915	-66.313581
663.671804	-66.384500
663.818759	-66.474647
663.965778	-66.584649
664.112863	-66.715659
664.260012	-66.869216
664.407227	-67.046368
664.554507	-67.247306
664.701853	-67.471950
664.849264	-67.721063
664.996740	-67.995689
665.144282	-68.295936
665.291889	-68.621141
665.439561	-68.970368
665.587300	-69.342055
665.735103	-69.734033
665.882973	-70.142877
666.030908	-70.563794
666.178909	-70.990298
666.326976	-71.413977
666.475109	-71.823791
666.623307	-72.206136
666.771571	-72.547560
666.919902	-72.835336
667.068298	-73.057680
667.216761	-73.205551
667.365289	-73.275054
667.513884	-73.267859
667.662545	-73.191252
667.811272	-73.056689
667.960065	-72.876198
668.108925	-72.662008
668.257851	-72.426018
668.406843	-72.177233
668.555902	-71.923301
668.705027	-71.670555
668.854219	-71.423876
669.003478	-71.186574
669.152803	-70.960963
669.302195	-70.748874
669.451653	-70.551232
669.601179	-70.368616
669.750771	-70.201000
669.900430	-70.048137
670.050156	-69.910515
670.199949	-69.788951
670.349808	-69.683558
670.499735	-69.594007
670.649729	-69.520340
670.799790	-69.462962
670.949918	-69.423134
671.100114	-69.401858
671.250377	-69.399205
671.400707	-69.414735
671.551104	-69.448923
671.701569	-69.503323
671.852101	-69.578966
672.002700	-69.675592
672.153368	-69.792777
672.304102	-69.931277
672.454905	-70.091976
672.605775	-70.274898
672.756713	-70.479224
672.907718	-70.703325
673.058791	-70.945791
673.209933	-71.205273
673.361142	-71.480835
673.512419	-71.770373
673.663764	-72.070414
673.815177	-72.376458
673.966658	-72.683684
674.118207	-72.987484
674.269825	-73.282257
674.421510	-73.561255
674.573264	-73.817230
674.725086	-74.043280
674.876977	-74.234001
675.028936	-74.385505
675.180963	-74.495764
675.333059	-74.564318
675.485224	-74.592727
675.637457	-74.585080
675.789758	-74.546355
675.942129	-74.482769
676.094568	-74.400846
676.247075	-74.307520
676.399652	-74.209861
676.552298	-74.113295
676.705012	-74.021417
676.857795	-73.938436
677.010648	-73.867483
677.163569	-73.811112
677.316560	-73.772024
677.469619	-73.753384
677.622748	-73.755489
677.775946	-73.777486
677.929214	-73.820671
678.082551	-73.887452
678.235957	-73.978243
678.389432	-74.090853
678.542977	-74.224199
678.696592	-74.378784
678.850276	-74.555210
679.004030	-74.753304
679.157853	-74.974556
679.311746	-75.221228
679.465709	-75.492254
679.619742	-75.784136
679.773844	-76.097466
679.928017	-76.435321
680.082259	-76.797526
680.236571	-77.180995
680.390954	-77.581413
680.545406	-77.989491
680.699929	-78.391383
680.854522	-78.767590
681.009185	-79.091656
681.163918	-79.330661
681.318722	-79.445105
681.473596	-79.400461
681.628540	-79.184572
681.783555	-78.805415
681.938641	-78.284795
682.093797	-77.655922
682.249023	-76.960620
682.404321	-76.237793
682.559689	-75.514405
682.715128	-74.806759
682.870637	-74.126173
683.026218	-73.480516
683.181869	-72.873733
683.337591	-72.308386
683.493385	-71.785046
683.649249	-71.303712
683.805185	-70.863176
683.961191	-70.462290
684.117269	-70.100436
684.273418	-69.776313
684.429639	-69.488599
684.585930	-69.235642
684.742294	-69.015693
684.898728	-68.827804
685.055234	-68.671049
685.211812	-68.544205
685.368461	-68.445801
685.525182	-68.374494
685.681975	-68.329198
685.838839	-68.308869
685.995775	-68.313410
686.152783	-68.342525
686.309863	-68.395858
686.467014	-68.472503
686.624238	-68.571536
686.781534	-68.692637
686.938902	-68.835539
687.096342	-69.000634
687.253854	-69.188482
687.411438	-69.399405
687.569095	-69.632117
687.726824	-69.885960
687.884626	-70.161775
688.042499	-70.460098
688.200446	-70.779672
688.358465	-71.119141
688.516556	-71.477724
688.674720	-71.854967
688.832957	-72.250050
688.991266	-72.661909
689.149649	-73.088202
689.308104	-73.524582
689.466632	-73.965635
689.625233	-74.407393
689.783906	-74.843566
689.942653	-75.264056
690.101473	-75.660599
690.260367	-76.024888
690.419333	-76.345648
690.578372	-76.612768
690.737485	-76.818576
690.896672	-76.958190
691.055931	-77.030290
691.215264	-77.034144
691.374671	-76.968961
691.534151	-76.838438
691.693704	-76.651752
691.853332	-76.415177
692.013033	-76.131982
692.172807	-75.807851
692.332656	-75.450802
692.492578	-75.068398
692.652575	-74.668355
692.812645	-74.255894
692.972789	-73.832868
693.133007	-73.403698
693.293300	-72.974154
693.453666	-72.548022
693.614107	-72.125831
693.774622	-71.709098
693.935211	-71.298688
694.095875	-70.895321
694.256613	-70.500305
694.417426	-70.115235
694.578313	-69.739670
694.739274	-69.372943
694.900311	-69.016103
695.061421	-68.669553
695.222607	-68.334266
695.383868	-68.011383
695.545203	-67.701623
695.706613	-67.404670
695.868098	-67.120620
696.029658	-66.851395
696.191293	-66.598476
696.353003	-66.361945
696.514789	-66.141452
696.676649	-65.938136
696.838585	-65.753595
697.000596	-65.587723
697.162682	-65.440038
697.324844	-65.311026
697.487081	-65.201800
697.649394	-65.112517
697.811782	-65.042939
697.974246	-64.993017
698.136786	-64.963257
698.299401	-64.953812
698.462092	-64.963931
698.624859	-64.992982
698.787702	-65.040841
698.950621	-65.107873
699.113616	-65.193965
699.276686	-65.299498
699.439833	-65.424513
699.603056	-65.568989
699.766355	-65.733354
699.929731	-65.918445
700.093183	-66.124562
700.256711	-66.351390
700.420315	-66.599291
700.583996	-66.867998
700.747754	-67.155539
700.911588	-67.459317
701.075499	-67.776839
701.239486	-68.103565
701.403550	-68.432626
701.567691	-68.757269
701.731909	-69.070334
701.896203	-69.362429
702.060575	-69.621802
702.225024	-69.840727
702.389549	-70.012543
702.554152	-70.131626
702.718832	-70.195438
702.883589	-70.205147
703.048424	-70.163657
703.213335	-70.076766
703.378324	-69.951148
703.543391	-69.793436
703.708535	-69.609127
703.873757	-69.404394
704.039056	-69.186419
704.204433	-68.959726
704.369887	-68.726325
704.535420	-68.488939
704.701030	-68.252044
704.866718	-68.019257
705.032484	-67.792257
705.198328	-67.572574
705.364250	-67.361678
705.530250	-67.162225
705.696328	-66.976290
705.862485	-66.805230
706.028720	-66.648914
706.195033	-66.508090
706.361424	-66.382513
706.527894	-66.272361
706.694442	-66.177729
706.861069	-66.097183
707.027775	-66.029404
707.194559	-65.974029
707.361422	-65.929649
707.528363	-65.894366
707.695384	-65.867996
707.862483	-65.849559
708.029661	-65.837395
708.196918	-65.830568
708.364254	-65.829115
708.531670	-65.832829
708.699164	-65.841707
708.866738	-65.856106
709.034391	-65.877220
709.202123	-65.905694
709.369935	-65.943038
709.537826	-65.990722
709.705796	-66.050600
709.873847	-66.123995
710.041976	-66.212862
710.210186	-66.318608
710.378475	-66.441947
710.546844	-66.583077
710.715292	-66.743696
710.883821	-66.925261
711.052429	-67.127775
711.221118	-67.350299
711.389887	-67.593464
711.558735	-67.858464
711.727664	-68.146634
711.896673	-68.458889
712.065763	-68.796825
712.234932	-69.162564
712.404183	-69.559763
712.573513	-69.991219
712.742924	-70.460836
712.912416	-70.973852
713.081988	-71.534988
713.251641	-72.145770
713.421375	-72.807105
713.591190	-73.518408
713.761085	-74.270980
713.931061	-75.041422
714.101119	-75.786061
714.271257	-76.440877
714.441476	-76.920227
714.611777	-77.135788
714.782159	-77.035172
714.952622	-76.636996
715.123166	-76.016538
715.293792	-75.265017
715.464499	-74.456228
715.635288	-73.640746
715.806158	-72.849711
715.977110	-72.098450
716.148143	-71.392302
716.319259	-70.732201
716.490456	-70.117416
716.661735	-69.546724
716.833096	-69.019069
717.004538	-68.532628
717.176063	-68.084369
717.347670	-67.672905
717.519359	-67.297830
717.691130	-66.957583
717.862984	-66.649584
718.034920	-66.373027
718.206938	-66.127001
718.379039	-65.909462
718.551222	-65.717438
718.723488	-65.549244
718.895836	-65.402820
719.068267	-65.275426
719.240781	-65.164863
719.413377	-65.069981
719.586057	-64.988822
719.758819	-64.919096
719.931664	-64.859066
720.104593	-64.807859
720.277604	-64.765237
720.450699	-64.729683
720.623876	-64.700682
720.797137	-64.678740
720.970482	-64.663214
721.143910	-64.653606
721.317421	-64.649637
721.491016	-64.652275
721.664694	-64.661815
721.838456	-64.676858
722.012302	-64.697282
722.186231	-64.723041
722.360244	-64.752924
722.534342	-64.786450
722.708523	-64.823097
722.882788	-64.861862
723.057137	-64.901637
723.231570	-64.942111
723.406088	-64.983275
723.580689	-65.023988
723.755375	-65.063933
723.930146	-65.103770
724.105000	-65.144277
724.279940	-65.185891
724.454963	-65.228564
724.630072	-65.272583
724.805265	-65.318677
724.980543	-65.367725
725.155905	-65.420379
725.331353	-65.477083
725.506885	-65.537708
725.682503	-65.601085
725.858205	-65.667658
726.033993	-65.738279
726.209865	-65.812030
726.385823	-65.887068
726.561866	-65.963167
726.737995	-66.040076
726.914209	-66.117073
727.090508	-66.194016
727.266893	-66.271446
727.443364	-66.348834
727.619920	-66.426065
727.796562	-66.504307
727.973290	-66.584379
728.150103	-66.666192
728.327003	-66.751274
728.503988	-66.841279
728.681060	-66.936973
728.858218	-67.038988
729.035461	-67.147042
729.212791	-67.261421
729.390208	-67.382660
729.567710	-67.508732
729.745299	-67.637061
729.922975	-67.765905
730.100737	-67.891994
730.278586	-68.009802
730.456521	-68.114041
730.634543	-68.198236
730.812652	-68.255552
730.990848	-68.278619
731.169130	-68.261426
731.347500	-68.199353
731.525957	-68.088738
731.704500	-67.927664
731.883131	-67.717663
732.061850	-67.463255
732.240655	-67.169656
732.419548	-66.842981
732.598528	-66.491552
732.777596	-66.123547
732.956751	-65.745133
733.135994	-65.363493
733.315325	-64.985409
733.494744	-64.614631
733.674250	-64.254044
733.853844	-63.906373
734.033526	-63.573861
734.213296	-63.258408
734.393154	-62.961057
734.573101	-62.682181
734.753135	-62.422416
734.933258	-62.182242
735.113469	-61.961840
735.293769	-61.761818
735.474157	-61.582546
735.654633	-61.424248
735.835198	-61.287624
736.015852	-61.172526
736.196594	-61.079125
736.377426	-61.007626
736.558346	-60.957467
736.739355	-60.927761
736.920453	-60.917625
737.101640	-60.925980
737.282916	-60.951902
737.464282	-60.993845
737.645736	-61.049385
737.827280	-61.116475
738.008914	-61.193286
738.190637	-61.276684
738.372449	-61.363480
738.554351	-61.450803
738.736342	-61.534896
738.918424	-61.611315
739.100595	-61.676408
739.282855	-61.725776
739.465206	-61.755427
739.647647	-61.761570
739.830178	-61.740627
740.012799	-61.690007
740.195510	-61.607878
740.378311	-61.493767
740.561203	-61.349044
740.744185	-61.175321
740.927258	-60.974873
741.110421	-60.751510
741.293674	-60.509834
741.477018	-60.253578
741.660453	-59.986683
741.843979	-59.713404
742.027596	-59.437192
742.211303	-59.161908
742.395102	-58.890805
742.578991	-58.625847
742.762972	-58.368989
742.947044	-58.121663
743.131207	-57.884837
743.315461	-57.659287
743.499807	-57.445366
743.684244	-57.243018
743.868773	-57.052424
744.053394	-56.873484
744.238106	-56.706264
744.422910	-56.550919
744.607805	-56.407399
744.792793	-56.275776
744.977872	-56.156300
745.163044	-56.049319
745.348307	-55.955169
745.533663	-55.874145
745.719111	-55.806538
745.904651	-55.752392
746.090283	-55.711912
746.276008	-55.684668
746.461826	-55.670319
746.647735	-55.668956
746.833738	-55.680163
747.019833	-55.703664
747.206021	-55.739604
747.392302	-55.788326
747.578676	-55.850617
747.765143	-55.927577
747.951703	-56.020263
748.138356	-56.130368
748.325102	-56.259513
748.511941	-56.409073
748.698874	-56.580721
748.885900	-56.775952
749.073019	-56.996054
749.260232	-57.242645
749.447539	-57.516978
749.634939	-57.820523
749.822433	-58.155585
750.010021	-58.525145
750.197703	-58.932362
750.385479	-59.381398
750.573348	-59.878471
750.761312	-60.431976
750.949370	-61.051258
751.137523	-61.747528
751.325769	-62.536556
751.514110	-63.437281
751.702545	-64.473788
751.891075	-65.678588
752.079700	-67.093154
752.268419	-68.767958
752.457233	-70.745783
752.646142	-72.961253
752.835145	-74.862463
753.024244	-75.074495
753.213437	-73.334989
753.402726	-71.024594
753.592110	-68.887998
753.781589	-67.048723
753.971163	-65.472929
754.160833	-64.109994
754.350598	-62.916524
754.540459	-61.860581
754.730415	-60.918549
754.920467	-60.073060
755.110615	-59.310317
755.300858	-58.619754
755.491198	-57.992995
755.681633	-57.422911
755.872164	-56.903283
756.062792	-56.429114
756.253515	-55.995810
756.444335	-55.599228
756.635252	-55.236397
756.826264	-54.904949
757.017373	-54.602518
757.208579	-54.327531
757.399881	-54.079110
757.591280	-53.856625
757.782776	-53.659461
757.974368	-53.487383
758.166058	-53.339973
758.357844	-53.216999
758.549728	-53.118142
758.741708	-53.042864
758.933786	-52.990669
759.125961	-52.961178
759.318233	-52.954164
759.510603	-52.969254
759.703071	-53.006208
759.895635	-53.065407
760.088298	-53.147407
760.281058	-53.253060
760.473916	-53.383488
760.666872	-53.539605
760.859926	-53.722951
761.053078	-53.934882
761.246328	-54.177048
761.439676	-54.451047
761.633122	-54.758889
761.826667	-55.103072
762.020310	-55.485954
762.214052	-55.910813
762.407892	-56.381727
762.601831	-56.903460
762.795868	-57.482381
762.990004	-58.126440
763.184239	-58.844986
763.378573	-59.650011
763.573006	-60.555933
763.767538	-61.581474
763.962169	-62.747944
764.156900	-64.077950
764.351729	-65.586810
764.546658	-67.249638
764.741687	-68.905513
764.936815	-70.087580
765.132042	-70.133612
765.327370	-69.001412
765.522797	-67.338168
765.718324	-65.638845
765.913950	-64.083062
766.109677	-62.702477
766.305504	-61.484684
766.501431	-60.407870
766.697458	-59.450646
766.893586	-58.595637
767.089814	-57.828781
767.286142	-57.138202
767.482571	-56.514445
767.679100	-55.949899
767.875730	-55.438394
768.072461	-54.974355
768.269293	-54.553109
768.466225	-54.170555
768.663259	-53.823336
768.860393	-53.508847
769.057629	-53.224643
769.254966	-52.968998
769.452404	-52.740717
769.649944	-52.538938
769.847585	-52.362643
770.045328	-52.211288
770.243172	-52.084442
770.441118	-51.981332
770.639166	-51.901312
770.837315	-51.843900
771.035567	-51.808804
771.233920	-51.795716
771.432376	-51.804480
771.630934	-51.835233
771.829594	-51.888368
772.028356	-51.964439
772.227220	-52.063936
772.426188	-52.187331
772.625257	-52.335173
772.824430	-52.507856
773.023705	-52.706034
773.223083	-52.930329
773.422563	-53.181550
773.622147	-53.460706
773.821834	-53.769677
774.021624	-54.110750
774.221517	-54.486377
774.421513	-54.899861
774.621613	-55.355103
774.821816	-55.856388
775.022122	-56.408956
775.222532	-57.018208
775.423046	-57.691002
775.623664	-58.434973
775.824385	-59.258585
776.025211	-60.171582
776.226140	-61.183805
776.427173	-62.300036
776.628311	-63.513174
776.829553	-64.781353
777.030899	-65.987109
777.232350	-66.891589
777.433905	-67.186234
777.635564	-66.736711
777.837328	-65.735687
778.039197	-64.490968
778.241171	-63.214806
778.443250	-62.003958
778.645433	-60.891391
778.847722	-59.881009
779.050116	-58.966026
779.252615	-58.137308
779.455219	-57.385754
779.657929	-56.703267
779.860744	-56.082957
780.063665	-55.518212
780.266691	-55.003379
780.469823	-54.533388
780.673061	-54.103925
780.876405	-53.710871
781.079855	-53.350462
781.283410	-53.019922
781.487072	-52.716859
781.690840	-52.439640
781.894715	-52.187041
782.098695	-51.958130
782.302783	-51.751899
782.506976	-51.567628
782.711277	-51.404271
782.915684	-51.260670
783.120198	-51.135330
783.324818	-51.026805
783.529546	-50.934151
783.734381	-50.856411
783.939322	-50.793033
784.144372	-50.743569
784.349528	-50.707529
784.554792	-50.684579
784.760163	-50.674254
784.965642	-50.675957
785.171228	-50.688868
785.376922	-50.712060
785.582724	-50.744286
785.788634	-50.784581
785.994651	-50.831916
786.200777	-50.885562
786.407011	-50.944905
786.613353	-51.008914
786.819804	-51.076709
787.026363	-51.147454
787.233030	-51.219803
787.439806	-51.291951
787.646691	-51.361686
787.853684	-51.426671
788.060786	-51.484547
788.267997	-51.533124
788.475317	-51.570380
788.682746	-51.594621
788.890285	-51.604174
789.097932	-51.598106
789.305689	-51.575447
789.513555	-51.535548
789.721531	-51.477988
789.929617	-51.402448
790.137812	-51.309128
790.346117	-51.198374
790.554531	-51.071277
790.763056	-50.929570
790.971691	-50.775418
791.180436	-50.611064
791.389291	-50.439105
791.598256	-50.262168
791.807332	-50.082618
792.016518	-49.902301
792.225815	-49.722509
792.435222	-49.544151
792.644740	-49.367935
792.854369	-49.194392
793.064109	-49.024164
793.273960	-48.857777
793.483922	-48.696108
793.693995	-48.540085
793.904180	-48.390338
794.114475	-48.247753
794.324882	-48.112521
794.535401	-47.984871
794.746031	-47.864600
794.956774	-47.751501
795.167627	-47.645209
795.378593	-47.545237
795.589671	-47.451122
795.800861	-47.362708
796.012162	-47.279817
796.223577	-47.202270
796.435103	-47.129971
796.646742	-47.062704
796.858493	-47.000181
797.070357	-46.942162
797.282334	-46.888300
797.494423	-46.838062
797.706626	-46.790949
797.918941	-46.746461
798.131369	-46.704129
798.343911	-46.663633
798.556566	-46.624704
798.769334	-46.586904
798.982215	-46.549722
799.195210	-46.512731
799.408319	-46.475435
799.621541	-46.437402
799.834877	-46.398140
800.048327	-46.357196
800.261890	-46.314027
800.475568	-46.268425
800.689360	-46.220135
800.903266	-46.169138
801.117287	-46.115268
801.331422	-46.058458
801.545671	-45.998837
801.760036	-45.936593
801.974514	-45.871860
802.189108	-45.804965
802.403816	-45.736039
802.618640	-45.665392
802.833578	-45.593403
803.048632	-45.520510
803.263800	-45.447139
803.479085	-45.373493
803.694484	-45.299823
803.909999	-45.226401
804.125630	-45.153478
804.341376	-45.081311
804.557239	-45.009985
804.773217	-44.939645
804.989311	-44.870458
805.205521	-44.802542
805.421847	-44.735950
805.638290	-44.670714
805.854849	-44.606777
806.071524	-44.544264
806.288316	-44.483433
806.505225	-44.424219
806.722250	-44.366518
806.939393	-44.310190
807.156652	-44.255009
807.374028	-44.200724
807.591521	-44.147292
807.809132	-44.094555
808.026859	-44.042405
808.244705	-43.990825
808.462667	-43.939753
808.680748	-43.889116
808.898946	-43.838751
809.117261	-43.788625
809.335695	-43.738648
809.554246	-43.688845
809.772916	-43.639387
809.991704	-43.590422
810.210610	-43.542048
810.429634	-43.494372
810.648777	-43.447481
810.868039	-43.401207
811.087419	-43.355356
811.306918	-43.309722
811.526535	-43.264034
811.746272	-43.218231
811.966127	-43.172504
812.186102	-43.127151
812.406196	-43.082466
812.626409	-43.038676
812.846742	-42.995699
813.067194	-42.953466
813.287766	-42.911892
813.508457	-42.871069
813.729269	-42.831229
813.950200	-42.792766
814.171251	-42.756265
814.392422	-42.722228
814.613714	-42.691086
814.835126	-42.663088
815.056658	-42.638310
815.278311	-42.616685
815.500084	-42.598254
815.721978	-42.583134
815.943993	-42.571450
816.166128	-42.563488
816.388385	-42.559627
816.610762	-42.560228
816.833261	-42.565463
817.055881	-42.575521
817.278623	-42.590322
817.501486	-42.609779
817.724471	-42.633731
817.947577	-42.662024
818.170805	-42.694602
818.394155	-42.731412
818.617627	-42.772442
818.841221	-42.817469
819.064937	-42.866229
819.288775	-42.918237
819.512736	-42.972867
819.736819	-43.029528
819.961025	-43.087404
820.185354	-43.145876
820.409805	-43.204337
820.634379	-43.262286
820.859076	-43.319113
821.083897	-43.374442
821.308840	-43.427796
821.533907	-43.478644
821.759097	-43.526405
821.984411	-43.570594
822.209848	-43.610702
822.435409	-43.646246
822.661093	-43.676748
822.886902	-43.701572
823.112834	-43.720353
823.338891	-43.732520
823.565072	-43.737933
823.791377	-43.736574
824.017807	-43.728601
824.244361	-43.714182
824.471039	-43.693260
824.697843	-43.665798
824.924771	-43.631676
825.151824	-43.591117
825.379002	-43.544248
825.606306	-43.491639
825.833734	-43.433996
826.061288	-43.371957
826.288967	-43.306209
826.516772	-43.237293
826.744703	-43.165500
826.972759	-43.090921
827.200941	-43.013649
827.429249	-42.933887
827.657683	-42.852119
827.886243	-42.768959
828.114930	-42.685152
828.343743	-42.601275
828.572682	-42.517904
828.801748	-42.435498
829.030941	-42.354540
829.260260	-42.275376
829.489706	-42.198240
829.719280	-42.123503
829.948980	-42.051441
830.178808	-41.982501
830.408763	-41.917104
830.638845	-41.855671
830.869055	-41.798415
831.099393	-41.745505
831.329858	-41.696943
831.560451	-41.652833
831.791173	-41.613255
832.022022	-41.578183
832.252999	-41.547511
832.484105	-41.521125
832.715339	-41.498849
832.946702	-41.480744
833.178193	-41.466777
833.409813	-41.456967
833.641561	-41.451231
833.873439	-41.449394
834.105445	-41.451095
834.337581	-41.455847
834.569846	-41.463137
834.802241	-41.472611
835.034764	-41.484104
835.267418	-41.497589
835.500201	-41.513076
835.733114	-41.530533
835.966157	-41.549899
836.199329	-41.570960
836.432632	-41.593514
836.666065	-41.617211
836.899629	-41.641844
837.133323	-41.667284
837.367147	-41.693701
837.601102	-41.721271
837.835188	-41.750163
838.069405	-41.780385
838.303752	-41.811740
838.538231	-41.843989
838.772841	-41.877086
839.007582	-41.911093
839.242455	-41.945916
839.477459	-41.981294
839.712595	-42.016830
839.947863	-42.052135
840.183263	-42.086854
840.418794	-42.120571
840.654458	-42.152965
840.890254	-42.183412
841.126182	-42.211309
841.362242	-42.235838
841.598435	-42.256225
841.834761	-42.271688
842.071220	-42.281618
842.307811	-42.285476
842.544536	-42.282820
842.781393	-42.273265
843.018384	-42.256441
843.255508	-42.232099
843.492765	-42.200232
843.730156	-42.161211
843.967681	-42.115386
844.205339	-42.063317
844.443132	-42.005744
844.681058	-41.943749
844.919118	-41.878437
845.157313	-41.810971
845.395642	-41.742550
845.634105	-41.674360
845.872703	-41.607775
846.111436	-41.544055
846.350303	-41.484327
846.589306	-41.429795
846.828443	-41.381447
847.067716	-41.340518
847.307124	-41.308240
847.546667	-41.285648
847.786345	-41.273701
848.026160	-41.273065
848.266110	-41.284234
848.506195	-41.307521
848.746417	-41.343157
848.986775	-41.391170
849.227269	-41.451548
849.467899	-41.524016
849.708666	-41.607913
849.949569	-41.702043
850.190609	-41.804842
850.431785	-41.914257
850.673099	-42.027846
850.914549	-42.142949
851.156137	-42.256814
851.397861	-42.366597
851.639723	-42.469201
851.881723	-42.561076
852.123860	-42.638211
852.366135	-42.697139
852.608547	-42.735325
852.851098	-42.751455
853.093786	-42.745515
853.336613	-42.717803
853.579578	-42.668952
853.822681	-42.599899
854.065923	-42.512477
854.309304	-42.409697
854.552823	-42.295312
854.796481	-42.173409
855.040278	-42.047679
855.284215	-41.921266
855.528290	-41.796941
855.772505	-41.677214
856.016859	-41.564719
856.261353	-41.461987
856.505987	-41.371455
856.750760	-41.294988
856.995673	-41.233632
857.240727	-41.187860
857.485920	-41.157874
857.731254	-41.143969
857.976729	-41.146519
858.222343	-41.165529
858.468099	-41.200403
858.713995	-41.249965
858.960032	-41.312734
859.206211	-41.387116
859.452530	-41.471301
859.698991	-41.562812
859.945593	-41.658341
860.192336	-41.754078
860.439222	-41.845876
860.686248	-41.929265
860.933417	-41.999373
861.180728	-42.051232
861.428181	-42.080301
861.675776	-42.083037
861.923514	-42.057163
862.171394	-42.001517
862.419417	-41.916087
862.667582	-41.802021
862.915890	-41.661784
863.164342	-41.499166
863.412936	-41.319169
863.661674	-41.127131
863.910555	-40.928058
864.159579	-40.726552
864.408747	-40.527091
864.658059	-40.333960
864.907515	-40.150980
865.157114	-39.981081
865.406858	-39.826560
865.656746	-39.689153
865.906778	-39.569974
866.156955	-39.469566
866.407277	-39.388083
866.657743	-39.325374
866.908354	-39.280916
867.159110	-39.253767
867.410011	-39.242405
867.661057	-39.244873
867.912249	-39.258937
868.163586	-39.281881
868.415069	-39.310545
868.666697	-39.341207
868.918472	-39.369800
869.170392	-39.392243
869.422458	-39.404988
869.674671	-39.404813
869.927030	-39.388895
870.179536	-39.354720
870.432188	-39.300747
870.684987	-39.226571
870.937933	-39.133103
871.191026	-39.022310
871.444266	-38.896738
871.697653	-38.759248
871.951188	-38.612993
872.204870	-38.461518
872.458700	-38.308424
872.712677	-38.156923
872.966803	-38.009609
873.221076	-37.868775
873.475498	-37.736328
873.730068	-37.613760
873.984787	-37.501920
874.239654	-37.401028
874.494669	-37.310958
874.749834	-37.231473
875.005147	-37.162248
875.260610	-37.102459
875.516222	-37.050471
875.771983	-37.004141
876.027894	-36.961174
876.283954	-36.919548
876.540164	-36.877429
876.796524	-36.832918
877.053033	-36.783699
877.309693	-36.727523
877.566503	-36.662949
877.823464	-36.589366
878.080575	-36.506782
878.337837	-36.415300
878.595249	-36.314995
878.852813	-36.206187
879.110528	-36.089708
879.368393	-35.966966
879.626410	-35.839755
879.884579	-35.709863
880.142899	-35.578750
880.401371	-35.447532
880.659994	-35.317337
880.918770	-35.189329
881.177698	-35.064628
881.436778	-34.944023
881.696010	-34.827868
881.955395	-34.716296
882.214933	-34.609406
882.474623	-34.507329
882.734467	-34.410178
882.994463	-34.317883
883.254613	-34.230115
883.514916	-34.146394
883.775372	-34.066254
884.035982	-33.989330
884.296746	-33.915281
884.557664	-33.843579
884.818735	-33.773460
885.079961	-33.704164
885.341341	-33.635071
885.602876	-33.565639
885.864565	-33.495180
886.126409	-33.422764
886.388407	-33.347265
886.650561	-33.267833
886.912870	-33.184080
887.175334	-33.095826
887.437953	-33.002895
887.700728	-32.905224
887.963658	-32.803101
888.226745	-32.697238
888.489987	-32.588704
888.753385	-32.478784
889.016940	-32.368829
889.280651	-32.260155
889.544518	-32.154147
889.808543	-32.052312
890.072723	-31.956167
890.337061	-31.866904
890.601556	-31.785206
890.866208	-31.711480
891.131017	-31.645908
891.395984	-31.588363
891.661109	-31.538200
891.926391	-31.494277
892.191831	-31.455060
892.457429	-31.418777
892.723186	-31.383385
892.989100	-31.346642
893.255173	-31.306194
893.521405	-31.259952
893.787796	-31.206267
894.054345	-31.143992
894.321053	-31.072503
894.587921	-30.991726
894.854948	-30.902392
895.122134	-30.806073
895.389480	-30.704939
895.656986	-30.601337
895.924651	-30.497777
896.192477	-30.396889
896.460463	-30.301267
896.728609	-30.213087
896.996915	-30.133949
897.265382	-30.064826
897.534010	-30.006089
897.802799	-29.957521
898.071749	-29.918217
898.340860	-29.886664
898.610132	-29.860563
898.879566	-29.837045
899.149162	-29.813003
899.418919	-29.785359
899.688838	-29.751239
899.958919	-29.708099
900.229162	-29.654035
900.499568	-29.588089
900.770136	-29.510474
901.040867	-29.422432
901.311761	-29.326041
901.582817	-29.224099
901.854037	-29.119987
902.125420	-29.017364
902.396966	-28.919700
902.668676	-28.829938
902.940550	-28.750343
903.212587	-28.682570
903.484788	-28.627488
903.757153	-28.585093
904.029683	-28.554359
904.302377	-28.533340
904.575236	-28.519326
904.848259	-28.509039
905.121447	-28.498874
905.394800	-28.485062
905.668319	-28.464051
905.942002	-28.432982
906.215852	-28.390113
906.489866	-28.334876
906.764047	-28.267804
907.038393	-28.190566
907.312906	-28.105812
907.587584	-28.017038
907.862429	-27.928204
908.137441	-27.843184
908.412619	-27.765407
908.687964	-27.697531
908.963476	-27.641311
909.239155	-27.597603
909.515002	-27.566306
909.791015	-27.546216
910.067197	-27.534998
910.343546	-27.529521
910.620063	-27.526247
910.896748	-27.521385
911.173601	-27.510949
911.450623	-27.491372
911.727813	-27.460227
912.005171	-27.416437
912.282699	-27.360230
912.560395	-27.293070
912.838261	-27.217494
913.116296	-27.136904
913.394500	-27.055210
913.672874	-26.976399
913.951418	-26.904035
914.230131	-26.840821
914.509015	-26.788547
914.788068	-26.748083
915.067292	-26.719300
915.346687	-26.700899
915.626252	-26.690340
915.905988	-26.684320
916.185895	-26.679286
916.465973	-26.671705
916.746223	-26.658224
917.026644	-26.636072
917.307236	-26.603512
917.588000	-26.560180
917.868937	-26.507138
918.150045	-26.446626
918.431325	-26.381607
918.712778	-26.315354
918.994404	-26.251171
919.276202	-26.192173
919.558173	-26.140912
919.840317	-26.099020
920.122634	-26.066991
920.405125	-26.044270
920.687789	-26.029420
920.970627	-26.020173
921.253639	-26.013571
921.536824	-26.006314
921.820184	-25.995272
922.103718	-25.977958
922.387427	-25.952892
922.671310	-25.919658
922.955368	-25.878826
923.239601	-25.831930
923.524009	-25.781357
923.808592	-25.729920
924.093351	-25.680452
924.378285	-25.635479
924.663396	-25.596847
924.948682	-25.565548
925.234144	-25.541759
925.519782	-25.524783
925.805597	-25.512947
926.091589	-25.503921
926.377757	-25.495200
926.664102	-25.484395
926.950624	-25.469437
927.237323	-25.448905
927.524200	-25.422215
927.811255	-25.389664
928.098487	-25.352383
928.385897	-25.312223
928.673485	-25.271387
928.961251	-25.231957
929.249196	-25.195630
929.537319	-25.163647
929.825621	-25.136591
930.114102	-25.114274
930.402762	-25.095877
930.691601	-25.080131
930.980620	-25.065469
931.269818	-25.050362
931.559196	-25.033685
931.848753	-25.014902
932.138491	-24.994013
932.428409	-24.971599
932.718508	-24.948769
933.008787	-24.926851
933.299246	-24.907065
933.589887	-24.890407
933.880709	-24.877409
934.171712	-24.867882
934.462896	-24.860932
934.754262	-24.855225
935.045810	-24.849033
935.337539	-24.840531
935.629451	-24.828266
935.921545	-24.811301
936.213822	-24.789308
936.506281	-24.762835
936.798922	-24.733371
937.091747	-24.702963
937.384755	-24.673859
937.677946	-24.648131
937.971321	-24.627214
938.264879	-24.611589
938.558621	-24.600767
938.852547	-24.593341
939.146657	-24.587081
939.440952	-24.579283
939.735431	-24.567307
940.030095	-24.548991
940.324943	-24.523009
940.619977	-24.489333
940.915196	-24.449520
941.210600	-24.406307
941.506189	-24.363158
941.801965	-24.323747
942.097926	-24.291337
942.394074	-24.268210
942.690407	-24.255391
942.986927	-24.252365
943.283634	-24.256975
943.580527	-24.265699
943.877608	-24.274224
944.174875	-24.278036
944.472330	-24.273246
944.769972	-24.257451
945.067802	-24.230236
945.365820	-24.193303
945.664026	-24.150229
945.962420	-24.105834
946.261002	-24.065249
946.559773	-24.033117
946.858733	-24.012742
947.157881	-24.005509
947.457219	-24.010668
947.756746	-24.025444
948.056462	-24.045193
948.356368	-24.064067
948.656464	-24.076000
948.956749	-24.075969
949.257225	-24.061139
949.557891	-24.031508
949.858748	-23.989805
950.159796	-23.941088
950.461034	-23.891855
950.762463	-23.848736
951.064084	-23.817213
951.365896	-23.800843
951.667900	-23.800711
951.970095	-23.815111
952.272483	-23.839643
952.575063	-23.868013
952.877835	-23.893126
953.180799	-23.908270
953.483956	-23.908638
953.787307	-23.892560
954.090850	-23.861719
954.394586	-23.820781
954.698516	-23.776543
955.002640	-23.736604
955.306957	-23.707802
955.611469	-23.694768
955.916174	-23.699260
956.221074	-23.720091
956.526169	-23.753039
956.831458	-23.791279
957.136942	-23.826718
957.442622	-23.851761
957.748496	-23.860842
958.054567	-23.851606
958.360833	-23.825599
958.667294	-23.788030
958.973952	-23.746449
959.280806	-23.708939
959.587857	-23.682560
959.895104	-23.672023
960.202548	-23.678902
960.510189	-23.701292
960.818027	-23.733902
961.126062	-23.769052
961.434295	-23.798450
961.742726	-23.814831
962.051355	-23.813485
962.360182	-23.793491
962.669207	-23.758139
962.978431	-23.714110
963.287854	-23.669705
963.597475	-23.632982
963.907296	-23.610227
964.217315	-23.604842
964.527535	-23.616659
964.837954	-23.641895
965.148573	-23.674051
965.459392	-23.705154
965.770411	-23.727286
966.081630	-23.734549
966.393051	-23.724614
966.704672	-23.699168
967.016494	-23.663322
967.328517	-23.624522
967.640742	-23.590740
967.953169	-23.568543
968.265797	-23.561888
968.578627	-23.571389
968.891660	-23.594172
969.204895	-23.624493
969.518332	-23.655010
969.831972	-23.678380
970.145816	-23.688931
970.459862	-23.683904
970.774112	-23.664291
971.088565	-23.634663
971.403223	-23.601656
971.718084	-23.572231
972.033149	-23.552223
972.348419	-23.545148
972.663893	-23.551600
972.979572	-23.569183
973.295456	-23.592942
973.611546	-23.616508
973.927840	-23.633817
974.244340	-23.640485
974.561046	-23.634654
974.877958	-23.617556
975.195076	-23.593171
975.512401	-23.566907
975.829932	-23.544123
976.147670	-23.529129
976.465615	-23.524461
976.783767	-23.530171
977.102126	-23.543921
977.420693	-23.561860
977.739468	-23.579479
978.058451	-23.592456
978.377642	-23.597828
978.697041	-23.594684
979.016649	-23.584132
979.336466	-23.568862
979.656492	-23.552456
979.976727	-23.538454
980.297171	-23.529562
980.617825	-23.527279
980.938689	-23.531632
981.259763	-23.541203
981.581048	-23.553501
981.902542	-23.565675
982.224248	-23.574988
982.546164	-23.579188
982.868291	-23.577006
983.190630	-23.568417
983.513180	-23.554589
983.835942	-23.537624
984.158916	-23.520181
984.482101	-23.505106
984.805500	-23.494778
985.129110	-23.490536
985.452934	-23.492532
985.776970	-23.499562
986.101220	-23.509086
986.425683	-23.517688
986.750359	-23.521836
987.075250	-23.518834
987.400354	-23.507351
987.725673	-23.487961
988.051206	-23.463636
988.376954	-23.438981
988.702916	-23.418839
989.029094	-23.407151
989.355487	-23.405960
989.682095	-23.414686
990.008919	-23.430096
990.335959	-23.446877
990.663216	-23.458948
990.990688	-23.461298
991.318377	-23.451494
991.646283	-23.430686
991.974406	-23.403699
992.302746	-23.377658
992.631304	-23.359751
992.960079	-23.355268
993.289072	-23.366277
993.618283	-23.390598
993.947713	-23.421937
994.277361	-23.451901
994.607227	-23.472318
994.937313	-23.477669
995.267618	-23.467289
995.598142	-23.445901
995.928886	-23.422125
996.259849	-23.405868
996.591033	-23.405331
996.922437	-23.424305
997.254061	-23.461127
997.585906	-23.508907
997.917972	-23.557014
998.250260	-23.594435
998.582768	-23.613486
998.915498	-23.612300
999.248450	-23.595829
999.581624	-23.574514
999.915020	-23.560463
1000.248639	-23.563441
1000.582480	-23.588044
1000.916545	-23.632016
1001.250832	-23.686766
1001.585343	-23.739798
1001.920077	-23.778489
1002.255035	-23.794694
1002.590218	-23.788043
1002.925624	-23.766023
1003.261255	-23.741102
1003.597111	-23.726511
1003.933192	-23.731752
1004.269497	-23.759436
1004.606029	-23.804369
1004.942785	-23.855058
1005.279768	-23.897197
1005.616977	-23.918613
1005.954412	-23.914173
1006.292074	-23.887841
1006.629962	-23.850903
1006.968077	-23.817747
1007.306420	-23.800908
1007.644990	-23.806586
1007.983787	-23.832658
1008.322813	-23.869549
1008.662067	-23.903291
1009.001549	-23.920328
1009.341259	-23.912898
1009.681199	-23.882250
1010.021367	-23.837918
1010.361765	-23.793890
1010.702392	-23.763513
1011.043250	-23.754637
1011.384337	-23.766912
1011.725654	-23.792125
1012.067202	-23.817195
1012.408980	-23.828838
1012.750989	-23.818742
1013.093230	-23.786955
1013.435702	-23.742016
1013.778405	-23.697307
1014.121341	-23.665671
1014.464508	-23.654763
1014.807908	-23.664383
1015.151540	-23.686766
1015.495405	-23.709416
1015.839503	-23.719650
1016.183835	-23.709979
1016.528400	-23.681157
1016.873198	-23.641548
1017.218231	-23.603815
1017.563498	-23.579785
1017.908999	-23.575693
1018.254735	-23.590185
1018.600707	-23.615027
1018.946913	-23.637875
1019.293354	-23.647304
1019.640032	-23.637603
1019.986945	-23.610837
1020.334094	-23.575947
1020.681480	-23.545199
1021.029102	-23.528947
1021.376961	-23.531393
1021.725058	-23.549249
1022.073391	-23.573131
1022.421962	-23.591228
1022.770772	-23.594057
1023.119819	-23.578400
1023.469104	-23.548516
1023.818628	-23.514074
1024.168391	-23.486037
1024.518393	-23.472201
1024.868634	-23.474071
1025.219115	-23.486594
1025.569836	-23.500077
1025.920796	-23.504136
1026.271997	-23.492198
1026.623438	-23.463948
1026.975121	-23.425406
1027.327044	-23.386121
1027.679208	-23.354890
1028.031614	-23.336501
1028.384262	-23.330057
1028.737152	-23.329215
1029.090284	-23.325349
1029.443659	-23.310976
1029.797276	-23.282575
1030.151137	-23.242050
1030.505240	-23.195623
1030.859587	-23.151208
1031.214178	-23.115109
1031.569013	-23.089668
1031.924093	-23.072853
1032.279417	-23.059080
1032.634985	-23.041597
1032.990799	-23.015254
1033.346858	-22.978333
1033.703162	-22.933149
1034.059712	-22.885055
1034.416509	-22.840043
1034.773551	-22.802681
1035.130841	-22.774624
1035.488377	-22.753997
1035.846160	-22.736050
1036.204190	-22.715110
1036.562468	-22.686892
1036.920994	-22.650065
1037.279768	-22.606826
1037.638790	-22.562216
1037.998061	-22.522071
1038.357581	-22.490817
1038.717350	-22.469600
1039.077368	-22.455632
1039.437636	-22.443448
1039.798154	-22.426841
1040.158922	-22.401466
1040.519940	-22.367261
1040.881209	-22.328565
1041.242729	-22.292069
1041.604501	-22.263970
1041.966524	-22.247050
1042.328798	-22.239467
1042.691325	-22.235153
1043.054103	-22.226415
1043.417135	-22.207587
1043.780419	-22.177790
1044.143956	-22.141767
1044.507746	-22.107520
1044.871791	-22.082397
1045.236088	-22.069651
1045.600641	-22.066474
1045.965447	-22.064820
1046.330508	-22.055470
1046.695824	-22.032671
1047.061395	-21.997361
1047.427222	-21.956802
1047.793304	-21.921018
1048.159642	-21.897592
1048.526237	-21.887443
1048.893088	-21.884026
1049.260196	-21.876144
1049.627561	-21.854018
1049.995183	-21.814700
1050.363063	-21.764090
1050.731201	-21.714156
1051.099597	-21.676167
1051.468251	-21.654652
1051.837164	-21.644879
1052.206336	-21.634780
1052.575767	-21.611598
1052.945458	-21.568775
1053.315409	-21.510211
1053.685619	-21.448443
1054.056090	-21.397559
1054.426821	-21.365738
1054.797814	-21.350614
1055.169067	-21.340418
1055.540582	-21.320057
1055.912359	-21.279745
1056.284398	-21.220731
1056.656698	-21.154721
1057.029262	-21.097511
1057.402088	-21.060148
1057.775177	-21.042982
1058.148530	-21.035522
1058.522146	-21.021937
1058.896027	-20.990103
1059.270171	-20.938783
1059.644580	-20.878419
1060.019254	-20.824848
1060.394193	-20.790635
1060.769397	-20.778079
1061.144867	-20.777956
1061.520602	-20.774725
1061.896604	-20.755059
1062.272872	-20.715901
1062.649407	-20.666457
1063.026210	-20.622466
1063.403279	-20.597099
1063.780616	-20.593348
1064.158221	-20.602354
1064.536094	-20.608322
1064.914235	-20.597529
1065.292645	-20.566386
1065.671325	-20.523818
1066.050273	-20.485740
1066.429491	-20.465522
1066.808979	-20.466220
1067.188738	-20.478542
1067.568766	-20.486086
1067.949066	-20.474960
1068.329636	-20.442333
1068.710478	-20.398438
1069.091592	-20.360063
1069.472977	-20.340303
1069.854635	-20.340667
1070.236565	-20.350128
1070.618768	-20.351312
1071.001243	-20.331131
1071.383993	-20.289370
1071.767016	-20.238691
1072.150313	-20.196239
1072.533884	-20.172809
1072.917730	-20.166497
1073.301850	-20.163725
1073.686246	-20.147534
1074.070917	-20.108507
1074.455864	-20.050946
1074.841087	-19.989732
1075.226586	-19.940430
1075.612362	-19.909816
1075.998415	-19.891778
1076.384745	-19.871619
1076.771353	-19.835347
1077.158238	-19.779187
1077.545401	-19.711833
1077.932843	-19.648479
1078.320564	-19.601090
1078.708564	-19.570953
1079.096842	-19.548548
1079.485401	-19.519676
1079.874240	-19.474986
1080.263358	-19.416030
1080.652757	-19.353821
1081.042438	-19.301672
1081.432399	-19.266552
1081.822641	-19.244909
1082.213166	-19.224962
1082.603972	-19.194327
1082.995061	-19.148358
1083.386433	-19.093253
1083.778087	-19.041790
1084.170025	-19.004720
1084.562246	-18.983699
1084.954751	-18.969961
1085.347541	-18.950062
1085.740615	-18.915399
1086.133973	-18.868610
1086.527617	-18.821745
1086.921546	-18.787682
1087.315761	-18.770799
1087.710262	-18.763846
1088.105050	-18.753298
1088.500124	-18.729342
1088.895485	-18.693262
1089.291134	-18.656238
1089.687070	-18.630374
1090.083294	-18.619512
1090.479806	-18.616753
1090.876607	-18.610115
1091.273696	-18.591948
1091.671075	-18.563746
1092.068744	-18.533931
1092.466702	-18.510482
1092.864950	-18.495409
1093.263489	-18.484226
1093.662319	-18.470220
1094.061440	-18.448929
1094.460852	-18.420372
1094.860555	-18.387862
1095.260551	-18.355301
1095.660840	-18.325378
1096.061421	-18.298857
1096.462295	-18.274380
1096.863462	-18.248385
1097.264923	-18.217213
1097.666678	-18.179704
1098.068727	-18.138938
1098.471071	-18.100622
1098.873710	-18.069310
1099.276644	-18.044659
1099.679874	-18.021526
1100.083400	-17.993909
1100.487222	-17.959943
1100.891340	-17.923253
1101.295756	-17.890078
1101.700468	-17.864312
1102.105478	-17.844924
1102.510787	-17.827258
1102.916393	-17.806501
1103.322298	-17.780503
1103.728502	-17.750735
1104.135005	-17.721190
1104.541807	-17.696089
1104.948909	-17.677127
1105.356312	-17.662080
1105.764015	-17.645264
1106.172019	-17.621052
1106.580324	-17.588732
1106.988931	-17.554193
1107.397840	-17.526027
1107.807051	-17.508233
1108.216564	-17.496247
1108.626380	-17.479796
1109.036500	-17.452039
1109.446923	-17.416314
1109.857649	-17.383918
1110.268680	-17.364127
1110.680016	-17.356180
1111.091657	-17.349722
1111.503602	-17.334363
1111.915854	-17.309114
1112.328411	-17.283217
1112.741275	-17.267172
1113.154445	-17.263582
1113.567922	-17.265242
1113.981706	-17.262124
1114.395798	-17.250071
1114.810198	-17.233638
1115.224906	-17.221036
1115.639923	-17.216685
1116.055249	-17.217763
1116.470884	-17.216835
1116.886829	-17.208479
1117.303084	-17.193341
1117.719650	-17.176796
1118.136526	-17.163705
1118.553713	-17.153968
1118.971212	-17.142596
1119.389022	-17.124557
1119.807145	-17.099750
1120.225580	-17.073176
1120.644328	-17.049704
1121.063389	-17.028778
1121.482763	-17.004833
1121.902452	-16.973753
1122.322454	-16.938535
1122.742771	-16.907031
1123.163404	-16.883197
1123.584351	-16.862007
1124.005614	-16.834407
1124.427193	-16.798385
1124.849089	-16.763083
1125.271301	-16.740060
1125.693830	-16.730222
1126.116677	-16.721627
1126.539842	-16.701812
1126.963324	-16.672505
1127.387126	-16.649184
1127.811246	-16.644849
1128.235685	-16.655300
1128.660444	-16.662711
1129.085522	-16.654437
1129.510922	-16.637257
1129.936641	-16.630095
1130.362682	-16.643272
1130.789044	-16.667206
1131.215728	-16.682814
1131.642734	-16.681841
1132.070063	-16.674792
1132.497714	-16.677974
1132.925689	-16.695537
1133.353987	-16.716143
1133.782610	-16.726092
1134.211556	-16.723390
1134.640827	-16.717399
1135.070424	-16.716983
1135.500345	-16.721701
1135.930593	-16.724689
1136.361166	-16.721085
1136.792067	-16.711449
1137.223294	-16.698412
1137.654848	-16.683256
1138.086730	-16.666891
1138.518940	-16.651085
1138.951479	-16.636518
1139.384346	-16.619621
1139.817543	-16.595292
1140.251069	-16.563623
1140.684925	-16.532307
1141.119111	-16.509075
1141.553628	-16.492216
1141.988475	-16.471086
1142.423655	-16.438334
1142.859166	-16.399900
1143.295009	-16.369339
1143.731185	-16.352428
1144.167694	-16.339683
1144.604536	-16.317035
1145.041711	-16.282694
1145.479221	-16.250018
1145.917065	-16.231885
1146.355245	-16.225478
1146.793759	-16.215370
1147.232609	-16.191844
1147.671795	-16.162553
1148.111317	-16.143113
1148.551177	-16.138336
1148.991373	-16.136500
1149.431907	-16.123517
1149.872779	-16.099796
1150.313989	-16.079201
1150.755538	-16.071615
1151.197426	-16.071077
1151.639653	-16.063406
1152.082220	-16.043617
1152.525128	-16.021325
1152.968376	-16.008016
1153.411966	-16.002775
1153.855897	-15.993962
1154.300169	-15.973965
1154.744784	-15.948611
1155.189742	-15.928847
1155.635042	-15.916519
1156.080687	-15.902445
1156.526674	-15.878707
1156.973007	-15.848897
1157.419683	-15.823255
1157.866705	-15.805104
1158.314072	-15.786511
1158.761786	-15.758909
1159.209845	-15.724526
1159.658251	-15.693851
1160.107004	-15.672055
1160.556104	-15.652123
1161.005553	-15.623767
1161.455349	-15.586799
1161.905494	-15.551927
1162.355989	-15.527278
1162.806832	-15.508188
1163.258026	-15.482921
1163.709570	-15.447325
1164.161464	-15.410346
1164.613710	-15.382958
1165.066307	-15.364576
1165.519256	-15.344007
1165.972558	-15.313249
1166.426212	-15.277341
1166.880219	-15.247984
1167.334580	-15.229031
1167.789295	-15.212157
1168.244364	-15.187275
1168.699788	-15.154924
1169.155567	-15.125054
1169.611702	-15.104482
1170.068193	-15.088820
1170.525041	-15.068374
1170.982245	-15.040249
1171.439807	-15.011333
1171.897726	-14.989275
1172.356004	-14.973025
1172.814640	-14.954634
1173.273635	-14.929637
1173.732989	-14.902173
1174.192703	-14.879182
1174.652778	-14.861595
1175.113213	-14.843551
1175.574009	-14.820203
1176.035167	-14.793781
1176.496687	-14.770208
1176.958569	-14.751251
1177.420814	-14.732783
1177.883422	-14.710326
1178.346394	-14.684735
1178.809730	-14.660943
1179.273430	-14.641085
1179.737496	-14.622223
1180.201927	-14.600548
1180.666723	-14.576178
1181.131886	-14.552799
1181.597416	-14.532654
1182.063312	-14.513866
1182.529576	-14.493429
1182.996209	-14.471073
1183.463209	-14.449161
1183.930579	-14.429443
1184.398317	-14.411132
1184.866426	-14.392461
1185.334904	-14.372946
1185.803754	-14.353599
1186.272974	-14.335328
1186.742566	-14.317964
1187.212529	-14.301195
1187.682865	-14.285028
1188.153574	-14.268947
1188.624656	-14.252460
1189.096112	-14.236111
1189.567942	-14.221114
1190.040147	-14.207918
1190.512726	-14.194850
1190.985681	-14.179874
1191.459012	-14.163899
1191.932720	-14.150030
1192.406804	-14.139312
1192.881265	-14.128572
1193.356104	-14.114222
1193.831322	-14.097637
1194.306918	-14.083810
1194.782893	-14.074462
1195.259248	-14.064833
1195.735982	-14.049723
1196.213097	-14.031235
1196.690593	-14.016386
1197.168471	-14.007261
1197.646730	-13.997352
1198.125371	-13.980157
1198.604395	-13.958868
1199.083803	-13.942433
1199.563594	-13.932844
1200.043769	-13.921574
1200.524329	-13.901353
1201.005273	-13.876958
1201.486604	-13.859027
1201.968320	-13.848667
1202.450422	-13.835373
1202.932912	-13.811829
1203.415789	-13.784925
1203.899054	-13.766280
1204.382707	-13.755287
1204.866748	-13.739595
1205.351179	-13.713159
1205.836000	-13.685417
1206.321211	-13.667693
1206.806812	-13.656547
1207.292805	-13.638508
1207.779189	-13.610317
1208.265965	-13.583992
1208.753134	-13.569078
1209.240696	-13.558278
1209.728651	-13.538237
1210.217000	-13.509943
1210.705744	-13.487499
1211.194883	-13.476806
1211.684417	-13.466402
1212.174347	-13.444778
1212.664673	-13.418382
1213.155396	-13.401911
1213.646516	-13.395738
1214.138034	-13.385017
1214.629951	-13.362394
1215.122266	-13.339908
1215.614980	-13.330388
1216.108095	-13.327414
1216.601609	-13.314971
1217.095524	-13.292267
1217.589841	-13.275268
1218.084559	-13.271920
1218.579679	-13.269374
1219.075202	-13.253869
1219.571128	-13.232379
1220.067458	-13.221697
1220.564191	-13.221972
1221.061330	-13.216234
1221.558874	-13.197137
1222.056823	-13.178627
1222.555178	-13.173756
1223.053940	-13.173778
1223.553109	-13.161999
1224.052686	-13.140644
1224.552671	-13.127041
1225.053065	-13.125874
1225.553867	-13.121636
1226.055079	-13.103566
1226.556702	-13.083321
1227.058735	-13.075736
1227.561179	-13.074887
1228.064035	-13.063842
1228.567303	-13.042365
1229.070983	-13.027285
1229.575077	-13.024770
1230.079585	-13.020365
1230.584506	-13.002963
1231.089842	-12.983198
1231.595594	-12.975586
1232.101761	-12.974502
1232.608345	-12.963754
1233.115345	-12.943576
1233.622762	-12.929973
1234.130597	-12.927816
1234.638851	-12.922791
1235.147523	-12.905747
1235.656615	-12.887666
1236.166126	-12.880738
1236.676058	-12.877806
1237.186411	-12.864823
1237.697185	-12.844613
1238.208381	-12.831438
1238.719999	-12.826385
1239.232040	-12.815932
1239.744505	-12.795260
1240.257394	-12.776143
1240.770708	-12.766090
1241.284446	-12.755705
1241.798610	-12.735292
1242.313201	-12.711658
1242.828218	-12.695706
1243.343662	-12.683532
1243.859534	-12.663899
1244.375834	-12.638055
1244.892563	-12.617192
1245.409721	-12.602695
1245.927309	-12.584273
1246.445327	-12.558774
1246.963777	-12.535417
1247.482657	-12.519299
1248.001970	-12.502812
1248.521716	-12.479767
1249.041894	-12.456577
1249.562506	-12.440301
1250.083553	-12.426271
1250.605034	-12.407069
1251.126950	-12.385841
1251.649302	-12.370354
1252.172091	-12.358745
1252.695316	-12.343431
1253.218979	-12.324959
1253.743079	-12.310445
1254.267619	-12.300371
1254.792597	-12.287975
1255.318015	-12.271764
1255.843874	-12.257885
1256.370173	-12.248296
1256.896913	-12.237473
1257.424095	-12.222776
1257.951720	-12.209138
1258.479787	-12.199534
1259.008298	-12.189600
1259.537254	-12.176237
1260.066654	-12.163291
1260.596499	-12.154178
1261.126790	-12.145621
1261.657527	-12.134441
1262.188711	-12.123654
1262.720342	-12.116601
1263.252422	-12.110796
1263.784950	-12.103138
1264.317928	-12.096101
1264.851355	-12.092740
1265.385232	-12.090914
1265.919560	-12.087655
1266.454340	-12.084991
1266.989572	-12.085829
1267.525256	-12.088060
1268.061394	-12.088776
1268.597985	-12.089668
1269.135031	-12.093454
1269.672531	-12.098302
1270.210487	-12.101276
1270.748899	-12.103908
1271.287768	-12.108674
1271.827094	-12.114039
1272.366877	-12.117445
1272.907119	-12.120250
1273.447820	-12.124743
1273.988981	-12.129584
1274.530601	-12.132768
1275.072683	-12.135655
1275.615226	-12.140183
1276.158230	-12.145150
1276.701697	-12.149044
1277.245627	-12.153287
1277.790021	-12.159333
1278.334879	-12.165955
1278.880202	-12.172054
1279.425991	-12.178998
1279.972245	-12.187614
1280.518966	-12.196511
1281.066155	-12.205034
1281.613811	-12.214417
1282.161936	-12.224754
1282.710529	-12.234551
1283.259593	-12.243751
1283.809126	-12.253434
1284.359131	-12.263008
1284.909607	-12.271172
1285.460555	-12.278671
1286.011976	-12.286429
1286.563870	-12.293145
1287.116237	-12.297930
1287.669080	-12.302549
1288.222397	-12.307793
1288.776191	-12.311583
1289.330460	-12.313512
1289.885207	-12.316286
1290.440431	-12.320363
1290.996133	-12.322809
1291.552314	-12.323615
1292.108975	-12.326177
1292.666115	-12.330281
1293.223737	-12.332290
1293.781839	-12.332636
1294.340424	-12.334977
1294.899491	-12.338280
1295.459041	-12.338492
1296.019075	-12.336745
1296.579593	-12.336721
1297.140597	-12.336574
1297.702086	-12.332407
1298.264061	-12.326371
1298.826524	-12.321969
1299.389474	-12.316615
1299.952912	-12.307188
1300.516839	-12.296869
1301.081255	-12.288591
1301.646162	-12.279164
1302.211559	-12.266480
1302.777448	-12.254393
1303.343829	-12.244737
1303.910702	-12.233773
1304.478069	-12.220484
1305.045930	-12.208833
1305.614285	-12.199159
1306.183136	-12.187497
1306.752483	-12.174002
1307.322326	-12.162264
1307.892666	-12.151153
1308.463504	-12.137101
1309.034841	-12.121559
1309.606677	-12.107517
1310.179012	-12.092844
1310.751849	-12.075111
1311.325186	-12.057021
1311.899025	-12.040581
1312.473366	-12.023075
1313.048211	-12.003665
1313.623559	-11.985639
1314.199412	-11.969614
1314.775770	-11.952674
1315.352634	-11.935401
1315.930004	-11.920715
1316.507881	-11.907418
1317.086266	-11.892897
1317.665159	-11.878912
1318.244562	-11.867250
1318.824474	-11.855321
1319.404897	-11.841667
1319.985831	-11.828854
1320.567276	-11.817258
1321.149234	-11.803938
1321.731706	-11.789345
1322.314691	-11.776285
1322.898190	-11.763736
1323.482205	-11.749491
1324.066736	-11.735769
1324.651783	-11.724476
1325.237347	-11.713325
1325.823430	-11.701522
1326.410031	-11.691941
1326.997151	-11.684499
1327.584791	-11.676263
1328.172952	-11.668042
1328.761634	-11.662069
1329.350839	-11.656231
1329.940566	-11.648448
1330.530817	-11.641059
1331.121592	-11.634897
1331.712891	-11.626961
1332.304716	-11.617479
1332.897068	-11.609422
1333.489946	-11.601836
1334.083352	-11.592521
1334.677287	-11.583910
1335.271750	-11.577845
1335.866744	-11.571655
1336.462268	-11.564889
1337.058323	-11.560628
1337.654910	-11.558062
1338.252029	-11.554035
1338.849682	-11.550244
1339.447869	-11.548572
1340.046591	-11.545889
1340.645848	-11.540893
1341.245641	-11.536821
1341.845972	-11.533418
1342.446840	-11.527506
1343.048246	-11.520839
1343.650191	-11.516348
1344.252677	-11.511645
1344.855702	-11.505535
1345.459269	-11.501435
1346.063379	-11.499571
1346.668030	-11.496749
1347.273226	-11.494264
1347.878965	-11.494439
1348.485250	-11.494522
1349.092080	-11.493003
1349.699456	-11.492653
1350.307380	-11.493142
1350.915851	-11.491531
1351.524871	-11.489406
1352.134441	-11.488990
1352.744560	-11.487973
1353.355231	-11.485800
1353.966453	-11.485494
1354.578227	-11.486575
1355.190555	-11.486670
1355.803436	-11.487516
1356.416872	-11.490295
1357.030863	-11.492281
1357.645411	-11.493083
1358.260515	-11.494799
1358.876177	-11.495875
1359.492397	-11.494641
1360.109176	-11.493137
1360.726516	-11.491860
1361.344416	-11.488867
1361.962877	-11.485351
1362.581901	-11.483253
1363.201487	-11.480926
1363.821637	-11.478021
1364.442352	-11.476620
1365.063632	-11.475785
1365.685478	-11.473623
1366.307891	-11.471496
1366.930871	-11.469637
1367.554420	-11.465808
1368.178538	-11.460563
1368.803226	-11.455447
1369.428485	-11.449181
1370.054315	-11.441600
1370.680717	-11.434870
1371.307693	-11.428779
1371.935242	-11.422276
1372.563366	-11.416917
1373.192065	-11.413062
1373.821341	-11.408897
1374.451193	-11.404868
1375.081623	-11.401759
1375.712632	-11.397846
1376.344221	-11.392932
1376.976389	-11.388549
1377.609139	-11.383890
1378.242470	-11.378474
1378.876384	-11.374210
1379.510881	-11.371062
1380.145963	-11.367994
1380.781629	-11.366288
1381.417881	-11.366145
1382.054720	-11.365727
1382.692147	-11.365337
1383.330161	-11.365567
1383.968765	-11.364595
1384.607959	-11.362390
1385.247743	-11.360393
1385.888119	-11.357680
1386.529087	-11.354028
1387.170648	-11.351387
1387.812804	-11.349458
1388.455554	-11.347259
1389.098899	-11.346224
1389.742842	-11.346078
1390.387381	-11.345021
1391.032519	-11.343804
1391.678256	-11.342685
1392.324592	-11.339994
1392.971529	-11.336506
1393.619068	-11.333466
1394.267208	-11.329925
1394.915952	-11.326441
1395.565300	-11.324581
1396.215253	-11.323349
1396.865812	-11.322338
1397.516977	-11.322653
1398.168749	-11.323101
1398.821130	-11.322664
1399.474120	-11.322469
1400.127719	-11.322055
1400.781930	-11.320667
1401.436752	-11.320027
1402.092186	-11.320444
1402.748234	-11.321061
1403.404897	-11.323186
1404.062174	-11.326911
1404.720067	-11.330449
1405.378577	-11.334178
1406.037705	-11.338130
1406.697451	-11.340329
1407.357817	-11.341391
1408.018803	-11.342375
1408.680410	-11.342141
1409.342639	-11.341721
1410.005492	-11.342716
1410.668968	-11.343879
1411.333068	-11.345377
1411.997795	-11.348232
1412.663147	-11.350485
1413.329127	-11.351582
1413.995736	-11.352723
1414.662973	-11.352542
1415.330840	-11.351174
1415.999339	-11.350872
1416.668469	-11.350983
1417.338232	-11.351779
1418.008628	-11.355201
1418.679659	-11.359781
1419.351325	-11.364722
1420.023628	-11.371102
1420.696568	-11.377038
1421.370145	-11.381845
1422.044362	-11.387305
1422.719219	-11.392426
1423.394717	-11.397307
1424.070856	-11.404143
1424.747638	-11.411775
1425.425064	-11.419700
1426.103134	-11.429159
1426.781850	-11.438186
1427.461212	-11.445970
1428.141221	-11.453984
1428.821878	-11.461037
1429.503185	-11.467431
1430.185141	-11.475384
1430.867749	-11.484000
1431.551008	-11.493264
1432.234920	-11.504324
1432.919486	-11.515111
1433.604707	-11.524777
1434.290583	-11.534165
1434.977116	-11.541767
1435.664307	-11.548193
1436.352156	-11.555716
1437.040664	-11.563931
1437.729833	-11.574031
1438.419663	-11.587522
1439.110156	-11.602580
1439.801312	-11.619017
1440.493132	-11.636871
1441.185617	-11.653682
1441.878768	-11.669865
1442.572586	-11.686089
1443.267072	-11.700850
1443.962228	-11.715473
1444.658053	-11.730130
1445.354549	-11.742743
1446.051717	-11.753999
1446.749558	-11.763275
1447.448073	-11.769169
1448.147263	-11.773859
1448.847128	-11.778287
1449.547671	-11.783156
1450.248891	-11.791581
1450.950789	-11.803700
1451.653368	-11.818957
1452.356627	-11.837929
1453.060568	-11.858213
1453.765192	-11.878209
1454.470500	-11.898008
1455.176492	-11.915696
1455.883170	-11.931061
1456.590534	-11.944684
1457.298586	-11.954610
1458.007327	-11.960549
1458.716758	-11.962281
1459.426880	-11.958236
1460.137693	-11.949898
1460.849199	-11.939135
1461.561398	-11.927292
1462.274293	-11.918108
1462.987883	-11.913571
1463.702170	-11.914053
1464.417155	-11.920961
1465.132838	-11.933010
1465.849222	-11.948893
1466.566306	-11.969034
1467.284093	-11.991765
1468.002582	-12.016638
1468.721775	-12.043634
1469.441674	-12.069733
1470.162278	-12.093535
1470.883590	-12.113125
1471.605609	-12.125410
1472.328338	-12.131200
1473.051777	-12.130670
1473.775928	-12.124601
1474.500790	-12.116508
1475.226367	-12.106650
1475.952657	-12.096155
1476.679663	-12.086792
1477.407386	-12.077484
1478.135826	-12.070485
1478.864985	-12.067803
1479.594863	-12.069980
1480.325463	-12.080510
1481.056784	-12.099479
1481.788828	-12.126447
1482.521597	-12.162665
1483.255090	-12.206105
1483.989309	-12.257500
1484.724256	-12.318204
1485.459931	-12.386830
1486.196336	-12.464654
1486.933471	-12.549405
1487.671337	-12.637047
1488.409937	-12.725425
1489.149270	-12.808520
1489.889337	-12.882722
1490.630141	-12.944969
1491.371682	-12.989278
1492.113961	-13.013419
1492.856979	-13.012607
1493.600738	-12.983270
1494.345238	-12.926529
1495.090481	-12.842337
1495.836467	-12.736641
1496.583198	-12.616318
1497.330675	-12.487123
1498.078899	-12.358025
1498.827872	-12.233839
1499.577593	-12.120556
1500.328065	-12.024946
1501.079289	-11.950771
1501.831265	-11.904663
1502.583995	-11.889534
1503.337480	-11.906043
1504.091721	-11.954516
1504.846719	-12.029625
1505.602475	-12.126738
1506.358991	-12.238379
1507.116268	-12.353174
1507.874306	-12.459797
1508.633108	-12.540736
1509.392673	-12.578930
1510.153004	-12.558621
1510.914101	-12.466596
1511.675965	-12.300234
1512.438599	-12.062327
1513.202002	-11.764266
1513.966176	-11.422065
1514.731122	-11.051543
1515.496842	-10.670537
1516.263336	-10.293396
1517.030607	-9.933434
1517.798654	-9.601951
1518.567479	-9.306163
1519.337083	-9.052276
1520.107468	-8.843282
1520.878634	-8.681276
1521.650584	-8.568724
1522.423317	-8.506720
1523.196836	-8.497062
1523.971141	-8.540282
1524.746233	-8.635673
1525.522115	-8.783049
1526.298786	-8.980802
1527.076249	-9.227295
1527.854504	-9.519622
1528.633553	-9.851312
1529.413397	-10.214240
1530.194037	-10.596352
1530.975474	-10.982328
1531.757709	-11.354021
1532.540745	-11.687467
1533.324581	-11.957977
1534.109220	-12.144207
1534.894662	-12.233533
1535.680909	-12.228191
1536.467961	-12.140172
1537.255821	-11.989924
1538.044489	-11.804030
1538.833967	-11.609554
1539.624256	-11.434158
1540.415357	-11.299542
1541.207271	-11.220564
1542.000000	-11.209132
1542.793545	-11.273678
1543.587907	-11.424538
1544.383087	-11.671551
1545.179088	-12.021904
1545.975909	-12.483451
1546.773552	-13.062970
1547.572019	-13.772870
1548.371311	-14.630383
1549.171428	-15.651606
1549.972373	-16.849590
1550.774147	-18.215529
1551.576751	-19.694614
1552.380185	-21.112917
1553.184453	-22.071246
1553.989554	-22.103856
1554.795490	-21.214006
1555.602263	-19.875990
1556.409873	-18.489617
1557.218322	-17.215759
1558.027612	-16.093751
1558.837743	-15.124400
1559.648717	-14.295964
1560.460536	-13.595857
1561.273200	-13.005480
1562.086710	-12.508002
1562.901069	-12.092167
1563.716278	-11.750475
1564.532337	-11.479153
1565.349249	-11.269618
1566.167014	-11.113058
1566.985634	-11.002474
1567.805111	-10.935322
1568.625444	-10.913002
1569.446637	-10.932484
1570.268690	-10.989001
1571.091605	-11.075915
1571.915382	-11.192010
1572.740024	-11.339877
1573.565532	-11.519532
1574.391907	-11.727445
1575.219150	-11.955089
1576.047262	-12.200112
1576.876246	-12.463976
1577.706103	-12.750120
1578.536833	-13.055705
1579.368439	-13.371529
1580.200922	-13.691616
1581.034282	-14.014268
1581.868522	-14.343432
1582.703643	-14.674811
1583.539646	-14.998600
1584.376532	-15.303215
1585.214304	-15.585346
1586.052962	-15.848352
1586.892508	-16.090486
1587.732943	-16.304076
1588.574269	-16.477320
1589.416487	-16.609316
1590.259599	-16.704552
1591.103605	-16.766769
1591.948508	-16.791038
1592.794309	-16.771072
1593.641009	-16.710341
1594.488609	-16.617624
1595.337112	-16.500452
1596.186518	-16.355773
1597.036829	-16.181963
1597.888047	-15.983310
1598.740172	-15.769214
1599.593207	-15.543728
1600.447153	-15.304554
1601.302010	-15.052950
1602.157782	-14.796021
1603.014469	-14.542675
1603.872072	-14.294089
1604.730593	-14.048635
1605.590034	-13.808442
1606.450397	-13.579918
1607.311681	-13.367108
1608.173890	-13.167666
1609.037024	-12.981009
1609.901085	-12.810768
1610.766075	-12.662630
1611.631995	-12.535220
1612.498846	-12.424429
1613.366630	-12.329651
1614.235349	-12.255026
1615.105004	-12.201106
1615.975596	-12.161396
1616.847128	-12.131630
1617.719600	-12.114340
1618.593014	-12.113915
1619.467372	-12.124414
1620.342675	-12.136285
1621.218924	-12.146818
1622.096122	-12.162298
1622.974270	-12.182627
1623.853369	-12.197986
1624.733420	-12.202026
1625.614427	-12.200716
1626.496389	-12.201409
1627.379308	-12.198354
1628.263187	-12.183102
1629.148026	-12.157648
1630.033828	-12.132610
1630.920593	-12.108239
1631.808324	-12.077902
1632.697022	-12.040861
1633.586688	-12.006199
1634.477324	-11.976230
1635.368932	-11.944352
1636.261514	-11.908063
1637.155070	-11.874441
1638.049602	-11.847777
1638.945113	-11.822440
1639.841603	-11.795938
1640.739075	-11.773338
1641.637529	-11.758582
1642.536968	-11.745281
1643.437393	-11.730786
1644.338806	-11.719733
1645.241209	-11.716254
1646.144602	-11.713921
1647.048988	-11.709651
1647.954368	-11.706903
1648.860744	-11.707470
1649.768118	-11.704407
1650.676491	-11.696566
1651.585865	-11.690334
1652.496241	-11.686995
1653.407621	-11.679003
1654.320008	-11.666332
1655.233401	-11.657318
1656.147804	-11.651632
1657.063218	-11.640837
1657.979645	-11.627207
1658.897085	-11.622011
1659.815542	-11.623172
1660.735016	-11.619183
1661.655509	-11.611121
1662.577023	-11.610152
1663.499560	-11.613605
1664.423121	-11.611043
1665.347709	-11.604338
1666.273324	-11.602369
1667.199969	-11.601543
1668.127645	-11.596456
1669.056353	-11.592573
1669.986097	-11.594112
1670.916877	-11.593088
1671.848695	-11.587284
1672.781553	-11.585285
1673.715452	-11.589200
1674.650395	-11.591877
1675.586383	-11.594438
1676.523418	-11.601342
1677.461501	-11.607995
1678.400635	-11.611121
1679.340821	-11.618262
1680.282061	-11.629633
1681.224357	-11.636065
1682.167710	-11.639792
1683.112122	-11.650762
1684.057595	-11.663299
1685.004132	-11.668714
1685.951732	-11.675049
1686.900400	-11.688668
1687.850135	-11.700030
1688.800940	-11.707845
1689.752818	-11.722623
1690.705768	-11.741119
1691.659795	-11.753018
1692.614898	-11.764914
1693.571081	-11.783948
1694.528345	-11.801640
1695.486691	-11.815499
1696.446122	-11.833946
1697.406640	-11.854215
1698.368245	-11.869808
1699.330941	-11.887077
1700.294729	-11.908449
1701.259611	-11.927111
1702.225588	-11.945682
1703.192664	-11.968371
1704.160838	-11.988004
1705.130114	-12.005706
1706.100493	-12.030284
1707.071977	-12.054701
1708.044568	-12.071995
1709.018268	-12.093070
1709.993079	-12.119464
1710.969003	-12.139769
1711.946041	-12.159423
1712.924196	-12.185768
1713.903469	-12.209551
1714.883862	-12.229382
1715.865378	-12.254545
1716.848017	-12.279967
1717.831783	-12.302465
1718.816677	-12.328488
1719.802701	-12.354111
1720.789857	-12.375655
1721.778147	-12.402529
1722.767573	-12.431667
1723.758136	-12.455373
1724.749840	-12.481925
1725.742685	-12.511808
1726.736673	-12.536614
1727.731808	-12.563920
1728.728090	-12.596295
1729.725521	-12.623374
1730.724105	-12.651065
1731.723842	-12.684364
1732.724735	-12.713947
1733.726785	-12.743001
1734.729995	-12.776242
1735.734366	-12.805114
1736.739902	-12.834370
1737.746603	-12.868725
1738.754472	-12.898941
1739.763510	-12.929043
1740.773721	-12.963121
1741.785105	-12.992058
1742.797665	-13.022646
1743.811403	-13.058774
1744.826321	-13.088310
1745.842422	-13.118153
1746.859706	-13.153844
1747.878177	-13.184528
1748.897835	-13.215744
1749.918685	-13.250803
1750.940726	-13.281311
1751.963963	-13.314429
1752.988395	-13.349180
1754.014027	-13.380162
1755.040860	-13.416295
1756.068895	-13.449916
1757.098135	-13.479105
1758.128583	-13.517880
1759.160240	-13.552420
1760.193109	-13.580199
1761.227191	-13.618003
1762.262488	-13.652068
1763.299004	-13.682220
1764.336740	-13.719415
1765.375697	-13.749666
1766.415880	-13.780255
1767.457288	-13.815901
1768.499926	-13.844390
1769.543794	-13.877452
1770.588895	-13.909287
1771.635231	-13.934531
1772.682805	-13.969600
1773.731619	-13.998629
1774.781674	-14.023693
1775.832973	-14.059458
1776.885519	-14.086440
1777.939312	-14.114700
1778.994357	-14.147006
1780.050654	-14.169613
1781.108207	-14.202591
1782.167017	-14.233900
1783.227087	-14.259261
1784.288418	-14.294821
1785.351013	-14.318819
1786.414875	-14.345710
1787.480006	-14.380530
1788.546407	-14.403964
1789.614082	-14.438657
1790.683032	-14.471001
1791.753259	-14.496203
1792.824767	-14.528583
1793.897557	-14.550596
1794.971632	-14.581693
1796.046994	-14.613783
1797.123645	-14.637915
1798.201588	-14.673484
1799.280824	-14.694056
1800.361357	-14.719877
1801.443188	-14.751624
1802.526320	-14.768232
1803.610756	-14.800957
1804.696497	-14.824411
1805.783546	-14.844925
1806.871906	-14.872904
1807.961578	-14.888529
1809.052565	-14.917428
1810.144870	-14.935660
1811.238494	-14.954063
1812.333441	-14.978878
1813.429713	-14.990180
1814.527311	-15.015740
1815.626239	-15.028203
1816.726499	-15.044805
1817.828094	-15.064373
1818.931025	-15.070979
1820.035295	-15.093640
1821.140906	-15.099669
1822.247862	-15.116029
1823.356165	-15.129650
1824.465816	-15.131525
1825.576819	-15.151012
1826.689175	-15.154778
1827.802888	-15.167671
1828.917960	-15.174427
1830.034394	-15.182456
1831.152191	-15.191957
1832.271354	-15.194084
1833.391887	-15.209524
1834.513790	-15.207522
1835.637068	-15.220312
1836.761722	-15.222710
1837.887755	-15.226727
1839.015169	-15.238429
1840.143968	-15.235534
1841.274153	-15.245364
1842.405727	-15.242272
1843.538693	-15.251164
1844.673053	-15.249092
1845.808810	-15.252703
1846.945966	-15.255210
1848.084525	-15.249724
1849.224488	-15.252987
1850.365858	-15.246463
1851.508638	-15.250965
1852.652831	-15.240386
1853.798438	-15.242263
1854.945463	-15.233891
1856.093909	-15.228441
1857.243777	-15.222739
1858.395071	-15.213265
1859.547794	-15.208625
1860.701947	-15.198407
1861.857533	-15.192858
1863.014556	-15.179920
1864.173018	-15.174205
1865.332922	-15.158110
1866.494270	-15.153955
1867.657065	-15.140517
1868.821309	-15.130368
1869.987006	-15.117949
1871.154158	-15.107732
1872.322768	-15.090993
1873.492839	-15.080732
1874.664373	-15.062605
1875.837373	-15.048503
1877.011841	-15.032876
1878.187782	-15.016927
1879.365197	-15.000136
1880.544089	-14.980716
1881.724460	-14.965205
1882.906315	-14.945865
1884.089655	-14.927165
1885.274483	-14.905676
1886.460803	-14.887928
1887.648616	-14.868095
1888.837927	-14.855526
1890.028736	-14.828494
1891.221049	-14.809558
1892.414866	-14.781189
1893.610192	-14.767052
1894.807028	-14.742838
1896.005379	-14.726581
1897.205246	-14.696944
1898.406633	-14.683777
1899.609542	-14.652586
1900.813977	-14.635161
1902.019940	-14.602370
1903.227434	-14.585208
1904.436462	-14.571603
1905.647028	-14.548138
1906.859133	-14.508037
1908.072781	-14.500786
1909.287976	-14.476341
1910.504719	-14.450968
1911.723013	-14.426008
1912.942863	-14.415457
1914.164270	-14.382136
1915.387238	-14.364794
1916.611770	-14.339113
1917.837868	-14.320229
1919.065536	-14.296227
1920.294777	-14.270633
1921.525594	-14.252923
1922.757989	-14.226115
1923.991967	-14.207342
1925.227529	-14.179755
1926.464679	-14.163745
1927.703420	-14.135672
1928.943755	-14.116901
1930.185688	-14.086848
1931.429221	-14.070871
1932.674356	-14.042121
1933.921099	-14.021568
1935.169451	-13.993879
1936.419415	-13.970607
1937.670996	-13.948411
1938.924195	-13.917639
1940.179017	-13.896604
1941.435463	-13.867717
1942.693538	-13.849997
1943.953245	-13.820484
1945.214586	-13.796554
1946.477566	-13.772841
1947.742186	-13.747878
1949.008451	-13.727575
1950.276363	-13.698887
1951.545926	-13.681097
1952.817143	-13.655382
1954.090017	-13.636464
1955.364551	-13.611765
1956.640749	-13.589887
1957.918615	-13.572004
1959.198150	-13.546545
1960.479359	-13.532360
1961.762244	-13.505936
1963.046810	-13.490444
1964.333059	-13.468822
1965.620995	-13.449432
1966.910621	-13.436609
1968.201940	-13.411798
1969.494956	-13.399931
1970.789672	-13.377547
1972.086091	-13.362305
1973.384217	-13.348950
1974.684053	-13.327417
1975.985602	-13.319482
1977.288869	-13.294868
1978.593855	-13.282776
1979.900566	-13.267136
1981.209003	-13.249934
1982.519171	-13.239115
1983.831073	-13.221048
1985.144712	-13.210037
1986.460093	-13.194963
1987.777217	-13.171617
1989.096089	-13.161160
1990.416713	-13.148292
1991.739092	-13.132730
1993.063228	-13.118241
1994.389127	-13.095232
1995.716791	-13.086010
1997.046223	-13.069488
1998.377428	-13.047087
1999.710409	-13.040472
2001.045169	-13.024691
2002.381713	-13.008623
2003.720043	-12.997753
2005.060163	-12.974316
2006.402077	-12.971288
2007.745788	-12.955550
2009.091301	-12.938831
2010.438618	-12.934778
2011.787743	-12.916492
2013.138680	-12.904908
2014.491433	-12.898492
2015.846005	-12.882801
2017.202399	-12.875792
2018.560621	-12.868739
2019.920673	-12.854194
2021.282558	-12.848479
2022.646281	-12.842019
2024.011846	-12.831370
2025.379256	-12.824446
2026.748515	-12.818637
2028.119626	-12.807345
2029.492594	-12.804643
2030.867422	-12.800519
2032.244114	-12.786229
2033.622673	-12.787953
2035.003104	-12.780881
2036.385411	-12.768190
2037.769597	-12.770889
2039.155665	-12.764670
2040.543621	-12.754916
2041.933467	-12.751025
2043.325208	-12.748353
2044.718847	-12.736905
2046.114389	-12.731773
2047.511837	-12.730000
2048.911195	-12.721334
2050.312467	-12.712903
2051.715657	-12.713834
2053.120769	-12.700221
2054.527807	-12.692327
2055.936775	-12.693304
2057.347677	-12.685261
2058.760516	-12.676295
2060.175297	-12.675836
2061.592025	-12.671229
2063.010701	-12.662652
2064.431332	-12.659494
2065.853921	-12.666068
2067.278472	-12.662351
2068.704988	-12.655164
2070.133475	-12.660842
2071.563936	-12.663794
2072.996375	-12.658469
2074.430796	-12.662936
2075.867204	-12.673710
2077.305603	-12.675943
2078.745996	-12.674762
2080.188389	-12.682238
2081.632784	-12.694540
2083.079187	-12.696248
2084.527601	-12.699916
2085.978030	-12.716734
2087.430480	-12.724890
2088.884954	-12.724596
2090.341455	-12.730090
2091.799990	-12.745769
2093.260561	-12.759664
2094.723173	-12.757474
2096.187831	-12.767886
2097.654538	-12.781942
2099.123300	-12.790515
2100.594119	-12.791501
2102.067001	-12.802456
2103.541950	-12.818412
2105.018971	-12.824717
2106.498067	-12.825423
2107.979243	-12.831200
2109.462503	-12.846185
2110.947853	-12.856991
2112.435295	-12.857169
2113.924836	-12.859791
2115.416478	-12.872401
2116.910227	-12.884723
2118.406087	-12.889368
2119.904063	-12.891313
2121.404158	-12.901539
2122.906378	-12.919448
2124.410727	-12.933361
2125.917210	-12.939351
2127.425831	-12.946427
2128.936594	-12.963665
2130.449505	-12.987137
2131.964567	-13.005372
2133.481786	-13.015395
2135.001166	-13.029813
2136.522711	-13.054075
2138.046427	-13.081071
2139.572317	-13.105976
2141.100388	-13.123769
2142.630642	-13.139460
2144.163085	-13.165108
2145.697722	-13.197474
2147.234558	-13.226594
2148.773596	-13.248129
2150.314842	-13.264250
2151.858301	-13.286940
2153.403977	-13.318310
2154.951875	-13.350477
2156.502000	-13.379693
2158.054357	-13.398217
2159.608950	-13.415180
2161.165785	-13.440507
2162.724866	-13.471371
2164.286198	-13.504387
2165.849786	-13.534001
2167.415635	-13.554338
2168.983749	-13.567797
2170.554134	-13.588963
2172.126795	-13.621207
2173.701737	-13.653849
2175.278964	-13.684337
2176.858481	-13.713397
2178.440294	-13.733068
2180.024408	-13.749501
2181.610827	-13.773799
2183.199557	-13.808044
2184.790602	-13.847323
2186.383968	-13.886218
2187.979660	-13.922710
2189.577683	-13.952890
2191.178041	-13.978199
2192.780741	-14.009038
2194.385787	-14.043391
2195.993185	-14.085727
2197.602939	-14.137140
2199.215054	-14.189511
2200.829537	-14.238065
2202.446392	-14.279949
2204.065624	-14.316016
2205.687239	-14.351097
2207.311242	-14.388796
2208.937638	-14.432554
2210.566433	-14.482866
2212.197631	-14.538427
2213.831239	-14.595573
2215.467261	-14.653419
2217.105703	-14.708161
2218.746570	-14.756902
2220.389867	-14.801688
2222.035601	-14.845945
2223.683776	-14.884501
2225.334398	-14.921725
2226.987472	-14.966736
2228.643004	-15.013638
2230.300999	-15.058167
2231.961463	-15.110355
2233.624402	-15.172963
2235.289820	-15.233618
2236.957723	-15.292652
2238.628118	-15.356157
2240.301009	-15.413823
2241.976402	-15.466830
2243.654303	-15.521862
2245.334717	-15.571756
2247.017650	-15.613474
2248.703108	-15.656653
2250.391096	-15.702621
2252.081620	-15.746851
2253.774686	-15.792034
2255.470300	-15.844830
2257.168467	-15.893779
2258.869193	-15.945127
2260.572484	-16.006679
2262.278345	-16.062581
2263.986783	-16.126481
2265.697804	-16.194124
2267.411412	-16.259662
2269.127615	-16.335162
2270.846417	-16.413418
2272.567826	-16.496116
2274.291846	-16.577367
2276.018484	-16.666031
2277.747745	-16.759279
2279.479637	-16.853285
2281.214164	-16.949602
2282.951333	-17.045484
2284.691149	-17.141970
2286.433619	-17.235809
2288.178750	-17.332365
2289.926546	-17.428378
2291.677014	-17.521458
2293.430161	-17.616874
2295.185992	-17.709046
2296.944513	-17.790820
2298.705732	-17.873583
2300.469653	-17.954177
2302.236283	-18.033617
2304.005629	-18.112200
2305.777696	-18.187022
2307.552492	-18.253668
2309.330022	-18.318789
2311.110292	-18.382638
2312.893310	-18.447760
2314.679080	-18.522995
2316.467611	-18.607883
2318.258907	-18.688431
2320.052976	-18.777485
2321.849824	-18.869491
2323.649457	-18.958934
2325.451883	-19.059995
2327.257106	-19.180171
2329.065135	-19.308066
2330.875975	-19.448534
2332.689633	-19.586529
2334.506116	-19.709804
2336.325430	-19.809642
2338.147581	-19.904094
2339.972578	-19.984985
2341.800425	-20.055115
2343.631130	-20.139000
2345.464700	-20.249446
2347.301141	-20.362959
2349.140461	-20.492408
2350.982665	-20.626470
2352.827760	-20.751502
2354.675754	-20.860114
2356.526653	-20.956089
2358.380464	-21.032335
2360.237195	-21.103116
2362.096851	-21.184311
2363.959440	-21.286035
2365.824968	-21.393348
2367.693444	-21.519255
2369.564873	-21.651363
2371.439263	-21.773696
2373.316620	-21.879234
2375.196953	-21.974405
2377.080267	-22.066703
2378.966570	-22.174321
2380.855869	-22.302140
2382.748171	-22.439393
2384.643484	-22.569920
2386.541815	-22.695433
2388.443170	-22.806207
2390.347557	-22.919581
2392.254984	-23.057618
2394.165457	-23.222437
2396.078984	-23.393019
2397.995572	-23.551398
2399.915229	-23.681471
2401.837961	-23.798891
2403.763777	-23.931693
2405.692684	-24.094597
2407.624689	-24.259757
2409.559800	-24.404283
2411.498023	-24.526968
2413.439368	-24.643056
2415.383840	-24.768550
2417.331449	-24.927388
2419.282201	-25.077925
2421.236104	-25.198577
2423.193165	-25.301790
2425.153393	-25.422425
2427.116795	-25.570334
2429.083378	-25.712666
2431.053151	-25.805462
2433.026121	-25.885314
2435.002297	-25.990340
2436.981685	-26.129314
2438.964293	-26.254712
2440.950131	-26.340277
2442.939204	-26.441842
2444.931522	-26.600323
2446.927092	-26.772116
2448.925923	-26.931571
2450.928022	-27.083529
2452.933397	-27.265499
2454.942056	-27.486514
2456.954008	-27.683913
2458.969260	-27.840181
2460.987821	-28.033943
2463.009699	-28.258602
2465.034902	-28.444108
2467.063437	-28.608914
2469.095315	-28.810935
2471.130542	-29.028698
2473.169127	-29.214903
2475.211078	-29.357992
2477.256404	-29.497758
2479.305112	-29.639780
2481.357212	-29.718248
2483.412713	-29.776698
2485.471621	-29.917502
2487.533946	-30.038799
2489.599696	-30.130711
2491.668880	-30.312156
2493.741507	-30.528591
2495.817585	-30.634714
2497.897122	-30.741981
2499.980127	-30.863760
2502.066609	-30.911657
2504.156578	-30.961165
2506.250040	-31.098503
2508.347006	-31.268748
2510.447483	-31.419523
2512.551482	-31.617781
2514.659010	-31.848778
2516.770076	-31.987446
2518.884690	-32.165129
2521.002861	-32.419013
2523.124597	-32.627126
2525.249907	-32.891178
2527.378801	-33.223968
2529.511287	-33.421038
2531.647375	-33.634199
2533.787074	-33.901893
2535.930393	-34.050441
2538.077340	-34.275005
2540.227927	-34.529852
2542.382160	-34.658071
2544.540051	-34.855903
2546.701608	-35.009973
2548.866840	-35.087820
2551.035757	-35.295369
2553.208369	-35.388408
2555.384684	-35.464538
2557.564713	-35.626804
2559.748465	-35.683922
2561.935948	-35.797444
2564.127174	-35.897756
2566.322152	-35.954722
2568.520890	-36.074579
2570.723399	-36.142565
2572.929689	-36.224620
2575.139769	-36.327672
2577.353649	-36.410852
2579.571340	-36.597559
2581.792849	-36.733604
2584.018189	-36.960864
2586.247368	-37.155536
2588.480396	-37.425015
2590.717284	-37.783901
2592.958041	-37.992180
2595.202678	-38.409006
2597.451204	-38.689464
2599.703630	-39.073688
2601.959966	-39.468221
2604.220222	-39.700387
2606.484408	-40.086950
2608.752535	-40.304088
2611.024612	-40.626518
2613.300651	-40.788317
2615.580661	-41.065002
2617.864653	-41.246262
2620.152638	-41.437689
2622.444625	-41.582027
2624.740626	-41.752584
2627.040651	-41.787953
2629.344710	-41.813037
2631.652814	-41.937064
2633.964974	-41.844791
2636.281200	-41.903241
2638.601504	-41.751449
2640.925896	-41.797455
2643.254386	-41.680774
2645.586987	-41.752472
2647.923707	-41.720420
2650.264559	-41.789603
2652.609554	-41.826511
2654.958702	-42.103976
2657.312015	-42.066885
2659.669503	-42.474219
2662.031178	-42.598672
2664.397051	-42.993677
2666.767132	-43.408584
2669.141434	-43.789847
2671.519968	-44.258816
2673.902745	-44.849651
2676.289776	-45.246103
2678.681072	-45.809393
2681.076646	-46.227070
2683.476508	-46.516354
2685.880671	-47.232158
2688.289145	-47.602263
2690.701942	-48.197417
2693.119075	-48.562622
2695.540554	-49.154854
2697.966391	-49.407434
2700.396599	-49.743878
2702.831189	-49.877420
2705.270172	-49.565894
2707.713561	-49.887403
2710.161368	-49.226714
2712.613605	-49.105211
2715.070283	-48.844417
2717.531416	-48.369766
2719.997014	-48.218470
2722.467090	-47.941584
2724.941657	-47.765057
2727.420726	-47.621970
2729.904310	-47.460659
2732.392421	-47.557493
2734.885072	-47.542632
2737.382275	-47.904508
2739.884042	-48.021272
2742.390387	-48.286870
2744.901321	-48.827123
2747.416857	-49.114672
2749.937008	-49.551359
2752.461787	-50.136781
2754.991206	-50.431706
2757.525279	-50.969864
2760.064017	-51.530021
2762.607434	-51.993544
2765.155544	-52.568518
2767.708358	-53.497139
2770.265890	-54.458340
2772.828153	-55.415529
2775.395160	-56.929647
2777.966924	-58.219525
2780.543459	-60.149349
2783.124778	-60.558539
2785.710894	-61.342674
2788.301821	-61.901556
2790.897572	-59.935012
2793.498160	-59.393887
2796.103599	-58.310864
2798.713903	-57.024324
2801.329085	-56.378450
2803.949159	-55.546859
2806.574139	-55.115948
2809.204038	-54.600345
2811.838871	-54.184082
2814.478650	-54.819904
2817.123391	-54.417202
2819.773107	-54.490461
2822.427812	-55.245885
2825.087521	-55.036991
2827.752247	-55.160387
2830.422005	-55.484042
2833.096808	-55.675674
2835.776672	-55.495926
2838.461611	-55.500279
2841.151638	-55.866074
2843.846769	-56.234039
2846.547019	-55.887639
2849.252401	-56.898102
2851.962930	-57.929950
2854.678621	-58.384809
2857.399489	-59.657635
2860.125549	-60.957307
2862.856815	-63.106375
2865.593302	-64.075436
2868.335026	-67.538921
2871.082002	-69.992795
2873.834244	-79.191830
2876.591767	-96.561012
2879.354588	-77.451197
2882.122721	-70.534009
2884.896181	-68.496083
2887.674984	-65.345660
2890.459146	-66.098179
2893.248681	-65.662442
2896.043606	-65.363948
2898.843937	-64.737376
2901.649687	-66.014644
2904.460875	-65.452955
2907.277515	-67.349363
2910.099623	-65.162090
2912.927215	-64.313081
2915.760308	-63.406606
2918.598916	-63.065338
2921.443057	-62.504356
2924.292747	-62.244981
2927.148002	-61.605033
2930.008837	-61.391934
2932.875270	-61.395341
2935.747318	-61.862530
2938.624995	-62.830021
2941.508320	-63.261034
2944.397308	-64.094745
2947.291977	-63.827912
2950.192343	-65.911384
2953.098423	-65.982658
2956.010234	-67.762764
2958.927792	-70.100983
2961.851116	-74.454107
2964.780221	-75.214206
2967.715126	-77.255116
2970.655847	-91.174926
2973.602402	-77.673662
2976.554808	-81.562848
2979.513083	-81.738379
2982.477243	-75.376594
2985.447308	-77.271478
2988.423293	-92.820453
2991.405218	-91.622911
2994.393099	-84.958384
2997.386955	-77.537955
