# 2022-03-21_23.14.26
# shape = sech2
# FWHM_ps = 0.1
# carrier_nm = 1542
# frep_MHz = 12126
# pow_mW = 8000
# GDD = 0.0
# propa_len = 0.12555555555555556
# untap_len = 0.01
# taper_len = 0.06555555555555556
# waist_len = 0.02
# uptap_len = 0.02
# untap_scale = 1.0
# waist_scale = 0.1631578947368421
# workingDir = NL_20110305_12 (Spirou)
# axis = slow
# window_ps = 10.0
# steps = 200
# points = 21700
# 
# wavelength [nm]	 power spectral density [dB]
600.043425	-92.760961
600.163550	-89.043048
600.283723	-84.774127
600.403943	-81.426594
600.524212	-79.843633
600.644529	-80.018558
600.764895	-80.924208
600.885308	-81.331348
601.005770	-82.963651
601.126280	-87.085671
601.246839	-92.603144
601.367446	-89.459205
601.488101	-84.473607
601.608804	-81.113855
601.729557	-79.470301
601.850357	-78.816312
601.971206	-78.518462
602.092104	-79.261391
602.213050	-80.755901
602.334045	-83.550816
602.455089	-88.729531
602.576181	-105.476777
602.697322	-90.449275
602.818511	-83.512287
602.939749	-80.339609
603.061036	-78.761785
603.182372	-78.145635
603.303757	-77.329966
603.425191	-77.605794
603.546673	-79.434147
603.668204	-82.827311
603.789785	-87.049870
603.911414	-94.615278
604.033092	-90.403330
604.154820	-83.005360
604.276596	-80.418666
604.398422	-80.016864
604.520297	-79.016190
604.642220	-77.971209
604.764193	-78.611297
604.886216	-82.479714
605.008287	-90.901659
605.130408	-93.807049
605.252578	-92.069602
605.374798	-83.285300
605.497066	-79.061616
605.619385	-78.747048
605.741752	-80.341752
605.864169	-79.759833
605.986636	-78.825540
606.109152	-81.146483
606.231718	-87.176895
606.354333	-87.432884
606.476998	-88.546495
606.599712	-86.550819
606.722476	-79.652605
606.845290	-76.851043
606.968154	-76.705462
607.091067	-77.780672
607.214030	-77.563171
607.337043	-78.124996
607.460106	-82.504638
607.583219	-101.330127
607.706381	-89.309141
607.829594	-86.710760
607.952856	-80.639186
608.076169	-76.979809
608.199531	-76.333019
608.322944	-77.304886
608.446407	-77.822172
608.569920	-78.588713
608.693483	-82.248762
608.817096	-95.190851
608.940759	-88.478661
609.064473	-82.500383
609.188237	-79.032314
609.312051	-76.379530
609.435916	-75.487908
609.559831	-76.292749
609.683796	-77.200660
609.807812	-78.703643
609.931878	-82.793429
610.055995	-87.468596
610.180162	-83.019541
610.304380	-80.757905
610.428648	-78.230316
610.552967	-76.814281
610.677337	-77.355687
610.801757	-80.701008
610.926228	-85.446284
611.050750	-94.426332
611.175323	-84.758835
611.299946	-76.955379
611.424620	-74.117057
611.549345	-73.836383
611.674121	-74.189640
611.798948	-74.096362
611.923826	-75.648028
612.048755	-81.320547
612.173734	-87.004308
612.298765	-82.046458
612.423847	-77.717168
612.548980	-73.568021
612.674165	-71.768525
612.799400	-72.453390
612.924687	-74.424442
613.050025	-75.150279
613.175414	-76.760613
613.300854	-83.501919
613.426346	-82.412768
613.551889	-78.267446
613.677484	-77.496414
613.803130	-74.958575
613.928827	-73.070075
614.054576	-74.670119
614.180377	-80.789398
614.306229	-82.394169
614.432132	-82.280310
614.558087	-87.988375
614.684094	-77.870520
614.810153	-75.203566
614.936263	-76.988015
615.062425	-78.064502
615.188639	-76.339551
615.314904	-79.100716
615.441222	-93.359832
615.567591	-79.309559
615.694012	-77.108314
615.820486	-77.333252
615.947011	-74.855836
616.073588	-74.079388
616.200217	-77.474725
616.326898	-84.758837
616.453632	-81.749837
616.580417	-80.911269
616.707255	-77.094825
616.834144	-73.819744
616.961086	-73.781855
617.088081	-76.575148
617.215127	-80.335008
617.342226	-86.751354
617.469378	-86.067941
617.596581	-76.309722
617.723837	-73.461809
617.851146	-72.808839
617.978507	-72.370607
618.105920	-72.911601
618.233386	-76.529068
618.360905	-86.331452
618.488476	-88.910353
618.616100	-78.432549
618.743777	-73.227982
618.871506	-71.141787
618.999288	-71.480801
619.127123	-72.725201
619.255011	-74.134691
619.382951	-77.911987
619.510945	-97.880531
619.638991	-79.834929
619.767090	-77.214934
619.895243	-75.952921
620.023448	-73.370997
620.151706	-73.478555
620.280017	-77.756524
620.408382	-79.637165
620.536799	-79.113150
620.665270	-84.393885
620.793794	-77.681327
620.922371	-74.127546
621.051002	-74.820553
621.179686	-75.549508
621.308423	-74.195995
621.437213	-75.754967
621.566057	-83.004424
621.694954	-78.801543
621.823905	-77.802832
621.952909	-81.778217
622.081967	-76.600318
622.211079	-75.210897
622.340244	-78.685715
622.469462	-76.929391
622.598735	-75.130448
622.728061	-77.622470
622.857441	-76.137657
622.986874	-73.605409
623.116361	-74.590480
623.245903	-77.311712
623.375498	-78.364295
623.505147	-82.564480
623.634850	-83.459627
623.764606	-75.501667
623.894417	-73.297244
624.024282	-73.345668
624.154201	-73.252129
624.284174	-74.028477
624.414202	-77.393407
624.544283	-79.891538
624.674419	-79.308591
624.804609	-79.845236
624.934853	-79.552251
625.065151	-78.943400
625.195504	-76.974432
625.325911	-74.961259
625.456373	-73.706179
625.586889	-72.048083
625.717460	-71.587772
625.848085	-73.875610
625.978764	-78.064463
626.109498	-81.507159
626.240287	-90.687241
626.371131	-76.639774
626.502029	-73.063595
626.632982	-73.470822
626.763989	-73.068057
626.895052	-71.896049
627.026169	-74.105766
627.157341	-81.328667
627.288568	-80.482114
627.419850	-83.322102
627.551187	-78.804950
627.682579	-72.603192
627.814026	-72.309801
627.945528	-73.770015
628.077085	-71.478096
628.208697	-71.574543
628.340364	-77.232644
628.472087	-81.877451
628.603865	-81.285441
628.735698	-82.568996
628.867586	-72.766307
628.999530	-70.994470
629.131529	-72.844374
629.263584	-72.657375
629.395694	-72.463917
629.527859	-77.787330
629.660080	-88.635683
629.792357	-80.959760
629.924689	-79.614453
630.057077	-73.100666
630.189520	-70.519908
630.322019	-70.964166
630.454574	-72.136580
630.587184	-73.123480
630.719851	-77.123965
630.852573	-83.756740
630.985351	-76.868480
631.118185	-75.098762
631.251075	-74.877473
631.384021	-74.724279
631.517023	-76.054019
631.650081	-77.620631
631.783195	-77.075187
631.916365	-75.692361
632.049592	-75.666948
632.182874	-76.843513
632.316213	-76.008889
632.449608	-75.547121
632.583059	-77.240242
632.716567	-75.203144
632.850131	-73.368988
632.983751	-75.191714
633.117428	-75.267380
633.251161	-74.011150
633.384951	-78.638936
633.518797	-77.082182
633.652700	-73.995223
633.786660	-78.768892
633.920676	-75.957653
634.054749	-73.261348
634.188879	-77.528756
634.323065	-73.981133
634.457308	-71.492093
634.591608	-75.746348
634.725965	-79.056362
634.860379	-76.748219
634.994850	-89.170462
635.129377	-73.984918
635.263962	-71.119093
635.398604	-73.071923
635.533303	-71.197141
635.668058	-69.849992
635.802872	-73.955724
635.937742	-79.555573
636.072669	-77.916693
636.207654	-102.620494
636.342696	-75.738387
636.477796	-73.032900
636.612953	-73.135091
636.748167	-70.438574
636.883439	-70.077979
637.018768	-73.931233
637.154155	-79.360768
637.289599	-81.353208
637.425101	-79.651232
637.560660	-74.023526
637.696277	-73.187326
637.831952	-73.602803
637.967685	-73.108576
638.103475	-73.575009
638.239324	-74.550143
638.375230	-76.291228
638.511194	-80.310371
638.647215	-78.150365
638.783295	-77.335245
638.919433	-75.985699
639.055629	-73.094074
639.191883	-74.021678
639.328195	-74.714705
639.464565	-72.646406
639.600994	-75.877219
639.737481	-81.130040
639.874025	-75.334939
640.010629	-78.006349
640.147290	-73.558825
640.284010	-70.718565
640.420789	-75.137926
640.557625	-75.619595
640.694521	-72.243475
640.831474	-78.771398
640.968487	-77.521124
641.105558	-74.521264
641.242687	-85.885210
641.379876	-72.680759
641.517123	-71.729693
641.654429	-80.523321
641.791793	-74.222656
641.929216	-74.377844
642.066699	-79.573810
642.204240	-70.500879
642.341840	-70.792268
642.479499	-78.342169
642.617217	-74.238930
642.754994	-77.494604
642.892830	-80.246308
643.030726	-71.775440
643.168680	-73.706479
643.306694	-76.627121
643.444767	-73.796188
643.582899	-81.021991
643.721091	-78.102439
643.859342	-73.205016
643.997652	-74.912768
644.136022	-73.579797
644.274451	-72.442314
644.412940	-76.108126
644.551488	-77.245321
644.690096	-76.775793
644.828763	-78.870329
644.967490	-75.472593
645.106277	-73.210915
645.245124	-73.613112
645.384030	-76.438895
645.522997	-80.859389
645.662023	-80.051925
645.801109	-76.457775
645.940255	-72.275848
646.079460	-72.458045
646.218726	-76.937920
646.358052	-75.600676
646.497438	-77.833715
646.636884	-83.250704
646.776391	-74.327370
646.915957	-77.010864
647.055584	-72.620382
647.195271	-69.038320
647.335019	-71.374776
647.474826	-74.536204
647.614695	-73.417018
647.754623	-77.541846
647.894612	-75.103783
648.034662	-74.027232
648.174772	-72.795768
648.314943	-68.121941
648.455174	-68.462195
648.595466	-74.072165
648.735819	-76.016104
648.876233	-78.922782
649.016707	-77.362166
649.157242	-72.769474
649.297838	-73.571146
649.438495	-70.031996
649.579213	-67.811214
649.719992	-69.838980
649.860832	-74.831823
650.001733	-78.822966
650.142695	-75.286202
650.283718	-70.371514
650.424803	-69.091910
650.565949	-70.384547
650.707156	-72.037801
650.848424	-73.967492
650.989754	-81.816105
651.131145	-82.960323
651.272597	-77.412224
651.414111	-79.399630
651.555687	-75.357550
651.697324	-74.362292
651.839022	-82.462722
651.980782	-77.489186
652.122604	-76.428913
652.264488	-84.503378
652.406433	-74.586360
652.548441	-77.001132
652.690510	-83.534790
652.832640	-74.112533
652.974833	-79.807764
653.117088	-76.706880
653.259405	-72.597411
653.401784	-79.929108
653.544224	-78.701273
653.686727	-77.117897
653.829293	-81.493377
653.971920	-72.464251
654.114609	-73.611297
654.257361	-76.567990
654.400175	-72.365051
654.543052	-75.052613
654.685991	-79.271255
654.828992	-77.624573
654.972056	-77.190194
655.115183	-70.744997
655.258372	-70.109144
655.401623	-74.836477
655.544937	-82.166769
655.688314	-80.422432
655.831754	-73.184606
655.975256	-70.257478
656.118822	-70.850744
656.262450	-72.790097
656.406141	-74.474698
656.549894	-77.181711
656.693711	-78.240163
656.837591	-76.253849
656.981534	-76.597110
657.125540	-75.397761
657.269610	-73.444464
657.413742	-76.416308
657.557938	-85.612367
657.702196	-79.612150
657.846519	-82.630357
657.990904	-81.134873
658.135353	-84.938718
658.279866	-79.910218
658.424441	-72.829205
658.569081	-74.733548
658.713784	-94.144057
658.858550	-79.108961
659.003381	-80.563150
659.148274	-79.078160
659.293232	-79.220679
659.438253	-78.870130
659.583339	-74.312185
659.728488	-77.612753
659.873701	-84.141958
660.018978	-75.662887
660.164318	-76.004925
660.309723	-76.469892
660.455192	-78.330099
660.600725	-101.309237
660.746323	-79.894377
660.891984	-78.274034
661.037710	-80.018621
661.183500	-81.764207
661.329354	-88.196397
661.475272	-83.276152
661.621255	-82.312511
661.767303	-90.669817
661.913415	-88.428022
662.059591	-81.173707
662.205833	-79.452787
662.352138	-81.171829
662.498509	-88.325068
662.644944	-87.430073
662.791443	-80.317765
662.938008	-77.821889
663.084638	-80.044122
663.231332	-82.625562
663.378091	-76.625613
663.524915	-76.852186
663.671804	-84.930628
663.818759	-84.132321
663.965778	-82.235767
664.112863	-81.435094
664.260012	-90.191817
664.407227	-78.146069
664.554507	-72.329452
664.701853	-74.894568
664.849264	-92.183138
664.996740	-77.700194
665.144282	-76.575053
665.291889	-73.495711
665.439561	-76.538684
665.587300	-77.017686
665.735103	-71.290509
665.882973	-74.262825
666.030908	-88.602375
666.178909	-84.984486
666.326976	-80.510696
666.475109	-75.418968
666.623307	-81.194858
666.771571	-75.647294
666.919902	-73.078748
667.068298	-80.429831
667.216761	-78.115075
667.365289	-76.721337
667.513884	-79.692807
667.662545	-74.808957
667.811272	-77.475572
667.960065	-82.943818
668.108925	-76.462242
668.257851	-73.852680
668.406843	-71.257101
668.555902	-71.875192
668.705027	-80.570323
668.854219	-80.432245
669.003478	-76.577922
669.152803	-73.696125
669.302195	-69.316545
669.451653	-71.351074
669.601179	-76.665323
669.750771	-77.609679
669.900430	-75.583641
670.050156	-69.196515
670.199949	-71.566032
670.349808	-72.790437
670.499735	-72.175644
670.649729	-86.817568
670.799790	-72.662978
670.949918	-78.669076
671.100114	-72.381428
671.250377	-67.760276
671.400707	-69.417819
671.551104	-68.902268
671.701569	-70.987763
671.852101	-78.154038
672.002700	-72.118529
672.153368	-71.619407
672.304102	-68.045208
672.454905	-68.958547
672.605775	-75.294306
672.756713	-70.415831
672.907718	-72.151675
673.058791	-73.378340
673.209933	-73.735230
673.361142	-76.267982
673.512419	-69.349371
673.663764	-70.368792
673.815177	-72.971386
673.966658	-69.796196
674.118207	-72.713493
674.269825	-73.611252
674.421510	-73.813748
674.573264	-71.471634
674.725086	-66.227296
674.876977	-68.903882
675.028936	-70.257818
675.180963	-68.514351
675.333059	-75.282350
675.485224	-70.393612
675.637457	-76.259159
675.789758	-68.711249
675.942129	-67.778126
676.094568	-72.461608
676.247075	-66.157757
676.399652	-68.849148
676.552298	-70.545432
676.705012	-72.276682
676.857795	-69.026240
677.010648	-63.877188
677.163569	-67.043733
677.316560	-74.578653
677.469619	-73.772595
677.622748	-69.288541
677.775946	-66.162136
677.929214	-68.552777
678.082551	-66.048857
678.235957	-65.806113
678.389432	-74.565264
678.542977	-70.439834
678.696592	-65.446925
678.850276	-63.712097
679.004030	-65.545039
679.157853	-79.140663
679.311746	-67.843029
679.465709	-65.797208
679.619742	-67.290922
679.773844	-66.993629
679.928017	-68.398314
680.082259	-66.661937
680.236571	-70.223506
680.390954	-68.559396
680.545406	-63.165590
680.699929	-64.638334
680.854522	-65.501659
681.009185	-68.902534
681.163918	-69.886175
681.318722	-66.143943
681.473596	-70.694986
681.628540	-64.486507
681.783555	-66.171885
681.938641	-66.394309
682.093797	-65.763180
682.249023	-68.057492
682.404321	-63.285055
682.559689	-66.898695
682.715128	-65.857949
682.870637	-65.754680
683.026218	-68.767155
683.181869	-65.851651
683.337591	-68.196913
683.493385	-63.924780
683.649249	-65.625916
683.805185	-67.423491
683.961191	-64.610795
684.117269	-65.263268
684.273418	-64.166136
684.429639	-66.482556
684.585930	-65.897906
684.742294	-63.678687
684.898728	-66.045388
685.055234	-66.239204
685.211812	-66.801781
685.368461	-65.526297
685.525182	-64.602291
685.681975	-67.911434
685.838839	-63.402622
685.995775	-62.900016
686.152783	-62.138757
686.309863	-62.813467
686.467014	-69.700217
686.624238	-65.992264
686.781534	-67.194026
686.938902	-63.690224
687.096342	-64.136427
687.253854	-63.895389
687.411438	-62.327405
687.569095	-66.351613
687.726824	-64.696474
687.884626	-64.645353
688.042499	-62.367881
688.200446	-62.332235
688.358465	-66.462426
688.516556	-65.024968
688.674720	-66.513098
688.832957	-64.767800
688.991266	-64.118561
689.149649	-62.658160
689.308104	-60.448341
689.466632	-63.331205
689.625233	-64.808077
689.783906	-66.044778
689.942653	-63.551774
690.101473	-61.841895
690.260367	-66.093977
690.419333	-64.112441
690.578372	-65.710552
690.737485	-61.516764
690.896672	-62.088259
691.055931	-64.808312
691.215264	-63.544153
691.374671	-64.576437
691.534151	-60.272795
691.693704	-62.476922
691.853332	-62.900517
692.013033	-65.533888
692.172807	-66.302688
692.332656	-63.014940
692.492578	-63.004059
692.652575	-60.669044
692.812645	-63.224568
692.972789	-62.623416
693.133007	-62.806679
693.293300	-62.684997
693.453666	-62.548362
693.614107	-64.848059
693.774622	-63.146695
693.935211	-63.333115
694.095875	-63.640659
694.256613	-64.016995
694.417426	-63.251447
694.578313	-60.617120
694.739274	-60.798069
694.900311	-61.349879
695.061421	-62.574703
695.222607	-65.393764
695.383868	-63.726741
695.545203	-65.032581
695.706613	-61.309125
695.868098	-62.489036
696.029658	-61.354585
696.191293	-62.550465
696.353003	-63.177811
696.514789	-61.213410
696.676649	-62.428917
696.838585	-60.429093
697.000596	-64.424029
697.162682	-62.779786
697.324844	-64.982801
697.487081	-62.374588
697.649394	-62.172566
697.811782	-61.460082
697.974246	-59.944017
698.136786	-62.083845
698.299401	-61.133161
698.462092	-64.339450
698.624859	-62.227971
698.787702	-63.178454
698.950621	-62.658292
699.113616	-62.835621
699.276686	-62.613879
699.439833	-60.466344
699.603056	-61.031792
699.766355	-60.993822
699.929731	-63.223446
700.093183	-62.551065
700.256711	-61.392015
700.420315	-61.770693
700.583996	-62.041853
700.747754	-63.963548
700.911588	-62.295280
701.075499	-62.683744
701.239486	-61.042641
701.403550	-60.261113
701.567691	-60.211291
701.731909	-60.657766
701.896203	-64.357394
702.060575	-62.814636
702.225024	-63.204547
702.389549	-61.108584
702.554152	-62.341407
702.718832	-60.934015
702.883589	-60.839824
703.048424	-61.045448
703.213335	-60.885572
703.378324	-61.984891
703.543391	-60.864090
703.708535	-62.943588
703.873757	-62.463287
704.039056	-63.239125
704.204433	-60.734262
704.369887	-60.543052
704.535420	-60.958529
704.701030	-61.194744
704.866718	-61.370012
705.032484	-59.857153
705.198328	-61.534166
705.364250	-62.293302
705.530250	-64.701104
705.696328	-61.262806
705.862485	-60.394649
706.028720	-59.664889
706.195033	-60.174709
706.361424	-61.231448
706.527894	-61.002639
706.694442	-62.511972
706.861069	-61.462554
707.027775	-61.282597
707.194559	-59.633878
707.361422	-61.282994
707.528363	-62.652156
707.695384	-62.292065
707.862483	-59.471091
708.029661	-58.837302
708.196918	-59.876351
708.364254	-60.898038
708.531670	-62.196305
708.699164	-62.297513
708.866738	-62.174211
709.034391	-59.917773
709.202123	-59.105360
709.369935	-59.610699
709.537826	-60.531586
709.705796	-61.316689
709.873847	-60.824813
710.041976	-61.416848
710.210186	-59.869777
710.378475	-59.704708
710.546844	-59.684259
710.715292	-62.038587
710.883821	-61.027870
711.052429	-59.789126
711.221118	-58.929248
711.389887	-59.654418
711.558735	-60.166228
711.727664	-60.123017
711.896673	-61.092373
712.065763	-60.690669
712.234932	-59.669304
712.404183	-58.853962
712.573513	-60.770483
712.742924	-60.683142
712.912416	-58.662045
713.081988	-57.351188
713.251641	-59.408472
713.421375	-63.074185
713.591190	-61.021136
713.761085	-57.963171
713.931061	-57.701630
714.101119	-59.428555
714.271257	-60.641203
714.441476	-60.619287
714.611777	-59.048842
714.782159	-57.670916
714.952622	-56.892814
715.123166	-58.644492
715.293792	-62.908196
715.464499	-62.403936
715.635288	-57.723836
715.806158	-56.237471
715.977110	-56.541710
716.148143	-58.349344
716.319259	-61.601192
716.490456	-61.623319
716.661735	-57.613785
716.833096	-55.763301
717.004538	-56.958470
717.176063	-61.765230
717.347670	-61.645488
717.519359	-56.522798
717.691130	-54.958025
717.862984	-56.324790
718.034920	-60.234260
718.206938	-61.940377
718.379039	-58.263052
718.551222	-56.228253
718.723488	-56.092803
718.895836	-58.201237
719.068267	-60.680873
719.240781	-58.452532
719.413377	-55.797064
719.586057	-55.780461
719.758819	-57.706890
719.931664	-59.880804
720.104593	-59.002424
720.277604	-57.858245
720.450699	-56.798767
720.623876	-55.925043
720.797137	-56.027882
720.970482	-57.889681
721.143910	-59.356426
721.317421	-57.676558
721.491016	-56.189992
721.664694	-56.375754
721.838456	-57.234317
722.012302	-57.832098
722.186231	-57.632704
722.360244	-56.559120
722.534342	-55.418986
722.708523	-55.789315
722.882788	-57.861700
723.057137	-58.664424
723.231570	-56.224428
723.406088	-55.355444
723.580689	-56.625701
723.755375	-57.891080
723.930146	-56.266726
724.105000	-55.093146
724.279940	-55.374908
724.454963	-56.520081
724.630072	-57.638930
724.805265	-57.654580
724.980543	-55.971980
725.155905	-54.368939
725.331353	-54.857362
725.506885	-57.065541
725.682503	-57.598023
725.858205	-55.077952
726.033993	-54.425280
726.209865	-55.706805
726.385823	-57.592571
726.561866	-56.518745
726.737995	-54.979060
726.914209	-54.240233
727.090508	-54.961784
727.266893	-56.694364
727.443364	-56.934758
727.619920	-54.546389
727.796562	-53.514857
727.973290	-55.146668
728.150103	-58.590208
728.327003	-56.323392
728.503988	-53.196983
728.681060	-52.792592
728.858218	-54.663033
729.035461	-57.380207
729.212791	-56.580286
729.390208	-54.704006
729.567710	-53.888558
729.745299	-54.239243
729.922975	-55.225843
730.100737	-55.706770
730.278586	-54.572764
730.456521	-53.894555
730.634543	-54.431723
730.812652	-55.893574
730.990848	-55.665218
731.169130	-54.633862
731.347500	-53.769316
731.525957	-53.760541
731.704500	-53.915626
731.883131	-55.155667
732.061850	-55.244650
732.240655	-54.801730
732.419548	-54.028137
732.598528	-54.428858
732.777596	-54.106616
732.956751	-54.227498
733.135994	-54.208545
733.315325	-54.548106
733.494744	-53.701317
733.674250	-53.900363
733.853844	-54.466235
734.033526	-55.262940
734.213296	-54.453379
734.393154	-53.836307
734.573101	-52.951041
734.753135	-52.956461
734.933258	-53.898392
735.113469	-56.126659
735.293769	-54.746936
735.474157	-52.880016
735.654633	-52.810252
735.835198	-54.528084
736.015852	-54.342026
736.196594	-53.333754
736.377426	-53.310084
736.558346	-54.488015
736.739355	-54.196883
736.920453	-53.622479
737.101640	-53.571284
737.282916	-53.705547
737.464282	-53.541183
737.645736	-53.724559
737.827280	-53.946961
738.008914	-53.363468
738.190637	-53.564432
738.372449	-54.213045
738.554351	-54.178590
738.736342	-52.791848
738.918424	-53.117360
739.100595	-54.134044
739.282855	-54.292296
739.465206	-52.866947
739.647647	-53.108635
739.830178	-53.731613
740.012799	-54.585454
740.195510	-53.999820
740.378311	-53.563869
740.561203	-52.458383
740.744185	-52.942538
740.927258	-53.852470
741.110421	-54.728828
741.293674	-53.288337
741.477018	-53.441571
741.660453	-53.645744
741.843979	-54.168470
742.027596	-53.002168
742.211303	-52.837214
742.395102	-52.797368
742.578991	-54.533398
742.762972	-55.252241
742.947044	-53.758545
743.131207	-52.121768
743.315461	-52.750992
743.499807	-54.267439
743.684244	-54.128762
743.868773	-53.043055
744.053394	-53.556458
744.238106	-54.486839
744.422910	-54.052170
744.607805	-53.377110
744.792793	-53.097400
744.977872	-53.155674
745.163044	-53.576745
745.348307	-54.708825
745.533663	-54.248584
745.719111	-53.665931
745.904651	-53.218328
746.090283	-53.914233
746.276008	-53.414177
746.461826	-54.304013
746.647735	-54.253673
746.833738	-53.704609
747.019833	-52.925534
747.206021	-55.095681
747.392302	-55.732873
747.578676	-53.025712
747.765143	-51.932524
747.951703	-53.747889
748.138356	-56.059428
748.325102	-54.797268
748.511941	-53.747081
748.698874	-53.675023
748.885900	-54.164040
749.073019	-54.446029
749.260232	-54.946570
749.447539	-53.652605
749.634939	-53.805226
749.822433	-54.740568
750.010021	-55.948166
750.197703	-54.100305
750.385479	-54.280820
750.573348	-54.593348
750.761312	-54.268318
750.949370	-53.622593
751.137523	-55.018919
751.325769	-56.793111
751.514110	-55.321146
751.702545	-54.370588
751.891075	-53.716510
752.079700	-54.491720
752.268419	-54.965843
752.457233	-56.510080
752.646142	-55.543870
752.835145	-54.981596
753.024244	-54.928647
753.213437	-55.987108
753.402726	-55.397901
753.592110	-54.340887
753.781589	-54.589794
753.971163	-56.191155
754.160833	-58.365298
754.350598	-55.921657
754.540459	-54.389436
754.730415	-54.180762
754.920467	-56.579215
755.110615	-56.603972
755.300858	-55.593021
755.491198	-56.310901
755.681633	-58.652623
755.872164	-56.328752
756.062792	-53.652381
756.253515	-54.634252
756.444335	-57.804425
756.635252	-59.151395
756.826264	-56.164423
757.017373	-56.218871
757.208579	-56.855984
757.399881	-57.092375
757.591280	-55.992994
757.782776	-55.671372
757.974368	-57.543815
758.166058	-59.879858
758.357844	-58.577147
758.549728	-55.394822
758.741708	-55.890038
758.933786	-56.816765
759.125961	-57.552950
759.318233	-58.411179
759.510603	-60.589917
759.703071	-57.721271
759.895635	-54.784032
760.088298	-56.581610
760.281058	-59.963716
760.473916	-58.349225
760.666872	-56.136903
760.859926	-58.823872
761.053078	-60.639947
761.246328	-57.237167
761.439676	-56.279747
761.633122	-56.733549
761.826667	-59.047088
762.020310	-58.990290
762.214052	-59.173318
762.407892	-58.148081
762.601831	-58.289621
762.795868	-56.203458
762.990004	-55.325059
763.184239	-59.046936
763.378573	-63.063039
763.573006	-56.493647
763.767538	-54.411602
763.962169	-58.924336
764.156900	-59.733364
764.351729	-55.413048
764.546658	-55.804126
764.741687	-60.362616
764.936815	-60.142643
765.132042	-55.273426
765.327370	-55.379060
765.522797	-56.163410
765.718324	-58.892785
765.913950	-57.651627
766.109677	-56.087834
766.305504	-58.018224
766.501431	-56.753916
766.697458	-54.715983
766.893586	-54.386159
767.089814	-59.077051
767.286142	-57.084319
767.482571	-54.437213
767.679100	-56.607801
767.875730	-56.437819
768.072461	-53.793370
768.269293	-53.360759
768.466225	-57.728627
768.663259	-56.941734
768.860393	-53.733170
769.057629	-53.866486
769.254966	-54.831724
769.452404	-55.324936
769.649944	-53.491077
769.847585	-53.728838
770.045328	-55.126101
770.243172	-55.143204
770.441118	-52.883292
770.639166	-52.249905
770.837315	-54.456665
771.035567	-53.381192
771.233920	-52.344401
771.432376	-54.105544
771.630934	-54.698386
771.829594	-51.245472
772.028356	-50.341451
772.227220	-53.374652
772.426188	-54.446644
772.625257	-51.551607
772.824430	-51.131121
773.023705	-52.593619
773.223083	-52.175028
773.422563	-50.394672
773.622147	-50.984495
773.821834	-52.782445
774.021624	-51.923966
774.221517	-50.218744
774.421513	-50.339787
774.621613	-51.431082
774.821816	-50.353602
775.022122	-49.857818
775.222532	-51.372281
775.423046	-51.589765
775.623664	-49.435985
775.824385	-48.535937
776.025211	-49.772366
776.226140	-50.934219
776.427173	-49.891803
776.628311	-49.574999
776.829553	-49.691470
777.030899	-48.721381
777.232350	-47.976236
777.433905	-49.381007
777.635564	-50.953684
777.837328	-48.369057
778.039197	-47.550887
778.241171	-48.870287
778.443250	-49.065070
778.645433	-47.800444
778.847722	-47.779201
779.050116	-49.098507
779.252615	-48.462373
779.455219	-47.392570
779.657929	-47.381890
779.860744	-47.693219
780.063665	-48.092572
780.266691	-47.453119
780.469823	-47.377386
780.673061	-47.623797
780.876405	-46.949606
781.079855	-46.765740
781.283410	-47.001128
781.487072	-47.243571
781.690840	-46.884235
781.894715	-46.841941
782.098695	-46.704834
782.302783	-45.765156
782.506976	-46.317503
782.711277	-47.190253
782.915684	-46.396725
783.120198	-45.753197
783.324818	-45.860158
783.529546	-46.306113
783.734381	-45.617593
783.939322	-45.338014
784.144372	-46.303044
784.349528	-46.222817
784.554792	-45.022351
784.760163	-44.648804
784.965642	-45.772277
785.171228	-45.813231
785.376922	-44.502634
785.582724	-45.122613
785.788634	-45.962337
785.994651	-44.622941
786.200777	-43.864484
786.407011	-44.632891
786.613353	-45.793467
786.819804	-44.939309
787.026363	-43.919088
787.233030	-44.007302
787.439806	-44.528712
787.646691	-44.647753
787.853684	-44.076006
788.060786	-44.215693
788.267997	-44.582976
788.475317	-43.644386
788.682746	-43.180523
788.890285	-43.965852
789.097932	-44.722750
789.305689	-43.922874
789.513555	-42.938469
789.721531	-43.126773
789.929617	-43.898584
790.137812	-43.840688
790.346117	-43.144612
790.554531	-43.079038
790.763056	-43.544628
790.971691	-43.168338
791.180436	-42.646321
791.389291	-43.011508
791.598256	-43.411672
791.807332	-43.020658
792.016518	-42.554698
792.225815	-42.580696
792.435222	-42.814781
792.644740	-42.733928
792.854369	-42.495172
793.064109	-42.546926
793.273960	-42.736440
793.483922	-42.369920
793.693995	-41.906252
793.904180	-42.159307
794.114475	-42.626845
794.324882	-42.447304
794.535401	-41.902604
794.746031	-41.700087
794.956774	-42.013047
795.167627	-42.154068
795.378593	-41.851809
795.589671	-41.844346
795.800861	-42.089016
796.012162	-41.575126
796.223577	-40.958374
796.435103	-41.677672
796.646742	-42.549792
796.858493	-41.411581
797.070357	-40.849397
797.282334	-41.445574
797.494423	-41.403484
797.706626	-41.291825
797.918941	-41.724273
798.131369	-41.307352
798.343911	-40.648641
798.556566	-40.838223
798.769334	-41.425397
798.982215	-41.454821
799.195210	-40.858776
799.408319	-40.629855
799.621541	-41.028835
799.834877	-40.890454
800.048327	-40.517010
800.261890	-41.127072
800.475568	-41.163024
800.689360	-40.111264
800.903266	-40.290441
801.117287	-41.055124
801.331422	-40.613560
801.545671	-40.439505
801.760036	-40.565257
801.974514	-40.221452
802.189108	-40.286900
802.403816	-40.422741
802.618640	-40.392983
802.833578	-40.533586
803.048632	-40.013701
803.263800	-39.829757
803.479085	-40.504355
803.694484	-40.146227
803.909999	-39.793253
804.125630	-40.462108
804.341376	-40.043155
804.557239	-39.436650
804.773217	-40.082549
804.989311	-40.284872
805.205521	-39.727933
805.421847	-39.729938
805.638290	-39.882875
805.854849	-39.793080
806.071524	-39.577753
806.288316	-39.670130
806.505225	-40.109148
806.722250	-39.640497
806.939393	-39.092328
807.156652	-39.665078
807.374028	-39.894210
807.591521	-39.417608
807.809132	-39.578709
808.026859	-39.460593
808.244705	-39.050974
808.462667	-39.456555
808.680748	-39.795925
808.898946	-39.361996
809.117261	-39.035112
809.335695	-39.127374
809.554246	-39.442511
809.772916	-39.342863
809.991704	-39.131539
810.210610	-39.362209
810.429634	-39.054460
810.648777	-38.701962
810.868039	-39.382614
811.087419	-39.500515
811.306918	-38.753180
811.526535	-38.891291
811.746272	-39.149285
811.966127	-38.871588
812.186102	-39.054200
812.406196	-39.230183
812.626409	-38.785834
812.846742	-38.592102
813.067194	-38.989021
813.287766	-39.168742
813.508457	-38.726828
813.729269	-38.750408
813.950200	-39.069746
814.171251	-38.526981
814.392422	-38.478983
814.613714	-39.386754
814.835126	-38.954919
815.056658	-38.117683
815.278311	-38.591131
815.500084	-39.126194
815.721978	-38.752337
815.943993	-38.585493
816.166128	-38.666635
816.388385	-38.520708
816.610762	-38.513471
816.833261	-38.902013
817.055881	-38.839199
817.278623	-38.290638
817.501486	-38.396753
817.724471	-38.743185
817.947577	-38.563673
818.170805	-38.618827
818.394155	-38.668280
818.617627	-38.240620
818.841221	-38.288148
819.064937	-38.790768
819.288775	-38.706955
819.512736	-38.273924
819.736819	-38.287858
819.961025	-38.453522
820.185354	-38.376324
820.409805	-38.600293
820.634379	-38.667362
820.859076	-38.021364
821.083897	-38.076866
821.308840	-38.768203
821.533907	-38.538532
821.759097	-38.203080
821.984411	-38.322284
822.209848	-38.231387
822.435409	-38.279368
822.661093	-38.583107
822.886902	-38.503529
823.112834	-38.074489
823.338891	-38.042624
823.565072	-38.544884
823.791377	-38.569836
824.017807	-38.215735
824.244361	-38.194986
824.471039	-38.164574
824.697843	-38.373758
824.924771	-38.578192
825.151824	-38.174583
825.379002	-38.146265
825.606306	-38.346680
825.833734	-38.240554
826.061288	-38.369476
826.288967	-38.386714
826.516772	-38.228137
826.744703	-38.126850
826.972759	-38.087060
827.200941	-38.579294
827.429249	-38.586745
827.657683	-37.871480
827.886243	-37.960301
828.114930	-38.502133
828.343743	-38.620219
828.572682	-38.229947
828.801748	-37.854367
829.030941	-38.285222
829.260260	-38.538747
829.489706	-38.201931
829.719280	-38.349169
829.948980	-38.229372
830.178808	-38.008348
830.408763	-38.390492
830.638845	-38.581384
830.869055	-38.301761
831.099393	-37.945465
831.329858	-38.194106
831.560451	-38.690870
831.791173	-38.328981
832.022022	-38.202941
832.252999	-38.210382
832.484105	-38.134230
832.715339	-38.750150
832.946702	-38.491796
833.178193	-37.923605
833.409813	-38.322797
833.641561	-38.459841
833.873439	-38.539502
834.105445	-38.394295
834.337581	-38.078332
834.569846	-38.493920
834.802241	-38.326040
835.034764	-38.367398
835.267418	-38.840271
835.500201	-37.965511
835.733114	-38.036416
835.966157	-38.955201
836.199329	-38.484613
836.432632	-38.147347
836.666065	-38.263794
836.899629	-38.442367
837.133323	-38.583458
837.367147	-38.520183
837.601102	-38.354423
837.835188	-37.940712
838.069405	-38.599158
838.303752	-39.082931
838.538231	-37.867025
838.772841	-38.193058
839.007582	-38.809238
839.242455	-38.223196
839.477459	-38.713590
839.712595	-38.449850
839.947863	-37.853404
840.183263	-38.739080
840.418794	-39.004489
840.654458	-38.064809
840.890254	-38.015301
841.126182	-39.017813
841.362242	-38.601554
841.598435	-37.922734
841.834761	-38.993453
842.071220	-38.505104
842.307811	-37.881192
842.544536	-39.188039
842.781393	-38.580404
843.018384	-37.935374
843.255508	-38.776017
843.492765	-38.730091
843.730156	-38.486832
843.967681	-38.395867
844.205339	-38.535888
844.443132	-38.702988
844.681058	-38.425923
844.919118	-38.708086
845.157313	-38.491070
845.395642	-38.263820
845.634105	-38.933966
845.872703	-38.637022
846.111436	-38.141833
846.350303	-38.564722
846.589306	-38.972884
846.828443	-38.413309
847.067716	-38.131677
847.307124	-38.914648
847.546667	-38.626599
847.786345	-38.182870
848.026160	-38.832987
848.266110	-38.447448
848.506195	-38.275412
848.746417	-38.927550
848.986775	-38.414786
849.227269	-38.162131
849.467899	-38.738877
849.708666	-38.634031
849.949569	-38.326841
850.190609	-38.416180
850.431785	-38.444706
850.673099	-38.611800
850.914549	-38.524047
851.156137	-38.148858
851.397861	-38.447432
851.639723	-38.686865
851.881723	-38.325059
852.123860	-38.226401
852.366135	-38.409952
852.608547	-38.486584
852.851098	-38.389571
853.093786	-38.292133
853.336613	-38.147956
853.579578	-38.422689
853.822681	-38.542678
854.065923	-38.042002
854.309304	-38.248055
854.552823	-38.296383
854.796481	-38.283684
855.040278	-38.452005
855.284215	-37.771792
855.528290	-38.214162
855.772505	-38.627654
856.016859	-37.879429
856.261353	-38.037639
856.505987	-38.146289
856.750760	-38.287860
856.995673	-38.122807
857.240727	-37.759494
857.485920	-38.122461
857.731254	-38.155120
857.976729	-38.122841
858.222343	-37.650741
858.468099	-37.851208
858.713995	-38.467270
858.960032	-37.560623
859.206211	-37.765492
859.452530	-37.995258
859.698991	-37.766513
859.945593	-37.951682
860.192336	-37.457380
860.439222	-37.857716
860.686248	-37.801426
860.933417	-37.541130
861.180728	-37.730279
861.428181	-37.341990
861.675776	-37.856408
861.923514	-37.546210
862.171394	-37.205092
862.419417	-37.668026
862.667582	-37.484361
862.915890	-37.377370
863.164342	-37.176265
863.412936	-37.492128
863.661674	-37.287184
863.910555	-37.115750
864.159579	-37.365363
864.408747	-36.882530
864.658059	-37.458765
864.907515	-37.052455
865.157114	-36.655819
865.406858	-37.436328
865.656746	-36.851414
865.906778	-36.774668
866.156955	-36.987427
866.407277	-36.806655
866.657743	-36.771518
866.908354	-36.855440
867.159110	-36.614963
867.410011	-36.414851
867.661057	-37.125113
867.912249	-36.335310
868.163586	-36.157289
868.415069	-36.958352
868.666697	-36.325312
868.918472	-36.277531
869.170392	-36.270839
869.422458	-36.420523
869.674671	-36.338214
869.927030	-35.952007
870.179536	-36.233237
870.432188	-36.096079
870.684987	-36.172084
870.937933	-35.865724
871.191026	-35.825227
871.444266	-36.151315
871.697653	-35.762938
871.951188	-35.723136
872.204870	-35.684725
872.458700	-35.886120
872.712677	-35.610911
872.966803	-35.383759
873.221076	-35.684476
873.475498	-35.486574
873.730068	-35.464178
873.984787	-35.161682
874.239654	-35.390908
874.494669	-35.468186
874.749834	-34.930220
875.005147	-35.230492
875.260610	-35.086057
875.516222	-35.053181
875.771983	-35.046314
876.027894	-34.671984
876.283954	-35.029880
876.540164	-34.907535
876.796524	-34.615911
877.053033	-34.689931
877.309693	-34.654624
877.566503	-34.818453
877.823464	-34.317065
878.080575	-34.392537
878.337837	-34.825623
878.595249	-34.153340
878.852813	-34.330375
879.110528	-34.370947
879.368393	-34.244869
879.626410	-34.255880
879.884579	-33.963154
880.142899	-34.228454
880.401371	-34.073346
880.659994	-34.027493
880.918770	-33.773373
881.177698	-34.005964
881.436778	-34.016865
881.696010	-33.514116
881.955395	-33.932210
882.214933	-33.643164
882.474623	-33.775453
882.734467	-33.536019
882.994463	-33.492812
883.254613	-33.682595
883.514916	-33.374710
883.775372	-33.495187
884.035982	-33.188430
884.296746	-33.660734
884.557664	-33.097793
884.818735	-33.173349
885.079961	-33.412748
885.341341	-32.917224
885.602876	-33.339769
885.864565	-32.833340
886.126409	-33.107882
886.388407	-33.025947
886.650561	-32.894288
886.912870	-32.742529
887.175334	-32.922828
887.437953	-32.941171
887.700728	-32.315956
887.963658	-33.077338
888.226745	-32.493370
888.489987	-32.599301
888.753385	-32.590822
889.016940	-32.402858
889.280651	-32.676181
889.544518	-32.200324
889.808543	-32.514679
890.072723	-32.286767
890.337061	-32.366295
890.601556	-32.204845
890.866208	-32.197610
891.131017	-32.208343
891.395984	-32.142346
891.661109	-32.025331
891.926391	-31.989606
892.191831	-32.228063
892.457429	-31.696001
892.723186	-32.034439
892.989100	-31.858121
893.255173	-31.829488
893.521405	-31.726486
893.787796	-31.726812
894.054345	-31.796957
894.321053	-31.484535
894.587921	-31.751392
894.854948	-31.392337
895.122134	-31.666419
895.389480	-31.366389
895.656986	-31.340609
895.924651	-31.528161
896.192477	-31.202795
896.460463	-31.282859
896.728609	-31.192937
896.996915	-31.256530
897.265382	-31.000105
897.534010	-31.130165
897.802799	-31.003937
898.071749	-30.956857
898.340860	-30.963653
898.610132	-30.692463
898.879566	-31.039864
899.149162	-30.632763
899.418919	-30.633630
899.688838	-30.856671
899.958919	-30.445296
900.229162	-30.649424
900.499568	-30.444019
900.770136	-30.527566
901.040867	-30.408666
901.311761	-30.322510
901.582817	-30.404212
901.854037	-30.250511
902.125420	-30.272451
902.396966	-30.098397
902.668676	-30.341365
902.940550	-29.952011
903.212587	-30.186403
903.484788	-29.989561
903.757153	-30.042373
904.029683	-29.968061
904.302377	-29.808440
904.575236	-30.097989
904.848259	-29.662528
905.121447	-29.934948
905.394800	-29.693739
905.668319	-29.875208
905.942002	-29.554077
906.215852	-29.738484
906.489866	-29.674714
906.764047	-29.509412
907.038393	-29.611062
907.312906	-29.512194
907.587584	-29.519984
907.862429	-29.383110
908.137441	-29.483226
908.412619	-29.316556
908.687964	-29.456626
908.963476	-29.103501
909.239155	-29.539042
909.515002	-29.040637
909.791015	-29.259943
910.067197	-29.199286
910.343546	-29.063145
910.620063	-29.186877
910.896748	-28.916440
911.173601	-29.218775
911.450623	-28.840876
911.727813	-29.002116
912.005171	-28.941325
912.282699	-28.882223
912.560395	-28.788298
912.838261	-28.905974
913.116296	-28.702332
913.394500	-28.820825
913.672874	-28.591182
913.951418	-28.815959
914.230131	-28.550320
914.509015	-28.564714
914.788068	-28.717620
915.067292	-28.369621
915.346687	-28.656050
915.626252	-28.352317
915.905988	-28.559834
916.185895	-28.342922
916.465973	-28.368537
916.746223	-28.461419
917.026644	-28.221881
917.307236	-28.349185
917.588000	-28.294798
917.868937	-28.234388
918.150045	-28.207045
918.431325	-28.214047
918.712778	-28.218140
918.994404	-28.050270
919.276202	-28.202171
919.558173	-28.080896
919.840317	-28.034437
920.122634	-28.055041
920.405125	-28.037742
920.687789	-27.942829
920.970627	-27.953781
921.253639	-27.920525
921.536824	-27.934817
921.820184	-27.728270
922.103718	-27.962780
922.387427	-27.684468
922.671310	-27.774140
922.955368	-27.701831
923.239601	-27.692869
923.524009	-27.623195
923.808592	-27.559497
924.093351	-27.646180
924.378285	-27.449456
924.663396	-27.503777
924.948682	-27.481864
925.234144	-27.414518
925.519782	-27.323392
925.805597	-27.451235
926.091589	-27.206574
926.377757	-27.381686
926.664102	-27.126894
926.950624	-27.381506
927.237323	-27.009157
927.524200	-27.286254
927.811255	-27.048355
928.098487	-27.114578
928.385897	-27.026877
928.673485	-27.090385
928.961251	-26.933750
929.249196	-27.002805
929.537319	-26.931911
929.825621	-26.909611
930.114102	-26.847078
930.402762	-26.911432
930.691601	-26.772662
930.980620	-26.800764
931.269818	-26.762637
931.559196	-26.758392
931.848753	-26.635782
932.138491	-26.758973
932.428409	-26.614887
932.718508	-26.581710
933.008787	-26.672817
933.299246	-26.473990
933.589887	-26.630259
933.880709	-26.426662
934.171712	-26.590517
934.462896	-26.358953
934.754262	-26.519946
935.045810	-26.353284
935.337539	-26.440761
935.629451	-26.303157
935.921545	-26.427203
936.213822	-26.224958
936.506281	-26.335862
936.798922	-26.281097
937.091747	-26.184717
937.384755	-26.287461
937.677946	-26.152847
937.971321	-26.189661
938.264879	-26.109839
938.558621	-26.174801
938.852547	-26.034520
939.146657	-26.129650
939.440952	-26.000050
939.735431	-26.066064
940.030095	-25.910454
940.324943	-26.093134
940.619977	-25.806456
940.915196	-26.059109
941.210600	-25.777002
941.506189	-25.976835
941.801965	-25.722632
942.097926	-25.972669
942.394074	-25.658687
942.690407	-25.912194
942.986927	-25.648759
943.283634	-25.829327
943.580527	-25.611555
943.877608	-25.828978
944.174875	-25.551627
944.472330	-25.774311
944.769972	-25.556213
945.067802	-25.691017
945.365820	-25.531909
945.664026	-25.698883
945.962420	-25.466005
946.261002	-25.662670
946.559773	-25.455666
946.858733	-25.592287
947.157881	-25.446193
947.457219	-25.579102
947.756746	-25.386479
948.056462	-25.540700
948.356368	-25.374480
948.656464	-25.468239
948.956749	-25.364258
949.257225	-25.441705
949.557891	-25.302068
949.858748	-25.393817
950.159796	-25.289015
950.461034	-25.311994
950.762463	-25.283174
951.064084	-25.266670
951.365896	-25.209003
951.667900	-25.227404
951.970095	-25.191380
952.272483	-25.128113
952.575063	-25.207676
952.877835	-25.044843
953.180799	-25.142941
953.483956	-25.026725
953.787307	-25.075637
954.090850	-24.981730
954.394586	-25.047495
954.698516	-24.902566
955.002640	-24.999494
955.306957	-24.873622
955.611469	-24.932854
955.916174	-24.835018
956.221074	-24.890840
956.526169	-24.758018
956.831458	-24.860306
957.136942	-24.713372
957.442622	-24.808418
957.748496	-24.666116
958.054567	-24.768823
958.360833	-24.589010
958.667294	-24.752533
958.973952	-24.544479
959.280806	-24.686383
959.587857	-24.528575
959.895104	-24.609908
960.202548	-24.497520
960.510189	-24.576753
960.818027	-24.459378
961.126062	-24.513547
961.434295	-24.445821
961.742726	-24.437527
962.051355	-24.437038
962.360182	-24.395932
962.669207	-24.390623
962.978431	-24.359390
963.287854	-24.353177
963.597475	-24.317802
963.907296	-24.331573
964.217315	-24.285249
964.527535	-24.270361
964.837954	-24.284994
965.148573	-24.197775
965.459392	-24.285908
965.770411	-24.157957
966.081630	-24.242582
966.393051	-24.127931
966.704672	-24.214480
967.016494	-24.089327
967.328517	-24.199317
967.640742	-24.054515
967.953169	-24.144516
968.265797	-24.052252
968.578627	-24.089576
968.891660	-24.044780
969.204895	-24.053421
969.518332	-24.006346
969.831972	-24.019321
970.145816	-23.997841
970.459862	-23.968280
970.774112	-23.994809
971.088565	-23.924282
971.403223	-23.955480
971.718084	-23.928893
972.033149	-23.903715
972.348419	-23.931616
972.663893	-23.861637
972.979572	-23.909756
973.295456	-23.839264
973.611546	-23.907357
973.927840	-23.798388
974.244340	-23.910357
974.561046	-23.757646
974.877958	-23.894924
975.195076	-23.765360
975.512401	-23.847600
975.829932	-23.775425
976.147670	-23.797444
976.465615	-23.777310
976.783767	-23.769152
977.102126	-23.778947
977.420693	-23.713023
977.739468	-23.788524
978.058451	-23.657546
978.377642	-23.788217
978.697041	-23.636290
979.016649	-23.728396
979.336466	-23.637141
979.656492	-23.658813
979.976727	-23.640881
980.297171	-23.603251
980.617825	-23.615193
980.938689	-23.538991
981.259763	-23.605498
981.581048	-23.471338
981.902542	-23.596580
982.224248	-23.403676
982.546164	-23.546452
982.868291	-23.381251
983.190630	-23.478497
983.513180	-23.366332
983.835942	-23.409397
984.158916	-23.320509
984.482101	-23.374102
984.805500	-23.270357
985.129110	-23.339315
985.452934	-23.218351
985.776970	-23.288943
986.101220	-23.180292
986.425683	-23.252972
986.750359	-23.134049
987.075250	-23.212800
987.400354	-23.090696
987.725673	-23.163582
988.051206	-23.082265
988.376954	-23.084957
988.702916	-23.088100
989.029094	-23.001972
989.355487	-23.088350
989.682095	-22.956666
990.008919	-23.042748
990.335959	-22.951908
990.663216	-22.961449
990.990688	-22.981335
991.318377	-22.869033
991.646283	-23.012850
991.974406	-22.783208
992.302746	-23.032591
992.631304	-22.729708
992.960079	-23.012262
993.289072	-22.724140
993.618283	-22.933009
993.947713	-22.777257
994.277361	-22.815297
994.607227	-22.854855
994.937313	-22.702038
995.267618	-22.904866
995.598142	-22.643939
995.928886	-22.892611
996.259849	-22.649775
996.591033	-22.827195
996.922437	-22.689431
997.254061	-22.751223
997.585906	-22.726965
997.917972	-22.694563
998.250260	-22.742098
998.582768	-22.662985
998.915498	-22.731034
999.248450	-22.653889
999.581624	-22.709492
999.915020	-22.645779
1000.248639	-22.688549
1000.582480	-22.627925
1000.916545	-22.676291
1001.250832	-22.609097
1001.585343	-22.655561
1001.920077	-22.595715
1002.255035	-22.610116
1002.590218	-22.613894
1002.925624	-22.532494
1003.261255	-22.650510
1003.597111	-22.444017
1003.933192	-22.665811
1004.269497	-22.401091
1004.606029	-22.616652
1004.942785	-22.418541
1005.279768	-22.498817
1005.616977	-22.478497
1005.954412	-22.374621
1006.292074	-22.510599
1006.629962	-22.302452
1006.968077	-22.458047
1007.306420	-22.312532
1007.644990	-22.341358
1007.983787	-22.360694
1008.322813	-22.210119
1008.662067	-22.381057
1009.001549	-22.136314
1009.341259	-22.337250
1009.681199	-22.119429
1010.021367	-22.237525
1010.361765	-22.124906
1010.702392	-22.148358
1011.043250	-22.112429
1011.384337	-22.078041
1011.725654	-22.072602
1012.067202	-22.024963
1012.408980	-22.040157
1012.750989	-21.963940
1013.093230	-22.003199
1013.435702	-21.908544
1013.778405	-21.959542
1014.121341	-21.888692
1014.464508	-21.868115
1014.807908	-21.902450
1015.151540	-21.770521
1015.495405	-21.915668
1015.839503	-21.709513
1016.183835	-21.857410
1016.528400	-21.726977
1016.873198	-21.751318
1017.218231	-21.776594
1017.563498	-21.647517
1017.908999	-21.779519
1018.254735	-21.631091
1018.600707	-21.710903
1018.946913	-21.661479
1019.293354	-21.619680
1019.640032	-21.682159
1019.986945	-21.596094
1020.334094	-21.626780
1020.681480	-21.620302
1021.029102	-21.557576
1021.376961	-21.642108
1021.725058	-21.537487
1022.073391	-21.584740
1022.421962	-21.577117
1022.770772	-21.520095
1023.119819	-21.597598
1023.469104	-21.499552
1023.818628	-21.544562
1024.168391	-21.550258
1024.518393	-21.474151
1024.868634	-21.563980
1025.219115	-21.458857
1025.569836	-21.513050
1025.920796	-21.507421
1026.271997	-21.430599
1026.623438	-21.519746
1026.975121	-21.418197
1027.327044	-21.465985
1027.679208	-21.441874
1028.031614	-21.393832
1028.384262	-21.436112
1028.737152	-21.387580
1029.090284	-21.359574
1029.443659	-21.393672
1029.797276	-21.307986
1030.151137	-21.346413
1030.505240	-21.316024
1030.859587	-21.231607
1031.214178	-21.332997
1031.569013	-21.174123
1031.924093	-21.254293
1032.279417	-21.181890
1032.634985	-21.129623
1032.990799	-21.197892
1033.346858	-21.050758
1033.703162	-21.112072
1034.059712	-21.049325
1034.416509	-21.003495
1034.773551	-21.032066
1035.130841	-20.920264
1035.488377	-20.962871
1035.846160	-20.897758
1036.204190	-20.871739
1036.562468	-20.849738
1036.920994	-20.801865
1037.279768	-20.810671
1037.638790	-20.731587
1037.998061	-20.755258
1038.357581	-20.675486
1038.717350	-20.693144
1039.077368	-20.662480
1039.437636	-20.578917
1039.798154	-20.657653
1040.158922	-20.534438
1040.519940	-20.570907
1040.881209	-20.559128
1041.242729	-20.448668
1041.604501	-20.579981
1041.966524	-20.427205
1042.328798	-20.454848
1042.691325	-20.511922
1043.054103	-20.343999
1043.417135	-20.510940
1043.780419	-20.364513
1044.143956	-20.380167
1044.507746	-20.470843
1044.871791	-20.295344
1045.236088	-20.431509
1045.600641	-20.368319
1045.965447	-20.325143
1046.330508	-20.420602
1046.695824	-20.309374
1047.061395	-20.356914
1047.427222	-20.390516
1047.793304	-20.290776
1048.159642	-20.376916
1048.526237	-20.343684
1048.893088	-20.313475
1049.260196	-20.364679
1049.627561	-20.316990
1049.995183	-20.326247
1050.363063	-20.347126
1050.731201	-20.310915
1051.099597	-20.302176
1051.468251	-20.352611
1051.837164	-20.279682
1052.206336	-20.290872
1052.575767	-20.337806
1052.945458	-20.228828
1053.315409	-20.307776
1053.685619	-20.273756
1054.056090	-20.186805
1054.426821	-20.321074
1054.797814	-20.168816
1055.169067	-20.183061
1055.540582	-20.271943
1055.912359	-20.067297
1056.284398	-20.213251
1056.656698	-20.123035
1057.029262	-20.047368
1057.402088	-20.166291
1057.775177	-19.986427
1058.148530	-20.050292
1058.522146	-20.030862
1058.896027	-19.934252
1059.270171	-19.975221
1059.644580	-19.912417
1060.019254	-19.889231
1060.394193	-19.856849
1060.769397	-19.833094
1061.144867	-19.794044
1061.520602	-19.764947
1061.896604	-19.740130
1062.272872	-19.693649
1062.649407	-19.671892
1063.026210	-19.651288
1063.403279	-19.592342
1063.780616	-19.572408
1064.158221	-19.579926
1064.536094	-19.475042
1064.914235	-19.504860
1065.292645	-19.485745
1065.671325	-19.378540
1066.050273	-19.458394
1066.429491	-19.363988
1066.808979	-19.330170
1067.188738	-19.393341
1067.568766	-19.257672
1067.949066	-19.308683
1068.329636	-19.299035
1068.710478	-19.202672
1069.091592	-19.267940
1069.472977	-19.210323
1069.854635	-19.182916
1070.236565	-19.198688
1070.618768	-19.151290
1071.001243	-19.162898
1071.383993	-19.125919
1071.767016	-19.113795
1072.150313	-19.134550
1072.533884	-19.053046
1072.917730	-19.107272
1073.301850	-19.072752
1073.686246	-19.007734
1074.070917	-19.107313
1074.455864	-18.985773
1074.841087	-19.002544
1075.226586	-19.077179
1075.612362	-18.913819
1075.998415	-19.009054
1076.384745	-19.015588
1076.771353	-18.875269
1077.158238	-18.992709
1077.545401	-18.947683
1077.932843	-18.850312
1078.320564	-18.955694
1078.708564	-18.873489
1079.096842	-18.829838
1079.485401	-18.895464
1079.874240	-18.798988
1080.263358	-18.803561
1080.652757	-18.810721
1081.042438	-18.737117
1081.432399	-18.753552
1081.822641	-18.713745
1082.213166	-18.690000
1082.603972	-18.672420
1082.995061	-18.621634
1083.386433	-18.647112
1083.778087	-18.569947
1084.170025	-18.545656
1084.562246	-18.592421
1084.954751	-18.469029
1085.347541	-18.481311
1085.740615	-18.522626
1086.133973	-18.382924
1086.527617	-18.421373
1086.921546	-18.443424
1087.315761	-18.311596
1087.710262	-18.362899
1088.105050	-18.360458
1088.500124	-18.250147
1088.895485	-18.305063
1089.291134	-18.277767
1089.687070	-18.194926
1090.083294	-18.246630
1090.479806	-18.197495
1090.876607	-18.144929
1091.273696	-18.187366
1091.671075	-18.121482
1092.068744	-18.102543
1092.466702	-18.127248
1092.864950	-18.053076
1093.263489	-18.071160
1093.662319	-18.065790
1094.061440	-17.999602
1094.460852	-18.047737
1094.860555	-18.008795
1095.260551	-17.962016
1095.660840	-18.030703
1096.061421	-17.958783
1096.462295	-17.941117
1096.863462	-18.013355
1097.264923	-17.920705
1097.666678	-17.928790
1098.068727	-17.992987
1098.471071	-17.891923
1098.873710	-17.917517
1099.276644	-17.965695
1099.679874	-17.865499
1100.083400	-17.900001
1100.487222	-17.927121
1100.891340	-17.831703
1101.295756	-17.871681
1101.700468	-17.873123
1102.105478	-17.783682
1102.510787	-17.830318
1102.916393	-17.801652
1103.322298	-17.720703
1103.728502	-17.773586
1104.135005	-17.717068
1104.541807	-17.643545
1104.948909	-17.703243
1105.356312	-17.624445
1105.764015	-17.559311
1106.172019	-17.620027
1106.580324	-17.532719
1106.988931	-17.473564
1107.397840	-17.528187
1107.807051	-17.447506
1108.216564	-17.392524
1108.626380	-17.432266
1109.036500	-17.370746
1109.446923	-17.320017
1109.857649	-17.337596
1110.268680	-17.298156
1110.680016	-17.258134
1111.091657	-17.246906
1111.503602	-17.225040
1111.915854	-17.202257
1112.328411	-17.163835
1112.741275	-17.146108
1113.154445	-17.146467
1113.567922	-17.088068
1113.981706	-17.061365
1114.395798	-17.082044
1114.810198	-17.019138
1115.224906	-16.971491
1115.639923	-17.007717
1116.055249	-16.951603
1116.470884	-16.882927
1116.886829	-16.922644
1117.303084	-16.885198
1117.719650	-16.799550
1118.136526	-16.833363
1118.553713	-16.818578
1118.971212	-16.728709
1119.389022	-16.745929
1119.807145	-16.753880
1120.225580	-16.673621
1120.644328	-16.672189
1121.063389	-16.690902
1121.482763	-16.634652
1121.902452	-16.622131
1122.322454	-16.635992
1122.742771	-16.603908
1123.163404	-16.599171
1123.584351	-16.598553
1124.005614	-16.575707
1124.427193	-16.593845
1124.849089	-16.585435
1125.271301	-16.552989
1125.693830	-16.588635
1126.116677	-16.591711
1126.539842	-16.541467
1126.963324	-16.575055
1127.387126	-16.597889
1127.811246	-16.541089
1128.235685	-16.553922
1128.660444	-16.588280
1129.085522	-16.537641
1129.510922	-16.530914
1129.936641	-16.557349
1130.362682	-16.514640
1130.789044	-16.501901
1131.215728	-16.511813
1131.642734	-16.462162
1132.070063	-16.454770
1132.497714	-16.459262
1132.925689	-16.388181
1133.353987	-16.377317
1133.782610	-16.396948
1134.211556	-16.313752
1134.640827	-16.276182
1135.070424	-16.310462
1135.500345	-16.246395
1135.930593	-16.178465
1136.361166	-16.201695
1136.792067	-16.170585
1137.223294	-16.098854
1137.654848	-16.096787
1138.086730	-16.083329
1138.518940	-16.025345
1138.951479	-16.010852
1139.384346	-16.004954
1139.817543	-15.955977
1140.251069	-15.936505
1140.684925	-15.943362
1141.119111	-15.902854
1141.553628	-15.875028
1141.988475	-15.891413
1142.423655	-15.862298
1142.859166	-15.830052
1143.295009	-15.853711
1143.731185	-15.830368
1144.167694	-15.788903
1144.604536	-15.823977
1145.041711	-15.815734
1145.479221	-15.755218
1145.917065	-15.782856
1146.355245	-15.801924
1146.793759	-15.741436
1147.232609	-15.741038
1147.671795	-15.766366
1148.111317	-15.723997
1148.551177	-15.709942
1148.991373	-15.722736
1149.431907	-15.684422
1149.872779	-15.666834
1150.313989	-15.677984
1150.755538	-15.637866
1151.197426	-15.602887
1151.639653	-15.615923
1152.082220	-15.588179
1152.525128	-15.528495
1152.968376	-15.532466
1153.411966	-15.531968
1153.855897	-15.451456
1154.300169	-15.425365
1154.744784	-15.460927
1155.189742	-15.387868
1155.635042	-15.313496
1156.080687	-15.352154
1156.526674	-15.323133
1156.973007	-15.232832
1157.419683	-15.230124
1157.866705	-15.222189
1158.314072	-15.164338
1158.761786	-15.135930
1159.209845	-15.115016
1159.658251	-15.072554
1160.107004	-15.045628
1160.556104	-15.036976
1161.005553	-14.987266
1161.455349	-14.934711
1161.905494	-14.958524
1162.355989	-14.931690
1162.806832	-14.838927
1163.258026	-14.857575
1163.709570	-14.875009
1164.161464	-14.782945
1164.613710	-14.757470
1165.066307	-14.793284
1165.519256	-14.750401
1165.972558	-14.682214
1166.426212	-14.693216
1166.880219	-14.712673
1167.334580	-14.638142
1167.789295	-14.601919
1168.244364	-14.645074
1168.699788	-14.606127
1169.155567	-14.548152
1169.611702	-14.560705
1170.068193	-14.552349
1170.525041	-14.518962
1170.982245	-14.497847
1171.439807	-14.483768
1171.897726	-14.472451
1172.356004	-14.454043
1172.814640	-14.437099
1173.273635	-14.410774
1173.732989	-14.395348
1174.192703	-14.404522
1174.652778	-14.369634
1175.113213	-14.330577
1175.574009	-14.348773
1176.035167	-14.340058
1176.496687	-14.295423
1176.958569	-14.280940
1177.420814	-14.287344
1177.883422	-14.275859
1178.346394	-14.238508
1178.809730	-14.225051
1179.273430	-14.234129
1179.737496	-14.210264
1180.201927	-14.187553
1180.666723	-14.180549
1181.131886	-14.167062
1181.597416	-14.162003
1182.063312	-14.141551
1182.529576	-14.123646
1182.996209	-14.122383
1183.463209	-14.105853
1183.930579	-14.098246
1184.398317	-14.080105
1184.866426	-14.063382
1185.334904	-14.070105
1185.803754	-14.048145
1186.272974	-14.032020
1186.742566	-14.023531
1187.212529	-14.015585
1187.682865	-14.014084
1188.153574	-13.977426
1188.624656	-13.974815
1189.096112	-13.983264
1189.567942	-13.953006
1190.040147	-13.937084
1190.512726	-13.923870
1190.985681	-13.934108
1191.459012	-13.913779
1191.932720	-13.869901
1192.406804	-13.885686
1192.881265	-13.880300
1193.356104	-13.855982
1193.831322	-13.826859
1194.306918	-13.816950
1194.782893	-13.837882
1195.259248	-13.795090
1195.735982	-13.766720
1196.213097	-13.771400
1196.690593	-13.765138
1197.168471	-13.748066
1197.646730	-13.703777
1198.125371	-13.713294
1198.604395	-13.713417
1199.083803	-13.673175
1199.563594	-13.660279
1200.043769	-13.651929
1200.524329	-13.653149
1201.005273	-13.617295
1201.486604	-13.595433
1201.968320	-13.612246
1202.450422	-13.585979
1202.932912	-13.561261
1203.415789	-13.548681
1203.899054	-13.553281
1204.382707	-13.541606
1204.866748	-13.500825
1205.351179	-13.506052
1205.836000	-13.505161
1206.321211	-13.483605
1206.806812	-13.465251
1207.292805	-13.455062
1207.779189	-13.462249
1208.265965	-13.434665
1208.753134	-13.420833
1209.240696	-13.424856
1209.728651	-13.407440
1210.217000	-13.397200
1210.705744	-13.379982
1211.194883	-13.386123
1211.684417	-13.372892
1212.174347	-13.346699
1212.664673	-13.353560
1213.155396	-13.341160
1213.646516	-13.337511
1214.138034	-13.314337
1214.629951	-13.309653
1215.122266	-13.314639
1215.614980	-13.288878
1216.108095	-13.290979
1216.601609	-13.273255
1217.095524	-13.275487
1217.589841	-13.260415
1218.084559	-13.247634
1218.579679	-13.256072
1219.075202	-13.230966
1219.571128	-13.233062
1220.067458	-13.214242
1220.564191	-13.221632
1221.061330	-13.210398
1221.558874	-13.189478
1222.056823	-13.196397
1222.555178	-13.180303
1223.053940	-13.187211
1223.553109	-13.159903
1224.052686	-13.163143
1224.552671	-13.159339
1225.053065	-13.143771
1225.553867	-13.142124
1226.055079	-13.124789
1226.556702	-13.136165
1227.058735	-13.109578
1227.561179	-13.104501
1228.064035	-13.100188
1228.567303	-13.094971
1229.070983	-13.085704
1229.575077	-13.057948
1230.079585	-13.067229
1230.584506	-13.054553
1231.089842	-13.045455
1231.595594	-13.021691
1232.101761	-13.014951
1232.608345	-13.016331
1233.115345	-12.990168
1233.622762	-12.980077
1234.130597	-12.961255
1234.638851	-12.962559
1235.147523	-12.937694
1235.656615	-12.916890
1236.166126	-12.911140
1236.676058	-12.894906
1237.186411	-12.883127
1237.697185	-12.846854
1238.208381	-12.846716
1238.719999	-12.829298
1239.232040	-12.813289
1239.744505	-12.784152
1240.257394	-12.766468
1240.770708	-12.765276
1241.284446	-12.734496
1241.798610	-12.720015
1242.313201	-12.687792
1242.828218	-12.692129
1243.343662	-12.662374
1243.859534	-12.643563
1244.375834	-12.620450
1244.892563	-12.609788
1245.409721	-12.598692
1245.927309	-12.563116
1246.445327	-12.555220
1246.963777	-12.531947
1247.482657	-12.533073
1248.001970	-12.494119
1248.521716	-12.484704
1249.041894	-12.466142
1249.562506	-12.462307
1250.083553	-12.438542
1250.605034	-12.414591
1251.126950	-12.409125
1251.649302	-12.394119
1252.172091	-12.387188
1252.695316	-12.355064
1253.218979	-12.354698
1253.743079	-12.338268
1254.267619	-12.334828
1254.792597	-12.308655
1255.318015	-12.302240
1255.843874	-12.295415
1256.370173	-12.286911
1256.896913	-12.272278
1257.424095	-12.256477
1257.951720	-12.259629
1258.479787	-12.248959
1259.008298	-12.243588
1259.537254	-12.223172
1260.066654	-12.228539
1260.596499	-12.221596
1261.126790	-12.220941
1261.657527	-12.204314
1262.188711	-12.205107
1262.720342	-12.205209
1263.252422	-12.204318
1263.784950	-12.197041
1264.317928	-12.191400
1264.851355	-12.199262
1265.385232	-12.196779
1265.919560	-12.198596
1266.454340	-12.188358
1266.989572	-12.200811
1267.525256	-12.199386
1268.061394	-12.208005
1268.597985	-12.196622
1269.135031	-12.208990
1269.672531	-12.209496
1270.210487	-12.223244
1270.748899	-12.214350
1271.287768	-12.224534
1271.827094	-12.225733
1272.366877	-12.242194
1272.907119	-12.237995
1273.447820	-12.246273
1273.988981	-12.247336
1274.530601	-12.263709
1275.072683	-12.264790
1275.615226	-12.271628
1276.158230	-12.272890
1276.701697	-12.286476
1277.245627	-12.292690
1277.790021	-12.298278
1278.334879	-12.300551
1278.880202	-12.309420
1279.425991	-12.319777
1279.972245	-12.324516
1280.518966	-12.328753
1281.066155	-12.332033
1281.613811	-12.344610
1282.161936	-12.348683
1282.710529	-12.355979
1283.259593	-12.354192
1283.809126	-12.366747
1284.359131	-12.369141
1284.909607	-12.380096
1285.460555	-12.374853
1286.011976	-12.386457
1286.563870	-12.385601
1287.116237	-12.399422
1287.669080	-12.392081
1288.222397	-12.402762
1288.776191	-12.397685
1289.330460	-12.412665
1289.885207	-12.404203
1290.440431	-12.413701
1290.996133	-12.404548
1291.552314	-12.418209
1292.108975	-12.409629
1292.666115	-12.417509
1293.223737	-12.405304
1293.781839	-12.414716
1294.340424	-12.406121
1294.899491	-12.412081
1295.459041	-12.398628
1296.019075	-12.402268
1296.579593	-12.392871
1297.140597	-12.395695
1297.702086	-12.382807
1298.264061	-12.380412
1298.826524	-12.369953
1299.389474	-12.368561
1299.952912	-12.357004
1300.516839	-12.349457
1301.081255	-12.337434
1301.646162	-12.331479
1302.211559	-12.320980
1302.777448	-12.310423
1303.343829	-12.296649
1303.910702	-12.286391
1304.478069	-12.275519
1305.045930	-12.263830
1305.614285	-12.249085
1306.183136	-12.235215
1306.752483	-12.223023
1307.322326	-12.210209
1307.892666	-12.196102
1308.463504	-12.179144
1309.034841	-12.166014
1309.606677	-12.150587
1310.179012	-12.138816
1310.751849	-12.119066
1311.325186	-12.106534
1311.899025	-12.086955
1312.473366	-12.077762
1313.048211	-12.056026
1313.623559	-12.044826
1314.199412	-12.022094
1314.775770	-12.013012
1315.352634	-11.992019
1315.930004	-11.980073
1316.507881	-11.958866
1317.086266	-11.945319
1317.665159	-11.929265
1318.244562	-11.912711
1318.824474	-11.898479
1319.404897	-11.877408
1319.985831	-11.868627
1320.567276	-11.845993
1321.149234	-11.839797
1321.731706	-11.813562
1322.314691	-11.809202
1322.898190	-11.784637
1323.482205	-11.781187
1324.066736	-11.757344
1324.651783	-11.750989
1325.237347	-11.731443
1325.823430	-11.723645
1326.410031	-11.708863
1326.997151	-11.696104
1327.584791	-11.685656
1328.172952	-11.670550
1328.761634	-11.665722
1329.350839	-11.647377
1329.940566	-11.644792
1330.530817	-11.624992
1331.121592	-11.625888
1331.712891	-11.606642
1332.304716	-11.607270
1332.897068	-11.588642
1333.489946	-11.588786
1334.083352	-11.574686
1334.677287	-11.572200
1335.271750	-11.561823
1335.866744	-11.554757
1336.462268	-11.551113
1337.058323	-11.540553
1337.654910	-11.542242
1338.252029	-11.526912
1338.849682	-11.532516
1339.447869	-11.516754
1340.046591	-11.524414
1340.645848	-11.509646
1341.245641	-11.514370
1341.845972	-11.504457
1342.446840	-11.505572
1343.048246	-11.502591
1343.650191	-11.497222
1344.252677	-11.500076
1344.855702	-11.490348
1345.459269	-11.498822
1346.063379	-11.487003
1346.668030	-11.496085
1347.273226	-11.484928
1347.878965	-11.492521
1348.485250	-11.486417
1349.092080	-11.489190
1349.699456	-11.488334
1350.307380	-11.485280
1350.915851	-11.490874
1351.524871	-11.484010
1352.134441	-11.492977
1352.744560	-11.483885
1353.355231	-11.492969
1353.966453	-11.486504
1354.578227	-11.492844
1355.190555	-11.490821
1355.803436	-11.491496
1356.416872	-11.495131
1357.030863	-11.491574
1357.645411	-11.499443
1358.260515	-11.493139
1358.876177	-11.501456
1359.492397	-11.496324
1360.109176	-11.502715
1360.726516	-11.501304
1361.344416	-11.503018
1361.962877	-11.505764
1362.581901	-11.503620
1363.201487	-11.510032
1363.821637	-11.505706
1364.442352	-11.512555
1365.063632	-11.508528
1365.685478	-11.513902
1366.307891	-11.512911
1366.930871	-11.514829
1367.554420	-11.517126
1368.178538	-11.515454
1368.803226	-11.521070
1369.428485	-11.517508
1370.054315	-11.523913
1370.680717	-11.520359
1371.307693	-11.525012
1371.935242	-11.524650
1372.563366	-11.525654
1373.192065	-11.529080
1373.821341	-11.525807
1374.451193	-11.532277
1375.081623	-11.527689
1375.712632	-11.533940
1376.344221	-11.531120
1376.976389	-11.533171
1377.609139	-11.535309
1378.242470	-11.532451
1378.876384	-11.538983
1379.510881	-11.533028
1380.145963	-11.539766
1380.781629	-11.535901
1381.417881	-11.538859
1382.054720	-11.540772
1382.692147	-11.537597
1383.330161	-11.544540
1383.968765	-11.538604
1384.607959	-11.546393
1385.247743	-11.543101
1385.888119	-11.545856
1386.529087	-11.548860
1387.170648	-11.545604
1387.812804	-11.554078
1388.455554	-11.548560
1389.098899	-11.556221
1389.742842	-11.554662
1390.387381	-11.556699
1391.032519	-11.562579
1391.678256	-11.558667
1392.324592	-11.568285
1392.971529	-11.563983
1393.619068	-11.570712
1394.267208	-11.572813
1394.915952	-11.572045
1395.565300	-11.580938
1396.215253	-11.575756
1396.865812	-11.585571
1397.516977	-11.584308
1398.168749	-11.587371
1398.821130	-11.594397
1399.474120	-11.590357
1400.127719	-11.601741
1400.781930	-11.598551
1401.436752	-11.604911
1402.092186	-11.609764
1402.748234	-11.607616
1403.404897	-11.619003
1404.062174	-11.615009
1404.720067	-11.623588
1405.378577	-11.626644
1406.037705	-11.626856
1406.697451	-11.638001
1407.357817	-11.634674
1408.018803	-11.645233
1408.680410	-11.647726
1409.342639	-11.650581
1410.005492	-11.661475
1410.668968	-11.659292
1411.333068	-11.671046
1411.997795	-11.673027
1412.663147	-11.677773
1413.329127	-11.688299
1413.995736	-11.687253
1414.662973	-11.700056
1415.330840	-11.702620
1415.999339	-11.709362
1416.668469	-11.720960
1417.338232	-11.721653
1418.008628	-11.735970
1418.679659	-11.739909
1419.351325	-11.747613
1420.023628	-11.760264
1420.696568	-11.761391
1421.370145	-11.775811
1422.044362	-11.780589
1422.719219	-11.787707
1423.394717	-11.801471
1424.070856	-11.803314
1424.747638	-11.818321
1425.425064	-11.826066
1426.103134	-11.834060
1426.781850	-11.850899
1427.461212	-11.855613
1428.141221	-11.871609
1428.821878	-11.883091
1429.503185	-11.891023
1430.185141	-11.908779
1430.867749	-11.914319
1431.551008	-11.927664
1432.234920	-11.939912
1432.919486	-11.945453
1433.604707	-11.961837
1434.290583	-11.968531
1434.977116	-11.979835
1435.664307	-11.995262
1436.352156	-12.002491
1437.040664	-12.020850
1437.729833	-12.033581
1438.419663	-12.046085
1439.110156	-12.066401
1439.801312	-12.076496
1440.493132	-12.093893
1441.185617	-12.109237
1441.878768	-12.117398
1442.572586	-12.134162
1443.267072	-12.141097
1443.962228	-12.149310
1444.658053	-12.161209
1445.354549	-12.163092
1446.051717	-12.173656
1446.749558	-12.181491
1447.448073	-12.186250
1448.147263	-12.201273
1448.847128	-12.209227
1449.547671	-12.222317
1450.248891	-12.240675
1450.950789	-12.251423
1451.653368	-12.271205
1452.356627	-12.287382
1453.060568	-12.298777
1453.765192	-12.316696
1454.470500	-12.323971
1455.176492	-12.330767
1455.883170	-12.338222
1456.590534	-12.333920
1457.298586	-12.333772
1458.007327	-12.329376
1458.716758	-12.318577
1459.426880	-12.315417
1460.137693	-12.306673
1460.849199	-12.300295
1461.561398	-12.302154
1462.274293	-12.300003
1462.987883	-12.307156
1463.702170	-12.319737
1464.417155	-12.330628
1465.132838	-12.352294
1465.849222	-12.373286
1466.566306	-12.393368
1467.284093	-12.420066
1468.002582	-12.438782
1468.721775	-12.455694
1469.441674	-12.471655
1470.162278	-12.474517
1470.883590	-12.475426
1471.605609	-12.469480
1472.328338	-12.451100
1473.051777	-12.433486
1473.775928	-12.408351
1474.500790	-12.378110
1475.226367	-12.353890
1475.952657	-12.326061
1476.679663	-12.303028
1477.407386	-12.290880
1478.135826	-12.280399
1478.864985	-12.282440
1479.594863	-12.296520
1480.325463	-12.314804
1481.056784	-12.348060
1481.788828	-12.389246
1482.521597	-12.432580
1483.255090	-12.486319
1483.989309	-12.537928
1484.724256	-12.584746
1485.459931	-12.631308
1486.196336	-12.662033
1486.933471	-12.678672
1487.671337	-12.682594
1488.409937	-12.659951
1489.149270	-12.618803
1489.889337	-12.559472
1490.630141	-12.473580
1491.371682	-12.375314
1492.113961	-12.264623
1492.856979	-12.139100
1493.600738	-12.015140
1494.345238	-11.890566
1495.090481	-11.766128
1495.836467	-11.656516
1496.583198	-11.556465
1497.330675	-11.467412
1498.078899	-11.400623
1498.827872	-11.347890
1499.577593	-11.310837
1500.328065	-11.297277
1501.079289	-11.296651
1501.831265	-11.310551
1502.583995	-11.343360
1503.337480	-11.382318
1504.091721	-11.428503
1504.846719	-11.482404
1505.602475	-11.528731
1506.358991	-11.567841
1507.116268	-11.596238
1507.874306	-11.597388
1508.633108	-11.572738
1509.392673	-11.518023
1510.153004	-11.420521
1510.914101	-11.287825
1511.675965	-11.120276
1512.438599	-10.914300
1513.202002	-10.685159
1513.966176	-10.438614
1514.731122	-10.177502
1515.496842	-9.919127
1516.263336	-9.669685
1517.030607	-9.432093
1517.798654	-9.220500
1518.567479	-9.038662
1519.337083	-8.886877
1520.107468	-8.775663
1520.878634	-8.706745
1521.650584	-8.678459
1522.423317	-8.699144
1523.196836	-8.770308
1523.971141	-8.889493
1524.746233	-9.064415
1525.522115	-9.297737
1526.298786	-9.586526
1527.076249	-9.937986
1527.854504	-10.355725
1528.633553	-10.833957
1529.413397	-11.374492
1530.194037	-11.975191
1530.975474	-12.615283
1531.757709	-13.270681
1532.540745	-13.907477
1533.324581	-14.461269
1534.109220	-14.859804
1534.894662	-15.053200
1535.680909	-15.017674
1536.467961	-14.771394
1537.255821	-14.381911
1538.044489	-13.925502
1538.833967	-13.455828
1539.624256	-13.016179
1540.415357	-12.641311
1541.207271	-12.343779
1542.000000	-12.127862
1542.793545	-12.003321
1543.587907	-11.971278
1544.383087	-12.024979
1545.179088	-12.165283
1545.975909	-12.391590
1546.773552	-12.692210
1547.572019	-13.057947
1548.371311	-13.481275
1549.171428	-13.939523
1549.972373	-14.401518
1550.774147	-14.837389
1551.576751	-15.206010
1552.380185	-15.458152
1553.184453	-15.563068
1553.989554	-15.513914
1554.795490	-15.317905
1555.602263	-15.002486
1556.409873	-14.612318
1557.218322	-14.184568
1558.027612	-13.743777
1558.837743	-13.313917
1559.648717	-12.912330
1560.460536	-12.543465
1561.273200	-12.211092
1562.086710	-11.921394
1562.901069	-11.673264
1563.716278	-11.463542
1564.532337	-11.294496
1565.349249	-11.165600
1566.167014	-11.072171
1566.985634	-11.014247
1567.805111	-10.992685
1568.625444	-11.003162
1569.446637	-11.043674
1570.268690	-11.115645
1571.091605	-11.215787
1571.915382	-11.340336
1572.740024	-11.490025
1573.565532	-11.662819
1574.391907	-11.853855
1575.219150	-12.062397
1576.047262	-12.287290
1576.876246	-12.523065
1577.706103	-12.767043
1578.536833	-13.018391
1579.368439	-13.271593
1580.200922	-13.521983
1581.034282	-13.768564
1581.868522	-14.006303
1582.703643	-14.229176
1583.539646	-14.436224
1584.376532	-14.624234
1585.214304	-14.787509
1586.052962	-14.925898
1586.892508	-15.039502
1587.732943	-15.124653
1588.574269	-15.182328
1589.416487	-15.215987
1590.259599	-15.224550
1591.103605	-15.209072
1591.948508	-15.174439
1592.794309	-15.121306
1593.641009	-15.049674
1594.488609	-14.963833
1595.337112	-14.865752
1596.186518	-14.754318
1597.036829	-14.632045
1597.888047	-14.502004
1598.740172	-14.363380
1599.593207	-14.216987
1600.447153	-14.066379
1601.302010	-13.912190
1602.157782	-13.754146
1603.014469	-13.595370
1603.872072	-13.438142
1604.730593	-13.281955
1605.590034	-13.128490
1606.450397	-12.980772
1607.311681	-12.838793
1608.173890	-12.702588
1609.037024	-12.574670
1609.901085	-12.455888
1610.766075	-12.345250
1611.631995	-12.243791
1612.498846	-12.152903
1613.366630	-12.071541
1614.235349	-11.999112
1615.105004	-11.936743
1615.975596	-11.883864
1616.847128	-11.838678
1617.719600	-11.801283
1618.593014	-11.771681
1619.467372	-11.747762
1620.342675	-11.728172
1621.218924	-11.713045
1622.096122	-11.701068
1622.974270	-11.690147
1623.853369	-11.679913
1624.733420	-11.670175
1625.614427	-11.659319
1626.496389	-11.646557
1627.379308	-11.632466
1628.263187	-11.616677
1629.148026	-11.598475
1630.033828	-11.578743
1630.920593	-11.558392
1631.808324	-11.537187
1632.697022	-11.515656
1633.586688	-11.495274
1634.477324	-11.476477
1635.368932	-11.459186
1636.261514	-11.444374
1637.155070	-11.432808
1638.049602	-11.424047
1638.945113	-11.418127
1639.841603	-11.415676
1640.739075	-11.416220
1641.637529	-11.418918
1642.536968	-11.423936
1643.437393	-11.431048
1644.338806	-11.438926
1645.241209	-11.447079
1646.144602	-11.455779
1647.048988	-11.464130
1647.954368	-11.471048
1648.860744	-11.476965
1649.768118	-11.482269
1650.676491	-11.486086
1651.585865	-11.488287
1652.496241	-11.490127
1653.407621	-11.491905
1654.320008	-11.493054
1655.233401	-11.494250
1656.147804	-11.496687
1657.063218	-11.500076
1657.979645	-11.503945
1658.897085	-11.509115
1659.815542	-11.515967
1660.735016	-11.523527
1661.655509	-11.531492
1662.577023	-11.540487
1663.499560	-11.550127
1664.423121	-11.559353
1665.347709	-11.568355
1666.273324	-11.577705
1667.199969	-11.586750
1668.127645	-11.594952
1669.056353	-11.603109
1669.986097	-11.611691
1670.916877	-11.620081
1671.848695	-11.628272
1672.781553	-11.637218
1673.715452	-11.647040
1674.650395	-11.657086
1675.586383	-11.667600
1676.523418	-11.679306
1677.461501	-11.691956
1678.400635	-11.704984
1679.340821	-11.718693
1680.282061	-11.733358
1681.224357	-11.748403
1682.167710	-11.763454
1683.112122	-11.778888
1684.057595	-11.794732
1685.004132	-11.810551
1685.951732	-11.826413
1686.900400	-11.842832
1687.850135	-11.859809
1688.800940	-11.877105
1689.752818	-11.894980
1690.705768	-11.913787
1691.659795	-11.933313
1692.614898	-11.953337
1693.571081	-11.974052
1694.528345	-11.995534
1695.486691	-12.017498
1696.446122	-12.039925
1697.406640	-12.063072
1698.368245	-12.086892
1699.330941	-12.111202
1700.294729	-12.136197
1701.259611	-12.162027
1702.225588	-12.188420
1703.192664	-12.215265
1704.160838	-12.242789
1705.130114	-12.270936
1706.100493	-12.299386
1707.071977	-12.328139
1708.044568	-12.357420
1709.018268	-12.387108
1709.993079	-12.416955
1710.969003	-12.447049
1711.946041	-12.477520
1712.924196	-12.508088
1713.903469	-12.538509
1714.883862	-12.569039
1715.865378	-12.599892
1716.848017	-12.630754
1717.831783	-12.661553
1718.816677	-12.692713
1719.802701	-12.724314
1720.789857	-12.755953
1721.778147	-12.787599
1722.767573	-12.819584
1723.758136	-12.851837
1724.749840	-12.884025
1725.742685	-12.916248
1726.736673	-12.949001
1727.731808	-12.982353
1728.728090	-13.015982
1729.725521	-13.050018
1730.724105	-13.084749
1731.723842	-13.119900
1732.724735	-13.155043
1733.726785	-13.190245
1734.729995	-13.225700
1735.734366	-13.261297
1736.739902	-13.296937
1737.746603	-13.332758
1738.754472	-13.368984
1739.763510	-13.405443
1740.773721	-13.441850
1741.785105	-13.478313
1742.797665	-13.514825
1743.811403	-13.551065
1744.826321	-13.587019
1745.842422	-13.622921
1746.859706	-13.658802
1747.878177	-13.694621
1748.897835	-13.730418
1749.918685	-13.766420
1750.940726	-13.802644
1751.963963	-13.838897
1752.988395	-13.875273
1754.014027	-13.911946
1755.040860	-13.948837
1756.068895	-13.985907
1757.098135	-14.023139
1758.128583	-14.060521
1759.160240	-14.098022
1760.193109	-14.135504
1761.227191	-14.173103
1762.262488	-14.210952
1763.299004	-14.249104
1764.336740	-14.287651
1765.375697	-14.326485
1766.415880	-14.365342
1767.457288	-14.404039
1768.499926	-14.442453
1769.543794	-14.480395
1770.588895	-14.517682
1771.635231	-14.554380
1772.682805	-14.590854
1773.731619	-14.627135
1774.781674	-14.662996
1775.832973	-14.698373
1776.885519	-14.733350
1777.939312	-14.767704
1778.994357	-14.800992
1780.050654	-14.833138
1781.108207	-14.864337
1782.167017	-14.894631
1783.227087	-14.923915
1784.288418	-14.952352
1785.351013	-14.980367
1786.414875	-15.008001
1787.480006	-15.035052
1788.546407	-15.061546
1789.614082	-15.087444
1790.683032	-15.112534
1791.753259	-15.136535
1792.824767	-15.159522
1793.897557	-15.181819
1794.971632	-15.203319
1796.046994	-15.224171
1797.123645	-15.244649
1798.201588	-15.264901
1799.280824	-15.284843
1800.361357	-15.303971
1801.443188	-15.322315
1802.526320	-15.339737
1803.610756	-15.355992
1804.696497	-15.371311
1805.783546	-15.385883
1806.871906	-15.400167
1807.961578	-15.414071
1809.052565	-15.427555
1810.144870	-15.440828
1811.238494	-15.453652
1812.333441	-15.465908
1813.429713	-15.477233
1814.527311	-15.487670
1815.626239	-15.497353
1816.726499	-15.506166
1817.828094	-15.514322
1818.931025	-15.521816
1820.035295	-15.528911
1821.140906	-15.535639
1822.247862	-15.541780
1823.356165	-15.547159
1824.465816	-15.551396
1825.576819	-15.554512
1826.689175	-15.556351
1827.802888	-15.557014
1828.917960	-15.556647
1830.034394	-15.555478
1831.152191	-15.553633
1832.271354	-15.550896
1833.391887	-15.547124
1834.513790	-15.542142
1835.637068	-15.535797
1836.761722	-15.528043
1837.887755	-15.518842
1839.015169	-15.508557
1840.143968	-15.497337
1841.274153	-15.485483
1842.405727	-15.473058
1843.538693	-15.460105
1844.673053	-15.446471
1845.808810	-15.431992
1846.945966	-15.416670
1848.084525	-15.400742
1849.224488	-15.384449
1850.365858	-15.367951
1851.508638	-15.351222
1852.652831	-15.334169
1853.798438	-15.316580
1854.945463	-15.298334
1856.093909	-15.279495
1857.243777	-15.260037
1858.395071	-15.240016
1859.547794	-15.219259
1860.701947	-15.197730
1861.857533	-15.175378
1863.014556	-15.152264
1864.173018	-15.128581
1865.332922	-15.104700
1866.494270	-15.080807
1867.657065	-15.056849
1868.821309	-15.032523
1869.987006	-15.007699
1871.154158	-14.982405
1872.322768	-14.956910
1873.492839	-14.931562
1874.664373	-14.906625
1875.837373	-14.882042
1877.011841	-14.857421
1878.187782	-14.832384
1879.365197	-14.806882
1880.544089	-14.781053
1881.724460	-14.755273
1882.906315	-14.729616
1884.089655	-14.704114
1885.274483	-14.678472
1886.460803	-14.652574
1887.648616	-14.626333
1888.837927	-14.599900
1890.028736	-14.573562
1891.221049	-14.547651
1892.414866	-14.522137
1893.610192	-14.496841
1894.807028	-14.471412
1896.005379	-14.445669
1897.205246	-14.419677
1898.406633	-14.393633
1899.609542	-14.367796
1900.813977	-14.342102
1902.019940	-14.316297
1903.227434	-14.290063
1904.436462	-14.263415
1905.647028	-14.236409
1906.859133	-14.209352
1908.072781	-14.182198
1909.287976	-14.155096
1910.504719	-14.127970
1911.723013	-14.100880
1912.942863	-14.073855
1914.164270	-14.046940
1915.387238	-14.020137
1916.611770	-13.993427
1917.837868	-13.966744
1919.065536	-13.939887
1920.294777	-13.912779
1921.525594	-13.885531
1922.757989	-13.858344
1923.991967	-13.831373
1925.227529	-13.804424
1926.464679	-13.777199
1927.703420	-13.749639
1928.943755	-13.721880
1930.185688	-13.694365
1931.429221	-13.667420
1932.674356	-13.641167
1933.921099	-13.615400
1935.169451	-13.589908
1936.419415	-13.564537
1937.670996	-13.539561
1938.924195	-13.515353
1940.179017	-13.492191
1941.435463	-13.469928
1942.693538	-13.448243
1943.953245	-13.426767
1945.214586	-13.405427
1946.477566	-13.384331
1947.742186	-13.363735
1949.008451	-13.343603
1950.276363	-13.323764
1951.545926	-13.304043
1952.817143	-13.284393
1954.090017	-13.264865
1955.364551	-13.245642
1956.640749	-13.226780
1957.918615	-13.208280
1959.198150	-13.190091
1960.479359	-13.172201
1961.762244	-13.154556
1963.046810	-13.137056
1964.333059	-13.119525
1965.620995	-13.101874
1966.910621	-13.084082
1968.201940	-13.066310
1969.494956	-13.048766
1970.789672	-13.031571
1972.086091	-13.014517
1973.384217	-12.997249
1974.684053	-12.979586
1975.985602	-12.961776
1977.288869	-12.944291
1978.593855	-12.927430
1979.900566	-12.911118
1981.209003	-12.894873
1982.519171	-12.878152
1983.831073	-12.860709
1985.144712	-12.842933
1986.460093	-12.825469
1987.777217	-12.808814
1989.096089	-12.792875
1990.416713	-12.777168
1991.739092	-12.761308
1993.063228	-12.745359
1994.389127	-12.729747
1995.716791	-12.714952
1997.046223	-12.701220
1998.377428	-12.688430
1999.710409	-12.676249
2001.045169	-12.664185
2002.381713	-12.651994
2003.720043	-12.639853
2005.060163	-12.628352
2006.402077	-12.617971
2007.745788	-12.608767
2009.091301	-12.600285
2010.438618	-12.591940
2011.787743	-12.583497
2013.138680	-12.575271
2014.491433	-12.567944
2015.846005	-12.561882
2017.202399	-12.556726
2018.560621	-12.551673
2019.920673	-12.546208
2021.282558	-12.540489
2022.646281	-12.535132
2024.011846	-12.530626
2025.379256	-12.526917
2026.748515	-12.523369
2028.119626	-12.519276
2029.492594	-12.514430
2030.867422	-12.509287
2032.244114	-12.504430
2033.622673	-12.500074
2035.003104	-12.495853
2036.385411	-12.491215
2037.769597	-12.486004
2039.155665	-12.480488
2040.543621	-12.475088
2041.933467	-12.470021
2043.325208	-12.465457
2044.718847	-12.461441
2046.114389	-12.457767
2047.511837	-12.453979
2048.911195	-12.449845
2050.312467	-12.445729
2051.715657	-12.442277
2053.120769	-12.439785
2054.527807	-12.437800
2055.936775	-12.435691
2057.347677	-12.433317
2058.760516	-12.431174
2060.175297	-12.429960
2061.592025	-12.430037
2063.010701	-12.431223
2064.431332	-12.432969
2065.853921	-12.434905
2067.278472	-12.437132
2068.704988	-12.440028
2070.133475	-12.443881
2071.563936	-12.448751
2072.996375	-12.454577
2074.430796	-12.461163
2075.867204	-12.468295
2077.305603	-12.475937
2078.745996	-12.484291
2080.188389	-12.493707
2081.632784	-12.504336
2083.079187	-12.515753
2084.527601	-12.527098
2085.978030	-12.537756
2087.430480	-12.548070
2088.884954	-12.558949
2090.341455	-12.570756
2091.799990	-12.582763
2093.260561	-12.593939
2094.723173	-12.603962
2096.187831	-12.613377
2097.654538	-12.622924
2099.123300	-12.632822
2100.594119	-12.642848
2102.067001	-12.652769
2103.541950	-12.662468
2105.018971	-12.671983
2106.498067	-12.681597
2107.979243	-12.691859
2109.462503	-12.703154
2110.947853	-12.715234
2112.435295	-12.727248
2113.924836	-12.738513
2115.416478	-12.749310
2116.910227	-12.760861
2118.406087	-12.774092
2119.904063	-12.788481
2121.404158	-12.802649
2122.906378	-12.816082
2124.410727	-12.829893
2125.917210	-12.845696
2127.425831	-12.863908
2128.936594	-12.883457
2130.449505	-12.903139
2131.964567	-12.923110
2133.481786	-12.944652
2135.001166	-12.968585
2136.522711	-12.994439
2138.046427	-13.021244
2139.572317	-13.048441
2141.100388	-13.075935
2142.630642	-13.104003
2144.163085	-13.133211
2145.697722	-13.164005
2147.234558	-13.195806
2148.773596	-13.227058
2150.314842	-13.256997
2151.858301	-13.286928
2153.403977	-13.318500
2154.951875	-13.351117
2156.502000	-13.382633
2158.054357	-13.412463
2159.608950	-13.442388
2161.165785	-13.474094
2162.724866	-13.507091
2164.286198	-13.539684
2165.849786	-13.571273
2167.415635	-13.602610
2168.983749	-13.634329
2170.554134	-13.666306
2172.126795	-13.698248
2173.701737	-13.729882
2175.278964	-13.760836
2176.858481	-13.791212
2178.440294	-13.821898
2180.024408	-13.853425
2181.610827	-13.885047
2183.199557	-13.915803
2184.790602	-13.946202
2186.383968	-13.978127
2187.979660	-14.012755
2189.577683	-14.049363
2191.178041	-14.086790
2192.780741	-14.125456
2194.385787	-14.166759
2195.993185	-14.211181
2197.602939	-14.258105
2199.215054	-14.306959
2200.829537	-14.357677
2202.446392	-14.410234
2204.065624	-14.464329
2205.687239	-14.519553
2207.311242	-14.575610
2208.937638	-14.632189
2210.566433	-14.688768
2212.197631	-14.745138
2213.831239	-14.801738
2215.467261	-14.858836
2217.105703	-14.915495
2218.746570	-14.970361
2220.389867	-15.023705
2222.035601	-15.077292
2223.683776	-15.131728
2225.334398	-15.185778
2226.987472	-15.238581
2228.643004	-15.291007
2230.300999	-15.344447
2231.961463	-15.398776
2233.624402	-15.452655
2235.289820	-15.505688
2236.957723	-15.558819
2238.628118	-15.613407
2240.301009	-15.670275
2241.976402	-15.728619
2243.654303	-15.786651
2245.334717	-15.844627
2247.017650	-15.905653
2248.703108	-15.971744
2250.391096	-16.040896
2252.081620	-16.110353
2253.774686	-16.180962
2255.470300	-16.255233
2257.168467	-16.332907
2258.869193	-16.411757
2260.572484	-16.491434
2262.278345	-16.573288
2263.986783	-16.657719
2265.697804	-16.743919
2267.411412	-16.830265
2269.127615	-16.915337
2270.846417	-16.999974
2272.567826	-17.086491
2274.291846	-17.174969
2276.018484	-17.262724
2277.747745	-17.348300
2279.479637	-17.433010
2281.214164	-17.518126
2282.951333	-17.603030
2284.691149	-17.686376
2286.433619	-17.768087
2288.178750	-17.849910
2289.926546	-17.933163
2291.677014	-18.016102
2293.430161	-18.096649
2295.185992	-18.176690
2296.944513	-18.259591
2298.705732	-18.344622
2300.469653	-18.427888
2302.236283	-18.508719
2304.005629	-18.591354
2305.777696	-18.678452
2307.552492	-18.766781
2309.330022	-18.852905
2311.110292	-18.939792
2312.893310	-19.031856
2314.679080	-19.126884
2316.467611	-19.220894
2318.258907	-19.316067
2320.052976	-19.416039
2321.849824	-19.520147
2323.649457	-19.625740
2325.451883	-19.731150
2327.257106	-19.837831
2329.065135	-19.949748
2330.875975	-20.066186
2332.689633	-20.181218
2334.506116	-20.294562
2336.325430	-20.413745
2338.147581	-20.540432
2339.972578	-20.666535
2341.800425	-20.789422
2343.631130	-20.916061
2345.464700	-21.049417
2347.301141	-21.184208
2349.140461	-21.314930
2350.982665	-21.442609
2352.827760	-21.572158
2354.675754	-21.702971
2356.526653	-21.827828
2358.380464	-21.944602
2360.237195	-22.060811
2362.096851	-22.179589
2363.959440	-22.293352
2365.824968	-22.399161
2367.693444	-22.505443
2369.564873	-22.614988
2371.439263	-22.720875
2373.316620	-22.823076
2375.196953	-22.928337
2377.080267	-23.037630
2378.966570	-23.149715
2380.855869	-23.262642
2382.748171	-23.374447
2384.643484	-23.492301
2386.541815	-23.620846
2388.443170	-23.750025
2390.347557	-23.874707
2392.254984	-24.006223
2394.165457	-24.148888
2396.078984	-24.291266
2397.995572	-24.430884
2399.915229	-24.576270
2401.837961	-24.727656
2403.763777	-24.880310
2405.692684	-25.033698
2407.624689	-25.190111
2409.559800	-25.353820
2411.498023	-25.524109
2413.439368	-25.691111
2415.383840	-25.855864
2417.331449	-26.032014
2419.282201	-26.212252
2421.236104	-26.381247
2423.193165	-26.545857
2425.153393	-26.711389
2427.116795	-26.868760
2429.083378	-27.009862
2431.053151	-27.138730
2433.026121	-27.267368
2435.002297	-27.394252
2436.981685	-27.508664
2438.964293	-27.616397
2440.950131	-27.727347
2442.939204	-27.833670
2444.931522	-27.937227
2446.927092	-28.051163
2448.925923	-28.172042
2450.928022	-28.293094
2452.933397	-28.414478
2454.942056	-28.540570
2456.954008	-28.680825
2458.969260	-28.835059
2460.987821	-28.988051
2463.009699	-29.142815
2465.034902	-29.312466
2467.063437	-29.483796
2469.095315	-29.654710
2471.130542	-29.842007
2473.169127	-30.035663
2475.211078	-30.225098
2477.256404	-30.419792
2479.305112	-30.615805
2481.357212	-30.822056
2483.412713	-31.044654
2485.471621	-31.256174
2487.533946	-31.474019
2489.599696	-31.710122
2491.668880	-31.930391
2493.741507	-32.150476
2495.817585	-32.374352
2497.897122	-32.567532
2499.980127	-32.747282
2502.066609	-32.909897
2504.156578	-33.043581
2506.250040	-33.164903
2508.347006	-33.249380
2510.447483	-33.323225
2512.551482	-33.415745
2514.659010	-33.483230
2516.770076	-33.546340
2518.884690	-33.640036
2521.002861	-33.729445
2523.124597	-33.816059
2525.249907	-33.921945
2527.378801	-34.038663
2529.511287	-34.169485
2531.647375	-34.306591
2533.787074	-34.457620
2535.930393	-34.634502
2538.077340	-34.808486
2540.227927	-34.993299
2542.382160	-35.207890
2544.540051	-35.413747
2546.701608	-35.625614
2548.866840	-35.872798
2551.035757	-36.121282
2553.208369	-36.373334
2555.384684	-36.654627
2557.564713	-36.952933
2559.748465	-37.246776
2561.935948	-37.548539
2564.127174	-37.895413
2566.322152	-38.241241
2568.520890	-38.552231
2570.723399	-38.898952
2572.929689	-39.217013
2575.139769	-39.447382
2577.353649	-39.651581
2579.571340	-39.791302
2581.792849	-39.868350
2584.018189	-39.905130
2586.247368	-39.900688
2588.480396	-39.887357
2590.717284	-39.870029
2592.958041	-39.861449
2595.202678	-39.851313
2597.451204	-39.858761
2599.703630	-39.898179
2601.959966	-39.913971
2604.220222	-39.931108
2606.484408	-40.010952
2608.752535	-40.099294
2611.024612	-40.177941
2613.300651	-40.318173
2615.580661	-40.465680
2617.864653	-40.581447
2620.152638	-40.778193
2622.444625	-40.991857
2624.740626	-41.219000
2627.040651	-41.489805
2629.344710	-41.739842
2631.652814	-42.066001
2633.964974	-42.419786
2636.281200	-42.801553
2638.601504	-43.253442
2640.925896	-43.743871
2643.254386	-44.315560
2645.586987	-44.862764
2647.923707	-45.507998
2650.264559	-46.233205
2652.609554	-46.802549
2654.958702	-47.426387
2657.312015	-47.862401
2659.669503	-48.039778
2662.031178	-48.122270
2664.397051	-48.057116
2666.767132	-47.995122
2669.141434	-47.781943
2671.519968	-47.716317
2673.902745	-47.561983
2676.289776	-47.287090
2678.681072	-47.230398
2681.076646	-47.033456
2683.476508	-46.861519
2685.880671	-46.745179
2688.289145	-46.639784
2690.701942	-46.536125
2693.119075	-46.459773
2695.540554	-46.469058
2697.966391	-46.431415
2700.396599	-46.523706
2702.831189	-46.517366
2705.270172	-46.533357
2707.713561	-46.708700
2710.161368	-46.794052
2712.613605	-47.033380
2715.070283	-47.280184
2717.531416	-47.488188
2719.997014	-48.022279
2722.467090	-48.543282
2724.941657	-49.023025
2727.420726	-49.784856
2729.904310	-50.678505
2732.392421	-51.559775
2734.885072	-52.819246
2737.382275	-54.003865
2739.884042	-55.002971
2742.390387	-56.257112
2744.901321	-56.852515
2747.416857	-57.301596
2749.937008	-57.908172
2752.461787	-57.938775
2754.991206	-58.294471
2757.525279	-58.277423
2760.064017	-58.113696
2762.607434	-57.968211
2765.155544	-57.628809
2767.708358	-56.904480
2770.265890	-56.444563
2772.828153	-56.033029
2775.395160	-55.580607
2777.966924	-55.038186
2780.543459	-54.526943
2783.124778	-54.292005
2785.710894	-53.702541
2788.301821	-53.465597
2790.897572	-53.018089
2793.498160	-52.656107
2796.103599	-52.713562
2798.713903	-52.509900
2801.329085	-52.558710
2803.949159	-52.880120
2806.574139	-53.072375
2809.204038	-53.522174
2811.838871	-54.134039
2814.478650	-54.688006
2817.123391	-55.764150
2819.773107	-56.841697
2822.427812	-57.772277
2825.087521	-58.784337
2827.752247	-59.892495
2830.422005	-60.357975
2833.096808	-60.840259
2835.776672	-61.886232
2838.461611	-61.987819
2841.151638	-63.064652
2843.846769	-64.104562
2846.547019	-65.519142
2849.252401	-67.008098
2851.962930	-68.365250
2854.678621	-72.262050
2857.399489	-73.346228
2860.125549	-77.052307
2862.856815	-79.787686
2865.593302	-73.080772
2868.335026	-70.812722
2871.082002	-67.262507
2873.834244	-64.899694
2876.591767	-62.901391
2879.354588	-62.167186
2882.122721	-60.947971
2884.896181	-59.948253
2887.674984	-60.341936
2890.459146	-59.736038
2893.248681	-59.705092
2896.043606	-60.071171
2898.843937	-59.780831
2901.649687	-61.341087
2904.460875	-61.551926
2907.277515	-63.299842
2910.099623	-63.985005
2912.927215	-64.932609
2915.760308	-67.588358
2918.598916	-65.940446
2921.443057	-66.523359
2924.292747	-67.268823
2927.148002	-66.151521
2930.008837	-67.233930
2932.875270	-66.919849
2935.747318	-67.863936
2938.624995	-67.148094
2941.508320	-67.529472
2944.397308	-67.328559
2947.291977	-68.301889
2950.192343	-68.173105
2953.098423	-68.525241
2956.010234	-69.366426
2958.927792	-69.830591
2961.851116	-71.147039
2964.780221	-71.619444
2967.715126	-68.932946
2970.655847	-70.097431
2973.602402	-70.200145
2976.554808	-68.364269
2979.513083	-67.933251
2982.477243	-68.258727
2985.447308	-67.109632
2988.423293	-67.991988
2991.405218	-67.406445
2994.393099	-69.185960
2997.386955	-68.800611
