# 2022-03-21_14.45.36
# shape = sech2
# FWHM_ps = 0.1
# carrier_nm = 1542
# frep_MHz = 12126
# pow_mW = 8000
# GDD = 0.0
# propa_len = 0.15222222222222223
# untap_len = 0.01
# taper_len = 0.09222222222222223
# waist_len = 0.02
# uptap_len = 0.02
# untap_scale = 1.0
# waist_scale = 0.13333333333333336
# workingDir = NL_20110305_12 (Spirou)
# axis = slow
# window_ps = 10.0
# steps = 200
# points = 13000
# 
# wavelength [nm]	 power spectral density [dB]
1000.248639	-23.412790
1000.582480	-23.310545
1000.916545	-23.404732
1001.250832	-23.381103
1001.585343	-23.163495
1001.920077	-23.234927
1002.255035	-23.271965
1002.590218	-23.114313
1002.925624	-23.066349
1003.261255	-23.120832
1003.597111	-23.058890
1003.933192	-22.950673
1004.269497	-22.986104
1004.606029	-22.966384
1004.942785	-22.855793
1005.279768	-22.859391
1005.616977	-22.910447
1005.954412	-22.709870
1006.292074	-22.811446
1006.629962	-22.758602
1006.968077	-22.711141
1007.306420	-22.674446
1007.644990	-22.625621
1007.983787	-22.704302
1008.322813	-22.586284
1008.662067	-22.504768
1009.001549	-22.610261
1009.341259	-22.544872
1009.681199	-22.428755
1010.021367	-22.497507
1010.361765	-22.422097
1010.702392	-22.470066
1011.043250	-22.359406
1011.384337	-22.258340
1011.725654	-22.522206
1012.067202	-22.213256
1012.408980	-22.262985
1012.750989	-22.329102
1013.093230	-22.192904
1013.435702	-22.264973
1013.778405	-22.142629
1014.121341	-22.225784
1014.464508	-22.167039
1014.807908	-22.076140
1015.151540	-22.177922
1015.495405	-22.108080
1015.839503	-22.041923
1016.183835	-22.087315
1016.528400	-22.101828
1016.873198	-22.002230
1017.218231	-21.989925
1017.563498	-22.052799
1017.908999	-22.023781
1018.254735	-21.944014
1018.600707	-21.952750
1018.946913	-21.956557
1019.293354	-22.004927
1019.640032	-21.865476
1019.986945	-21.846769
1020.334094	-22.006877
1020.681480	-21.855995
1021.029102	-21.799282
1021.376961	-21.817533
1021.725058	-21.895014
1022.073391	-21.820850
1022.421962	-21.668320
1022.770772	-21.814929
1023.119819	-21.804391
1023.469104	-21.662150
1023.818628	-21.637549
1024.168391	-21.775026
1024.518393	-21.669100
1024.868634	-21.539195
1025.219115	-21.666662
1025.569836	-21.605647
1025.920796	-21.571177
1026.271997	-21.510640
1026.623438	-21.541652
1026.975121	-21.537713
1027.327044	-21.472793
1027.679208	-21.449869
1028.031614	-21.413335
1028.384262	-21.471879
1028.737152	-21.383884
1029.090284	-21.329271
1029.443659	-21.358631
1029.797276	-21.391175
1030.151137	-21.268269
1030.505240	-21.184397
1030.859587	-21.364059
1031.214178	-21.256511
1031.569013	-21.104094
1031.924093	-21.178320
1032.279417	-21.272560
1032.634985	-21.108500
1032.990799	-21.015031
1033.346858	-21.147137
1033.703162	-21.087837
1034.059712	-21.059880
1034.416509	-21.013655
1034.773551	-20.946949
1035.130841	-21.021842
1035.488377	-21.060232
1035.846160	-20.894221
1036.204190	-20.816684
1036.562468	-21.048150
1036.920994	-20.971003
1037.279768	-20.792592
1037.638790	-20.877151
1037.998061	-20.944499
1038.357581	-20.831250
1038.717350	-20.840003
1039.077368	-20.942520
1039.437636	-20.770146
1039.798154	-20.802292
1040.158922	-20.910927
1040.519940	-20.825282
1040.881209	-20.811347
1041.242729	-20.773380
1041.604501	-20.792134
1041.966524	-20.849420
1042.328798	-20.867232
1042.691325	-20.702677
1043.054103	-20.684663
1043.417135	-20.868759
1043.780419	-20.813887
1044.143956	-20.745091
1044.507746	-20.638624
1044.871791	-20.687898
1045.236088	-20.856065
1045.600641	-20.779577
1045.965447	-20.563283
1046.330508	-20.579228
1046.695824	-20.810351
1047.061395	-20.707186
1047.427222	-20.576607
1047.793304	-20.580043
1048.159642	-20.613850
1048.526237	-20.659965
1048.893088	-20.569844
1049.260196	-20.530404
1049.627561	-20.509500
1049.995183	-20.552307
1050.363063	-20.514895
1050.731201	-20.447634
1051.099597	-20.459235
1051.468251	-20.420893
1051.837164	-20.440431
1052.206336	-20.351103
1052.575767	-20.306085
1052.945458	-20.387523
1053.315409	-20.362632
1053.685619	-20.233402
1054.056090	-20.160300
1054.426821	-20.289128
1054.797814	-20.300809
1055.169067	-20.156145
1055.540582	-20.086501
1055.912359	-20.107341
1056.284398	-20.198062
1056.656698	-20.119919
1057.029262	-20.034843
1057.402088	-20.019283
1057.775177	-20.013842
1058.148530	-20.053559
1058.522146	-20.019087
1058.896027	-19.983391
1059.270171	-19.908483
1059.644580	-19.940493
1060.019254	-19.981801
1060.394193	-19.922861
1060.769397	-19.901507
1061.144867	-19.898504
1061.520602	-19.919744
1061.896604	-19.852333
1062.272872	-19.839153
1062.649407	-19.919148
1063.026210	-19.909513
1063.403279	-19.813492
1063.780616	-19.751611
1064.158221	-19.858294
1064.536094	-19.936085
1064.914235	-19.829619
1065.292645	-19.735218
1065.671325	-19.751513
1066.050273	-19.871780
1066.429491	-19.844999
1066.808979	-19.753478
1067.188738	-19.731756
1067.568766	-19.764343
1067.949066	-19.804955
1068.329636	-19.725356
1068.710478	-19.706335
1069.091592	-19.730065
1069.472977	-19.735988
1069.854635	-19.675436
1070.236565	-19.611240
1070.618768	-19.654040
1071.001243	-19.674057
1071.383993	-19.624698
1071.767016	-19.553343
1072.150313	-19.499806
1072.533884	-19.550931
1072.917730	-19.535735
1073.301850	-19.498061
1073.686246	-19.440498
1074.070917	-19.405080
1074.455864	-19.381623
1074.841087	-19.374427
1075.226586	-19.385597
1075.612362	-19.315417
1075.998415	-19.270262
1076.384745	-19.235426
1076.771353	-19.217496
1077.158238	-19.211947
1077.545401	-19.165024
1077.932843	-19.132150
1078.320564	-19.103064
1078.708564	-19.055510
1079.096842	-19.016093
1079.485401	-18.990179
1079.874240	-19.019131
1080.263358	-18.987229
1080.652757	-18.920489
1081.042438	-18.855437
1081.432399	-18.863370
1081.822641	-18.902787
1082.213166	-18.906086
1082.603972	-18.833693
1082.995061	-18.764181
1083.386433	-18.769509
1083.778087	-18.805157
1084.170025	-18.811746
1084.562246	-18.778167
1084.954751	-18.710749
1085.347541	-18.700796
1085.740615	-18.713376
1086.133973	-18.721164
1086.527617	-18.704946
1086.921546	-18.669402
1087.315761	-18.663680
1087.710262	-18.649227
1088.105050	-18.668160
1088.500124	-18.640736
1088.895485	-18.613565
1089.291134	-18.643192
1089.687070	-18.650528
1090.083294	-18.631763
1090.479806	-18.569319
1090.876607	-18.558089
1091.273696	-18.603103
1091.671075	-18.598646
1092.068744	-18.569264
1092.466702	-18.493819
1092.864950	-18.472166
1093.263489	-18.481201
1093.662319	-18.463719
1094.061440	-18.448040
1094.460852	-18.397262
1094.860555	-18.358969
1095.260551	-18.322562
1095.660840	-18.303069
1096.061421	-18.317247
1096.462295	-18.270544
1096.863462	-18.246127
1097.264923	-18.201186
1097.666678	-18.188455
1098.068727	-18.184513
1098.471071	-18.141508
1098.873710	-18.117045
1099.276644	-18.087827
1099.679874	-18.071031
1100.083400	-18.038534
1100.487222	-17.987723
1100.891340	-17.948385
1101.295756	-17.897606
1101.700468	-17.889546
1102.105478	-17.863763
1102.510787	-17.809682
1102.916393	-17.747317
1103.322298	-17.693302
1103.728502	-17.694147
1104.135005	-17.684208
1104.541807	-17.663560
1104.948909	-17.614184
1105.356312	-17.577378
1105.764015	-17.577648
1106.172019	-17.583243
1106.580324	-17.594976
1106.988931	-17.587903
1107.397840	-17.565584
1107.807051	-17.552072
1108.216564	-17.556849
1108.626380	-17.591917
1109.036500	-17.579987
1109.446923	-17.561768
1109.857649	-17.526553
1110.268680	-17.523445
1110.680016	-17.528322
1111.091657	-17.511712
1111.503602	-17.478401
1111.915854	-17.436779
1112.328411	-17.404269
1112.741275	-17.390614
1113.154445	-17.364637
1113.567922	-17.354313
1113.981706	-17.301700
1114.395798	-17.272798
1114.810198	-17.246555
1115.224906	-17.252923
1115.639923	-17.244198
1116.055249	-17.225688
1116.470884	-17.207368
1116.886829	-17.196900
1117.303084	-17.207417
1117.719650	-17.220966
1118.136526	-17.219914
1118.553713	-17.198989
1118.971212	-17.184872
1119.389022	-17.184865
1119.807145	-17.209259
1120.225580	-17.202157
1120.644328	-17.166502
1121.063389	-17.096071
1121.482763	-17.091611
1121.902452	-17.077283
1122.322454	-17.068352
1122.742771	-17.012785
1123.163404	-16.939495
1123.584351	-16.874682
1124.005614	-16.840877
1124.427193	-16.819606
1124.849089	-16.778311
1125.271301	-16.729129
1125.693830	-16.664349
1126.116677	-16.619560
1126.539842	-16.583676
1126.963324	-16.572146
1127.387126	-16.548800
1127.811246	-16.529627
1128.235685	-16.484914
1128.660444	-16.471468
1129.085522	-16.463474
1129.510922	-16.469274
1129.936641	-16.459034
1130.362682	-16.435877
1130.789044	-16.423028
1131.215728	-16.421032
1131.642734	-16.439199
1132.070063	-16.424726
1132.497714	-16.409667
1132.925689	-16.371230
1133.353987	-16.354822
1133.782610	-16.341748
1134.211556	-16.342841
1134.640827	-16.332355
1135.070424	-16.292254
1135.500345	-16.239330
1135.930593	-16.195542
1136.361166	-16.180993
1136.792067	-16.174891
1137.223294	-16.159721
1137.654848	-16.116001
1138.086730	-16.063224
1138.518940	-16.023515
1138.951479	-16.021326
1139.384346	-16.019096
1139.817543	-16.014711
1140.251069	-15.977395
1140.684925	-15.941026
1141.119111	-15.931608
1141.553628	-15.931663
1141.988475	-15.953228
1142.423655	-15.939477
1142.859166	-15.919533
1143.295009	-15.891141
1143.731185	-15.892777
1144.167694	-15.914619
1144.604536	-15.930531
1145.041711	-15.921019
1145.479221	-15.869511
1145.917065	-15.836627
1146.355245	-15.822039
1146.793759	-15.843330
1147.232609	-15.851165
1147.671795	-15.829512
1148.111317	-15.774912
1148.551177	-15.717810
1148.991373	-15.690109
1149.431907	-15.671559
1149.872779	-15.661295
1150.313989	-15.628092
1150.755538	-15.577904
1151.197426	-15.521592
1151.639653	-15.481681
1152.082220	-15.451630
1152.525128	-15.427433
1152.968376	-15.396834
1153.411966	-15.349301
1153.855897	-15.308949
1154.300169	-15.269351
1154.744784	-15.252219
1155.189742	-15.229534
1155.635042	-15.202483
1156.080687	-15.166767
1156.526674	-15.128988
1156.973007	-15.115621
1157.419683	-15.110685
1157.866705	-15.117759
1158.314072	-15.102564
1158.761786	-15.077572
1159.209845	-15.045856
1159.658251	-15.030897
1160.107004	-15.044708
1160.556104	-15.058594
1161.005553	-15.069601
1161.455349	-15.048086
1161.905494	-15.022732
1162.355989	-15.011922
1162.806832	-15.017415
1163.258026	-15.045503
1163.709570	-15.046330
1164.161464	-15.038776
1164.613710	-15.004529
1165.066307	-14.990175
1165.519256	-14.987864
1165.972558	-14.994685
1166.426212	-14.991536
1166.880219	-14.966228
1167.334580	-14.930572
1167.789295	-14.905898
1168.244364	-14.893409
1168.699788	-14.897658
1169.155567	-14.875503
1169.611702	-14.848054
1170.068193	-14.786320
1170.525041	-14.747324
1170.982245	-14.721632
1171.439807	-14.708301
1171.897726	-14.698382
1172.356004	-14.655226
1172.814640	-14.614429
1173.273635	-14.568664
1173.732989	-14.548712
1174.192703	-14.533183
1174.652778	-14.506280
1175.113213	-14.467944
1175.574009	-14.412108
1176.035167	-14.383246
1176.496687	-14.382568
1176.958569	-14.391171
1177.420814	-14.403759
1177.883422	-14.360716
1178.346394	-14.309860
1178.809730	-14.252906
1179.273430	-14.242273
1179.737496	-14.272100
1180.201927	-14.304681
1180.666723	-14.316143
1181.131886	-14.279373
1181.597416	-14.226625
1182.063312	-14.198065
1182.529576	-14.190041
1182.996209	-14.219027
1183.463209	-14.232819
1183.930579	-14.228936
1184.398317	-14.210697
1184.866426	-14.176132
1185.334904	-14.170650
1185.803754	-14.160034
1186.272974	-14.161968
1186.742566	-14.152263
1187.212529	-14.128672
1187.682865	-14.120786
1188.153574	-14.112904
1188.624656	-14.115273
1189.096112	-14.114339
1189.567942	-14.092196
1190.040147	-14.071383
1190.512726	-14.046332
1190.985681	-14.034413
1191.459012	-14.038457
1191.932720	-14.037551
1192.406804	-14.040352
1192.881265	-14.025974
1193.356104	-14.002932
1193.831322	-13.984560
1194.306918	-13.960497
1194.782893	-13.955140
1195.259248	-13.951064
1195.735982	-13.941555
1196.213097	-13.938945
1196.690593	-13.915720
1197.168471	-13.897150
1197.646730	-13.867387
1198.125371	-13.840572
1198.604395	-13.823923
1199.083803	-13.805713
1199.563594	-13.793637
1200.043769	-13.775773
1200.524329	-13.745967
1201.005273	-13.721447
1201.486604	-13.681136
1201.968320	-13.653778
1202.450422	-13.632159
1202.932912	-13.608958
1203.415789	-13.599245
1203.899054	-13.569564
1204.382707	-13.543524
1204.866748	-13.513576
1205.351179	-13.481980
1205.836000	-13.464026
1206.321211	-13.449517
1206.806812	-13.435932
1207.292805	-13.423542
1207.779189	-13.397981
1208.265965	-13.373073
1208.753134	-13.356525
1209.240696	-13.341701
1209.728651	-13.334791
1210.217000	-13.327428
1210.705744	-13.308776
1211.194883	-13.297337
1211.684417	-13.276360
1212.174347	-13.262626
1212.664673	-13.258967
1213.155396	-13.245321
1213.646516	-13.243951
1214.138034	-13.227369
1214.629951	-13.211008
1215.122266	-13.201060
1215.614980	-13.187662
1216.108095	-13.185363
1216.601609	-13.180931
1217.095524	-13.168254
1217.589841	-13.155779
1218.084559	-13.143073
1218.579679	-13.132990
1219.075202	-13.132387
1219.571128	-13.126764
1220.067458	-13.114579
1220.564191	-13.107876
1221.061330	-13.089092
1221.558874	-13.083024
1222.056823	-13.082843
1222.555178	-13.069471
1223.053940	-13.068335
1223.553109	-13.047574
1224.052686	-13.029964
1224.552671	-13.025900
1225.053065	-13.015016
1225.553867	-13.009725
1226.055079	-12.998635
1226.556702	-12.973631
1227.058735	-12.954961
1227.561179	-12.944855
1228.064035	-12.929602
1228.567303	-12.927471
1229.070983	-12.910132
1229.575077	-12.879902
1230.079585	-12.864243
1230.584506	-12.841277
1231.089842	-12.831718
1231.595594	-12.827582
1232.101761	-12.805403
1232.608345	-12.780839
1233.115345	-12.758353
1233.622762	-12.734797
1234.130597	-12.725663
1234.638851	-12.721086
1235.147523	-12.700230
1235.656615	-12.678964
1236.166126	-12.656164
1236.676058	-12.631428
1237.186411	-12.625892
1237.697185	-12.619960
1238.208381	-12.602690
1238.719999	-12.589036
1239.232040	-12.564596
1239.744505	-12.543151
1240.257394	-12.540637
1240.770708	-12.533995
1241.284446	-12.526251
1241.798610	-12.515606
1242.313201	-12.491766
1242.828218	-12.478251
1243.343662	-12.476564
1243.859534	-12.471672
1244.375834	-12.470978
1244.892563	-12.463009
1245.409721	-12.442954
1245.927309	-12.433359
1246.445327	-12.431914
1246.963777	-12.431413
1247.482657	-12.432597
1248.001970	-12.427043
1248.521716	-12.407583
1249.041894	-12.401021
1249.562506	-12.401556
1250.083553	-12.398470
1250.605034	-12.403637
1251.126950	-12.395297
1251.649302	-12.375408
1252.172091	-12.372142
1252.695316	-12.371976
1253.218979	-12.368355
1253.743079	-12.370405
1254.267619	-12.362077
1254.792597	-12.343480
1255.318015	-12.339947
1255.843874	-12.341214
1256.370173	-12.335740
1256.896913	-12.335900
1257.424095	-12.329291
1257.951720	-12.310146
1258.479787	-12.309506
1259.008298	-12.311120
1259.537254	-12.304570
1260.066654	-12.306821
1260.596499	-12.295579
1261.126790	-12.281486
1261.657527	-12.283240
1262.188711	-12.283152
1262.720342	-12.276324
1263.252422	-12.276896
1263.784950	-12.267227
1264.317928	-12.251977
1264.851355	-12.254092
1265.385232	-12.255262
1265.919560	-12.245638
1266.454340	-12.240349
1266.989572	-12.232632
1267.525256	-12.217797
1268.061394	-12.216306
1268.597985	-12.217210
1269.135031	-12.204628
1269.672531	-12.194164
1270.210487	-12.187209
1270.748899	-12.172862
1271.287768	-12.167622
1271.827094	-12.169277
1272.366877	-12.153349
1272.907119	-12.137435
1273.447820	-12.135468
1273.988981	-12.122495
1274.530601	-12.113002
1275.072683	-12.114655
1275.615226	-12.100673
1276.158230	-12.082910
1276.701697	-12.079243
1277.245627	-12.076322
1277.790021	-12.065005
1278.334879	-12.059544
1278.880202	-12.052811
1279.425991	-12.037132
1279.972245	-12.031555
1280.518966	-12.033166
1281.066155	-12.026063
1281.613811	-12.012917
1282.161936	-12.006898
1282.710529	-12.000666
1283.259593	-11.993247
1283.809126	-11.994047
1284.359131	-11.986086
1284.909607	-11.971579
1285.460555	-11.966749
1286.011976	-11.964635
1286.563870	-11.958194
1287.116237	-11.951075
1287.669080	-11.944078
1288.222397	-11.934934
1288.776191	-11.927476
1289.330460	-11.926354
1289.885207	-11.919751
1290.440431	-11.908540
1290.996133	-11.907643
1291.552314	-11.895820
1292.108975	-11.886946
1292.666115	-11.889719
1293.223737	-11.885756
1293.781839	-11.868868
1294.340424	-11.865107
1294.899491	-11.865539
1295.459041	-11.857273
1296.019075	-11.851263
1296.579593	-11.852610
1297.140597	-11.844208
1297.702086	-11.831169
1298.264061	-11.838025
1298.826524	-11.837542
1299.389474	-11.827758
1299.952912	-11.822765
1300.516839	-11.822472
1301.081255	-11.818991
1301.646162	-11.815751
1302.211559	-11.817046
1302.777448	-11.815831
1303.343829	-11.804427
1303.910702	-11.804040
1304.478069	-11.811970
1305.045930	-11.806196
1305.614285	-11.801468
1306.183136	-11.802470
1306.752483	-11.799444
1307.322326	-11.796252
1307.892666	-11.801729
1308.463504	-11.802039
1309.034841	-11.792238
1309.606677	-11.791953
1310.179012	-11.798173
1310.751849	-11.797702
1311.325186	-11.795643
1311.899025	-11.796764
1312.473366	-11.797204
1313.048211	-11.795690
1313.623559	-11.799383
1314.199412	-11.808457
1314.775770	-11.806084
1315.352634	-11.798150
1315.930004	-11.809647
1316.507881	-11.819859
1317.086266	-11.817638
1317.665159	-11.819694
1318.244562	-11.826365
1318.824474	-11.834382
1319.404897	-11.835266
1319.985831	-11.843319
1320.567276	-11.855884
1321.149234	-11.854763
1321.731706	-11.854044
1322.314691	-11.872768
1322.898190	-11.883996
1323.482205	-11.882282
1324.066736	-11.885513
1324.651783	-11.899357
1325.237347	-11.909574
1325.823430	-11.910831
1326.410031	-11.919246
1326.997151	-11.929293
1327.584791	-11.929769
1328.172952	-11.937831
1328.761634	-11.953406
1329.350839	-11.955603
1329.940566	-11.957074
1330.530817	-11.966587
1331.121592	-11.977869
1331.712891	-11.984497
1332.304716	-11.988132
1332.897068	-11.996486
1333.489946	-12.007222
1334.083352	-12.012032
1334.677287	-12.020808
1335.271750	-12.034428
1335.866744	-12.039631
1336.462268	-12.041793
1337.058323	-12.055426
1337.654910	-12.074536
1338.252029	-12.077385
1338.849682	-12.077051
1339.447869	-12.094106
1340.046591	-12.113446
1340.645848	-12.114886
1341.245641	-12.118001
1341.845972	-12.132301
1342.446840	-12.148153
1343.048246	-12.152743
1343.650191	-12.156804
1344.252677	-12.169870
1344.855702	-12.183480
1345.459269	-12.184888
1346.063379	-12.190661
1346.668030	-12.207059
1347.273226	-12.215019
1347.878965	-12.214285
1348.485250	-12.223395
1349.092080	-12.238070
1349.699456	-12.245744
1350.307380	-12.243360
1350.915851	-12.248323
1351.524871	-12.265745
1352.134441	-12.273551
1352.744560	-12.266822
1353.355231	-12.272608
1353.966453	-12.289536
1354.578227	-12.293256
1355.190555	-12.287862
1355.803436	-12.295343
1356.416872	-12.309610
1357.030863	-12.309926
1357.645411	-12.307596
1358.260515	-12.316605
1358.876177	-12.327983
1359.492397	-12.328951
1360.109176	-12.326054
1360.726516	-12.337039
1361.344416	-12.351462
1361.962877	-12.348724
1362.581901	-12.347614
1363.201487	-12.360252
1363.821637	-12.372713
1364.442352	-12.377375
1365.063632	-12.374238
1365.685478	-12.380177
1366.307891	-12.403043
1366.930871	-12.408705
1367.554420	-12.400448
1368.178538	-12.411044
1368.803226	-12.432835
1369.428485	-12.439699
1370.054315	-12.437101
1370.680717	-12.443283
1371.307693	-12.463237
1371.935242	-12.474946
1372.563366	-12.477352
1373.192065	-12.478156
1373.821341	-12.496176
1374.451193	-12.516408
1375.081623	-12.512225
1375.712632	-12.518794
1376.344221	-12.532721
1376.976389	-12.551637
1377.609139	-12.557629
1378.242470	-12.553675
1378.876384	-12.572537
1379.510881	-12.592750
1380.145963	-12.597142
1380.781629	-12.595599
1381.417881	-12.610369
1382.054720	-12.633093
1382.692147	-12.640514
1383.330161	-12.638388
1383.968765	-12.649665
1384.607959	-12.671582
1385.247743	-12.686736
1385.888119	-12.684955
1386.529087	-12.689426
1387.170648	-12.714161
1387.812804	-12.733532
1388.455554	-12.735871
1389.098899	-12.739396
1389.742842	-12.758895
1390.387381	-12.782994
1391.032519	-12.792435
1391.678256	-12.795139
1392.324592	-12.809926
1392.971529	-12.832810
1393.619068	-12.851108
1394.267208	-12.857861
1394.915952	-12.864364
1395.565300	-12.889733
1396.215253	-12.913660
1396.865812	-12.921218
1397.516977	-12.930757
1398.168749	-12.952745
1398.821130	-12.979070
1399.474120	-12.996132
1400.127719	-13.003381
1400.781930	-13.023017
1401.436752	-13.054715
1402.092186	-13.074085
1402.748234	-13.083712
1403.404897	-13.098009
1404.062174	-13.125995
1404.720067	-13.154387
1405.378577	-13.164674
1406.037705	-13.173017
1406.697451	-13.199590
1407.357817	-13.227764
1408.018803	-13.245873
1408.680410	-13.256500
1409.342639	-13.269216
1410.005492	-13.297340
1410.668968	-13.324413
1411.333068	-13.334338
1411.997795	-13.345032
1412.663147	-13.367646
1413.329127	-13.392886
1413.995736	-13.413876
1414.662973	-13.424464
1415.330840	-13.435984
1415.999339	-13.459961
1416.668469	-13.482009
1417.338232	-13.492285
1418.008628	-13.500894
1418.679659	-13.517461
1419.351325	-13.539851
1420.023628	-13.554858
1420.696568	-13.557621
1421.370145	-13.571285
1422.044362	-13.597722
1422.719219	-13.608670
1423.394717	-13.605371
1424.070856	-13.617455
1424.747638	-13.638460
1425.425064	-13.647145
1426.103134	-13.652338
1426.781850	-13.660816
1427.461212	-13.669368
1428.141221	-13.687308
1428.821878	-13.709109
1429.503185	-13.710307
1430.185141	-13.707093
1430.867749	-13.724500
1431.551008	-13.746502
1432.234920	-13.749755
1432.919486	-13.743164
1433.604707	-13.745629
1434.290583	-13.763873
1434.977116	-13.786195
1435.664307	-13.791743
1436.352156	-13.784836
1437.040664	-13.793571
1437.729833	-13.824653
1438.419663	-13.845316
1439.110156	-13.836899
1439.801312	-13.821610
1440.493132	-13.829760
1441.185617	-13.855350
1441.878768	-13.865401
1442.572586	-13.850239
1443.267072	-13.840718
1443.962228	-13.858297
1444.658053	-13.889419
1445.354549	-13.910942
1446.051717	-13.914523
1446.749558	-13.910980
1447.448073	-13.919525
1448.147263	-13.940587
1448.847128	-13.957554
1449.547671	-13.953611
1450.248891	-13.930442
1450.950789	-13.914906
1451.653368	-13.927454
1452.356627	-13.948351
1453.060568	-13.954697
1453.765192	-13.953414
1454.470500	-13.961094
1455.176492	-13.983990
1455.883170	-14.017161
1456.590534	-14.045793
1457.298586	-14.055290
1458.007327	-14.046343
1458.716758	-14.036978
1459.426880	-14.037442
1460.137693	-14.034324
1460.849199	-14.014751
1461.561398	-13.986408
1462.274293	-13.965420
1462.987883	-13.963705
1463.702170	-13.980064
1464.417155	-13.999603
1465.132838	-14.012759
1465.849222	-14.028099
1466.566306	-14.060002
1467.284093	-14.105651
1468.002582	-14.136445
1468.721775	-14.129883
1469.441674	-14.099547
1470.162278	-14.072701
1470.883590	-14.053007
1471.605609	-14.016120
1472.328338	-13.942034
1473.051777	-13.847819
1473.775928	-13.774592
1474.500790	-13.740344
1475.226367	-13.723476
1475.952657	-13.694873
1476.679663	-13.658284
1477.407386	-13.642156
1478.135826	-13.657992
1478.864985	-13.684478
1479.594863	-13.691197
1480.325463	-13.665115
1481.056784	-13.617292
1481.788828	-13.558501
1482.521597	-13.477149
1483.255090	-13.359705
1483.989309	-13.215639
1484.724256	-13.064018
1485.459931	-12.909016
1486.196336	-12.751797
1486.933471	-12.604956
1487.671337	-12.484495
1488.409937	-12.398299
1489.149270	-12.346586
1489.889337	-12.325286
1490.630141	-12.335771
1491.371682	-12.388406
1492.113961	-12.487175
1492.856979	-12.616736
1493.600738	-12.756888
1494.345238	-12.902720
1495.090481	-13.056305
1495.836467	-13.206304
1496.583198	-13.325281
1497.330675	-13.391955
1498.078899	-13.406635
1498.827872	-13.383194
1499.577593	-13.327829
1500.328065	-13.232676
1501.079289	-13.100012
1501.831265	-12.956794
1502.583995	-12.831894
1503.337480	-12.733554
1504.091721	-12.653569
1504.846719	-12.593761
1505.602475	-12.569097
1506.358991	-12.591199
1507.116268	-12.653085
1507.874306	-12.736009
1508.633108	-12.825574
1509.392673	-12.920923
1510.153004	-13.016080
1510.914101	-13.081129
1511.675965	-13.076041
1512.438599	-12.983287
1513.202002	-12.803138
1513.966176	-12.531230
1514.731122	-12.160731
1515.496842	-11.700719
1516.263336	-11.178449
1517.030607	-10.628017
1517.798654	-10.073949
1518.567479	-9.525761
1519.337083	-8.992229
1520.107468	-8.491765
1520.878634	-8.040765
1521.650584	-7.642696
1522.423317	-7.295080
1523.196836	-6.998922
1523.971141	-6.759358
1524.746233	-6.583020
1525.522115	-6.471507
1526.298786	-6.420770
1527.076249	-6.429457
1527.854504	-6.502795
1528.633553	-6.646765
1529.413397	-6.863480
1530.194037	-7.151939
1530.975474	-7.511372
1531.757709	-7.946592
1532.540745	-8.466081
1533.324581	-9.072734
1534.109220	-9.761747
1534.894662	-10.526000
1535.680909	-11.357382
1536.467961	-12.241953
1537.255821	-13.148370
1538.044489	-14.011026
1538.833967	-14.735882
1539.624256	-15.226348
1540.415357	-15.422420
1541.207271	-15.334123
1542.000000	-15.029229
1542.793545	-14.590262
1543.587907	-14.092265
1544.383087	-13.591884
1545.179088	-13.130658
1545.975909	-12.734805
1546.773552	-12.409150
1547.572019	-12.144056
1548.371311	-11.936264
1549.171428	-11.790044
1549.972373	-11.708633
1550.774147	-11.686775
1551.576751	-11.712457
1552.380185	-11.776717
1553.184453	-11.879328
1553.989554	-12.022043
1554.795490	-12.199854
1555.602263	-12.401404
1556.409873	-12.615911
1557.218322	-12.843322
1558.027612	-13.089557
1558.837743	-13.351992
1559.648717	-13.619157
1560.460536	-13.885738
1561.273200	-14.157571
1562.086710	-14.445154
1562.901069	-14.748751
1563.716278	-15.055785
1564.532337	-15.360145
1565.349249	-15.673066
1566.167014	-16.004034
1566.985634	-16.342037
1567.805111	-16.663865
1568.625444	-16.959379
1569.446637	-17.236590
1570.268690	-17.490384
1571.091605	-17.685688
1571.915382	-17.790924
1572.740024	-17.810894
1573.565532	-17.760813
1574.391907	-17.627578
1575.219150	-17.397966
1576.047262	-17.091981
1576.876246	-16.748056
1577.706103	-16.381365
1578.536833	-15.989838
1579.368439	-15.581858
1580.200922	-15.186656
1581.034282	-14.818616
1581.868522	-14.470155
1582.703643	-14.135506
1583.539646	-13.830509
1584.376532	-13.565643
1585.214304	-13.332841
1586.052962	-13.122032
1586.892508	-12.939020
1587.732943	-12.793203
1588.574269	-12.681594
1589.416487	-12.590306
1590.259599	-12.518165
1591.103605	-12.475630
1591.948508	-12.462182
1592.794309	-12.464485
1593.641009	-12.476315
1594.488609	-12.503638
1595.337112	-12.552059
1596.186518	-12.611569
1597.036829	-12.669151
1597.888047	-12.728513
1598.740172	-12.798305
1599.593207	-12.872000
1600.447153	-12.937628
1601.302010	-12.994219
1602.157782	-13.050355
1603.014469	-13.108573
1603.872072	-13.158341
1604.730593	-13.196008
1605.590034	-13.231541
1606.450397	-13.270067
1607.311681	-13.304114
1608.173890	-13.331195
1609.037024	-13.359500
1609.901085	-13.394254
1610.766075	-13.431758
1611.631995	-13.469419
1612.498846	-13.512118
1613.366630	-13.567583
1614.235349	-13.630451
1615.105004	-13.696398
1615.975596	-13.772234
1616.847128	-13.862239
1617.719600	-13.959346
1618.593014	-14.059780
1619.467372	-14.169428
1620.342675	-14.289041
1621.218924	-14.412156
1622.096122	-14.531877
1622.974270	-14.654466
1623.853369	-14.780707
1624.733420	-14.901258
1625.614427	-15.011038
1626.496389	-15.118558
1627.379308	-15.223979
1628.263187	-15.315440
1629.148026	-15.394722
1630.033828	-15.468145
1630.920593	-15.537206
1631.808324	-15.593651
1632.697022	-15.637615
1633.586688	-15.681689
1634.477324	-15.726085
1635.368932	-15.760981
1636.261514	-15.790242
1637.155070	-15.825433
1638.049602	-15.861660
1638.945113	-15.889652
1639.841603	-15.917000
1640.739075	-15.948062
1641.637529	-15.977236
1642.536968	-15.997074
1643.437393	-16.013120
1644.338806	-16.029960
1645.241209	-16.036753
1646.144602	-16.030437
1647.048988	-16.020785
1647.954368	-16.006491
1648.860744	-15.978405
1649.768118	-15.942183
1650.676491	-15.906740
1651.585865	-15.866245
1652.496241	-15.818130
1653.407621	-15.769328
1654.320008	-15.724984
1655.233401	-15.678501
1656.147804	-15.626767
1657.063218	-15.579869
1657.979645	-15.538046
1658.897085	-15.488842
1659.815542	-15.438599
1660.735016	-15.395129
1661.655509	-15.345784
1662.577023	-15.290899
1663.499560	-15.238314
1664.423121	-15.184152
1665.347709	-15.125461
1666.273324	-15.064844
1667.199969	-15.007063
1668.127645	-14.949137
1669.056353	-14.888452
1669.986097	-14.831345
1670.916877	-14.777762
1671.848695	-14.721917
1672.781553	-14.666808
1673.715452	-14.616753
1674.650395	-14.565329
1675.586383	-14.511342
1676.523418	-14.461530
1677.461501	-14.412037
1678.400635	-14.358865
1679.340821	-14.307736
1680.282061	-14.259598
1681.224357	-14.209358
1682.167710	-14.159265
1683.112122	-14.113970
1684.057595	-14.068691
1685.004132	-14.021349
1685.951732	-13.978335
1686.900400	-13.937400
1687.850135	-13.893471
1688.800940	-13.852170
1689.752818	-13.814489
1690.705768	-13.773985
1691.659795	-13.734203
1692.614898	-13.698795
1693.571081	-13.662015
1694.528345	-13.624506
1695.486691	-13.591092
1696.446122	-13.558060
1697.406640	-13.523299
1698.368245	-13.491841
1699.330941	-13.462051
1700.294729	-13.430018
1701.259611	-13.400091
1702.225588	-13.372699
1703.192664	-13.342939
1704.160838	-13.314471
1705.130114	-13.288871
1706.100493	-13.260935
1707.071977	-13.233801
1708.044568	-13.209470
1709.018268	-13.183317
1709.993079	-13.157803
1710.969003	-13.134881
1711.946041	-13.110306
1712.924196	-13.086183
1713.903469	-13.064265
1714.883862	-13.041001
1715.865378	-13.018703
1716.848017	-12.998509
1717.831783	-12.977674
1718.816677	-12.958243
1719.802701	-12.940654
1720.789857	-12.922468
1721.778147	-12.905405
1722.767573	-12.889955
1723.758136	-12.874217
1724.749840	-12.859705
1725.742685	-12.847185
1726.736673	-12.834667
1727.731808	-12.823190
1728.728090	-12.813309
1729.725521	-12.802829
1730.724105	-12.792834
1731.723842	-12.784301
1732.724735	-12.775409
1733.726785	-12.767458
1734.729995	-12.761036
1735.734366	-12.753987
1736.739902	-12.747647
1737.746603	-12.742273
1738.754472	-12.736038
1739.763510	-12.730788
1740.773721	-12.726497
1741.785105	-12.721508
1742.797665	-12.718068
1743.811403	-12.715279
1744.826321	-12.711949
1745.842422	-12.710449
1746.859706	-12.709394
1747.878177	-12.708249
1748.897835	-12.708895
1749.918685	-12.709307
1750.940726	-12.709873
1751.963963	-12.711785
1752.988395	-12.713176
1754.014027	-12.715441
1755.040860	-12.718799
1756.068895	-12.721980
1757.098135	-12.726509
1758.128583	-12.731294
1759.160240	-12.735839
1760.193109	-12.741256
1761.227191	-12.746142
1762.262488	-12.751424
1763.299004	-12.757474
1764.336740	-12.763231
1765.375697	-12.770109
1766.415880	-12.776904
1767.457288	-12.783412
1768.499926	-12.790691
1769.543794	-12.797172
1770.588895	-12.804301
1771.635231	-12.812426
1772.682805	-12.820230
1773.731619	-12.829336
1774.781674	-12.838291
1775.832973	-12.847014
1776.885519	-12.856761
1777.939312	-12.865604
1778.994357	-12.875525
1780.050654	-12.886271
1781.108207	-12.896409
1782.167017	-12.908368
1783.227087	-12.919961
1784.288418	-12.931740
1785.351013	-12.944908
1786.414875	-12.957102
1787.480006	-12.970823
1788.546407	-12.985021
1789.614082	-12.999242
1790.683032	-13.015272
1791.753259	-13.030834
1792.824767	-13.047492
1793.897557	-13.064962
1794.971632	-13.082055
1796.046994	-13.100992
1797.123645	-13.119328
1798.201588	-13.137895
1799.280824	-13.157267
1800.361357	-13.175910
1801.443188	-13.195860
1802.526320	-13.215871
1803.610756	-13.236329
1804.696497	-13.257408
1805.783546	-13.277489
1806.871906	-13.297940
1807.961578	-13.317591
1809.052565	-13.337272
1810.144870	-13.357455
1811.238494	-13.377267
1812.333441	-13.398271
1813.429713	-13.418752
1814.527311	-13.439405
1815.626239	-13.459659
1816.726499	-13.479041
1817.828094	-13.499043
1818.931025	-13.518755
1820.035295	-13.539477
1821.140906	-13.560401
1822.247862	-13.581254
1823.356165	-13.602713
1824.465816	-13.623237
1825.576819	-13.644255
1826.689175	-13.664840
1827.802888	-13.685586
1828.917960	-13.706836
1830.034394	-13.728140
1831.152191	-13.750582
1832.271354	-13.772767
1833.391887	-13.795400
1834.513790	-13.817701
1835.637068	-13.839436
1836.761722	-13.861158
1837.887755	-13.882389
1839.015169	-13.904447
1840.143968	-13.926140
1841.274153	-13.948384
1842.405727	-13.971037
1843.538693	-13.993078
1844.673053	-14.016151
1845.808810	-14.037751
1846.945966	-14.060537
1848.084525	-14.082493
1849.224488	-14.105333
1850.365858	-14.128653
1851.508638	-14.151610
1852.652831	-14.175490
1853.798438	-14.197901
1854.945463	-14.220895
1856.093909	-14.242616
1857.243777	-14.264991
1858.395071	-14.286769
1859.547794	-14.308915
1860.701947	-14.330525
1861.857533	-14.351431
1863.014556	-14.371429
1864.173018	-14.390516
1865.332922	-14.409318
1866.494270	-14.427851
1867.657065	-14.446377
1868.821309	-14.464951
1869.987006	-14.483070
1871.154158	-14.500590
1872.322768	-14.517097
1873.492839	-14.532614
1874.664373	-14.547387
1875.837373	-14.561539
1877.011841	-14.575271
1878.187782	-14.588065
1879.365197	-14.600152
1880.544089	-14.611263
1881.724460	-14.621803
1882.906315	-14.631176
1884.089655	-14.639859
1885.274483	-14.647470
1886.460803	-14.654305
1887.648616	-14.660342
1888.837927	-14.666040
1890.028736	-14.671205
1891.221049	-14.675543
1892.414866	-14.678892
1893.610192	-14.681200
1894.807028	-14.682581
1896.005379	-14.683080
1897.205246	-14.683343
1898.406633	-14.683126
1899.609542	-14.682516
1900.813977	-14.681235
1902.019940	-14.679606
1903.227434	-14.677558
1904.436462	-14.675248
1905.647028	-14.672865
1906.859133	-14.670104
1908.072781	-14.666900
1909.287976	-14.662851
1910.504719	-14.658396
1911.723013	-14.653171
1912.942863	-14.647798
1914.164270	-14.641861
1915.387238	-14.635249
1916.611770	-14.627095
1917.837868	-14.617696
1919.065536	-14.607691
1920.294777	-14.597391
1921.525594	-14.586456
1922.757989	-14.573924
1923.991967	-14.559903
1925.227529	-14.544504
1926.464679	-14.528784
1927.703420	-14.512272
1928.943755	-14.495008
1930.185688	-14.476392
1931.429221	-14.456872
1932.674356	-14.436064
1933.921099	-14.414157
1935.169451	-14.390749
1936.419415	-14.366462
1937.670996	-14.341386
1938.924195	-14.315731
1940.179017	-14.289375
1941.435463	-14.262413
1942.693538	-14.235141
1943.953245	-14.207198
1945.214586	-14.178812
1946.477566	-14.149759
1947.742186	-14.120853
1949.008451	-14.091999
1950.276363	-14.063373
1951.545926	-14.034194
1952.817143	-14.004817
1954.090017	-13.975522
1955.364551	-13.946627
1956.640749	-13.917910
1957.918615	-13.889364
1959.198150	-13.860960
1960.479359	-13.832510
1961.762244	-13.804306
1963.046810	-13.776801
1964.333059	-13.749944
1965.620995	-13.723102
1966.910621	-13.696102
1968.201940	-13.669153
1969.494956	-13.642436
1970.789672	-13.615735
1972.086091	-13.589179
1973.384217	-13.562772
1974.684053	-13.536574
1975.985602	-13.510201
1977.288869	-13.483502
1978.593855	-13.456371
1979.900566	-13.428775
1981.209003	-13.400695
1982.519171	-13.372344
1983.831073	-13.343469
1985.144712	-13.313837
1986.460093	-13.283333
1987.777217	-13.252429
1989.096089	-13.221790
1990.416713	-13.191321
1991.739092	-13.160175
1993.063228	-13.128065
1994.389127	-13.095845
1995.716791	-13.064428
1997.046223	-13.034011
1998.377428	-13.003932
1999.710409	-12.973716
2001.045169	-12.943284
2002.381713	-12.913142
2003.720043	-12.883857
2005.060163	-12.855745
2006.402077	-12.828447
2007.745788	-12.801444
2009.091301	-12.774401
2010.438618	-12.747717
2011.787743	-12.721917
2013.138680	-12.697282
2014.491433	-12.673633
2015.846005	-12.650565
2017.202399	-12.627817
2018.560621	-12.605845
2019.920673	-12.585036
2021.282558	-12.565383
2022.646281	-12.546590
2024.011846	-12.528232
2025.379256	-12.509853
2026.748515	-12.491868
2028.119626	-12.474885
2029.492594	-12.458923
2030.867422	-12.442816
2032.244114	-12.425895
2033.622673	-12.408594
2035.003104	-12.391772
2036.385411	-12.375526
2037.769597	-12.359043
2039.155665	-12.341597
2040.543621	-12.323298
2041.933467	-12.304504
2043.325208	-12.285570
2044.718847	-12.266529
2046.114389	-12.247210
2047.511837	-12.227623
2048.911195	-12.208276
2050.312467	-12.189456
2051.715657	-12.171069
2053.120769	-12.152918
2054.527807	-12.135148
2055.936775	-12.118054
2057.347677	-12.101834
2058.760516	-12.086630
2060.175297	-12.072421
2061.592025	-12.059033
2063.010701	-12.046451
2064.431332	-12.034652
2065.853921	-12.023858
2067.278472	-12.014260
2068.704988	-12.005705
2070.133475	-11.998151
2071.563936	-11.991537
2072.996375	-11.985732
2074.430796	-11.980743
2075.867204	-11.976442
2077.305603	-11.972587
2078.745996	-11.969342
2080.188389	-11.966813
2081.632784	-11.965016
2083.079187	-11.963682
2084.527601	-11.962351
2085.978030	-11.961394
2087.430480	-11.961405
2088.884954	-11.962313
2090.341455	-11.963657
2091.799990	-11.964723
2093.260561	-11.965164
2094.723173	-11.964651
2096.187831	-11.963369
2097.654538	-11.961780
2099.123300	-11.959840
2100.594119	-11.957167
2102.067001	-11.953721
2103.541950	-11.950335
2105.018971	-11.947557
2106.498067	-11.944949
2107.979243	-11.942499
2109.462503	-11.940921
2110.947853	-11.940862
2112.435295	-11.942255
2113.924836	-11.944735
2115.416478	-11.947888
2116.910227	-11.951929
2118.406087	-11.957245
2119.904063	-11.963424
2121.404158	-11.969834
2122.906378	-11.976721
2124.410727	-11.984258
2125.917210	-11.992037
2127.425831	-12.000245
2128.936594	-12.009551
2130.449505	-12.020200
2131.964567	-12.032264
2133.481786	-12.046367
2135.001166	-12.062718
2136.522711	-12.080793
2138.046427	-12.100831
2139.572317	-12.122735
2141.100388	-12.146015
2142.630642	-12.170394
2144.163085	-12.195239
2145.697722	-12.220145
2147.234558	-12.245200
2148.773596	-12.269876
2150.314842	-12.293150
2151.858301	-12.314937
2153.403977	-12.336082
2154.951875	-12.356604
2156.502000	-12.375744
2158.054357	-12.393195
2159.608950	-12.409199
2161.165785	-12.424789
2162.724866	-12.440994
2164.286198	-12.457629
2165.849786	-12.473908
2167.415635	-12.490305
2168.983749	-12.508074
2170.554134	-12.527492
2172.126795	-12.548058
2173.701737	-12.568995
2175.278964	-12.591146
2176.858481	-12.615885
2178.440294	-12.642828
2180.024408	-12.670514
2181.610827	-12.699470
2183.199557	-12.731483
2184.790602	-12.766862
2186.383968	-12.804184
2187.979660	-12.842740
2189.577683	-12.883816
2191.178041	-12.928287
2192.780741	-12.975226
2194.385787	-13.023754
2195.993185	-13.073646
2197.602939	-13.124785
2199.215054	-13.170490
