# 2022-02-06_10.32.49
# shape = sech2
# FWHM_ps = 0.12
# carrier_nm = 1542
# frep_MHz = 12126
# pow_mW = 8000
# GDD = 0.0
# propa_len = 0.07
# untap_len = 0.01
# taper_len = 0.05
# waist_len = 0.02
# uptap_len = 0.02
# untap_scale = 1.0
# waist_scale = 0.1
# workingDir = NL_20110305_12 (Spirou)
# axis = slow
# window_ps = 10.0
# steps = 200
# points = 13000
# 
# wavelength [nm]	 power spectral density [dB]
1000.248639	-23.859513
1000.582480	-23.837115
1000.916545	-23.818313
1001.250832	-23.799424
1001.585343	-23.779894
1001.920077	-23.761599
1002.255035	-23.742053
1002.590218	-23.722889
1002.925624	-23.704436
1003.261255	-23.684354
1003.597111	-23.665857
1003.933192	-23.646404
1004.269497	-23.626615
1004.606029	-23.608003
1004.942785	-23.587913
1005.279768	-23.568508
1005.616977	-23.549263
1005.954412	-23.528795
1006.292074	-23.509486
1006.629962	-23.489592
1006.968077	-23.468951
1007.306420	-23.449591
1007.644990	-23.428693
1007.983787	-23.408271
1008.322813	-23.388330
1008.662067	-23.366858
1009.001549	-23.346569
1009.341259	-23.325706
1009.681199	-23.304114
1010.021367	-23.283559
1010.361765	-23.262031
1010.702392	-23.240296
1011.043250	-23.219442
1011.384337	-23.197260
1011.725654	-23.175673
1012.067202	-23.154389
1012.408980	-23.131851
1012.750989	-23.110541
1013.093230	-23.088584
1013.435702	-23.066391
1013.778405	-23.045032
1014.121341	-23.023102
1014.464508	-23.001151
1014.807908	-22.979998
1015.151540	-22.958128
1015.495405	-22.936678
1015.839503	-22.915783
1016.183835	-22.894161
1016.528400	-22.873475
1016.873198	-22.852602
1017.218231	-22.831916
1017.563498	-22.811606
1017.908999	-22.791284
1018.254735	-22.771235
1018.600707	-22.751197
1018.946913	-22.731551
1019.293354	-22.711773
1019.640032	-22.692395
1019.986945	-22.673016
1020.334094	-22.653669
1020.681480	-22.634604
1021.029102	-22.615481
1021.376961	-22.596434
1021.725058	-22.577397
1022.073391	-22.558550
1022.421962	-22.539411
1022.770772	-22.520573
1023.119819	-22.501591
1023.469104	-22.482486
1023.818628	-22.463567
1024.168391	-22.444344
1024.518393	-22.425190
1024.868634	-22.405932
1025.219115	-22.386736
1025.569836	-22.367251
1025.920796	-22.347903
1026.271997	-22.328419
1026.623438	-22.308629
1026.975121	-22.289254
1027.327044	-22.269301
1027.679208	-22.249690
1028.031614	-22.229871
1028.384262	-22.209904
1028.737152	-22.190040
1029.090284	-22.170033
1029.443659	-22.150079
1029.797276	-22.129921
1030.151137	-22.109938
1030.505240	-22.089699
1030.859587	-22.069585
1031.214178	-22.049418
1031.569013	-22.029012
1031.924093	-22.008798
1032.279417	-21.988297
1032.634985	-21.967971
1032.990799	-21.947351
1033.346858	-21.926984
1033.703162	-21.906219
1034.059712	-21.885595
1034.416509	-21.864919
1034.773551	-21.843862
1035.130841	-21.823388
1035.488377	-21.802122
1035.846160	-21.781463
1036.204190	-21.760385
1036.562468	-21.739277
1036.920994	-21.718574
1037.279768	-21.697201
1037.638790	-21.676517
1037.998061	-21.655306
1038.357581	-21.634290
1038.717350	-21.613428
1039.077368	-21.592343
1039.437636	-21.571648
1039.798154	-21.550710
1040.158922	-21.530092
1040.519940	-21.509170
1040.881209	-21.488707
1041.242729	-21.467958
1041.604501	-21.447379
1041.966524	-21.427070
1042.328798	-21.406189
1042.691325	-21.386077
1043.054103	-21.365235
1043.417135	-21.344875
1043.780419	-21.324475
1044.143956	-21.303771
1044.507746	-21.283623
1044.871791	-21.262740
1045.236088	-21.242501
1045.600641	-21.221727
1045.965447	-21.201252
1046.330508	-21.180736
1046.695824	-21.159838
1047.061395	-21.139614
1047.427222	-21.118442
1047.793304	-21.098243
1048.159642	-21.077489
1048.526237	-21.056668
1048.893088	-21.036549
1049.260196	-21.015310
1049.627561	-20.995248
1049.995183	-20.974536
1050.363063	-20.953916
1050.731201	-20.933750
1051.099597	-20.912900
1051.468251	-20.892764
1051.837164	-20.872111
1052.206336	-20.851741
1052.575767	-20.831284
1052.945458	-20.810640
1053.315409	-20.790463
1053.685619	-20.769484
1054.056090	-20.749254
1054.426821	-20.728453
1054.797814	-20.707586
1055.169067	-20.687349
1055.540582	-20.666016
1055.912359	-20.645505
1056.284398	-20.624538
1056.656698	-20.603301
1057.029262	-20.582753
1057.402088	-20.561457
1057.775177	-20.540551
1058.148530	-20.519613
1058.522146	-20.498504
1058.896027	-20.477687
1059.270171	-20.456716
1059.644580	-20.436001
1060.019254	-20.415024
1060.394193	-20.394565
1060.769397	-20.373872
1061.144867	-20.353258
1061.520602	-20.333110
1061.896604	-20.312433
1062.272872	-20.292347
1062.649407	-20.272152
1063.026210	-20.251709
1063.403279	-20.231929
1063.780616	-20.211609
1064.158221	-20.191539
1064.536094	-20.171683
1064.914235	-20.151255
1065.292645	-20.131217
1065.671325	-20.110951
1066.050273	-20.090560
1066.429491	-20.070241
1066.808979	-20.049695
1067.188738	-20.029216
1067.568766	-20.008369
1067.949066	-19.987762
1068.329636	-19.966703
1068.710478	-19.945937
1069.091592	-19.924911
1069.472977	-19.903809
1069.854635	-19.882969
1070.236565	-19.861547
1070.618768	-19.840760
1071.001243	-19.819460
1071.383993	-19.798581
1071.767016	-19.777560
1072.150313	-19.756565
1072.533884	-19.735981
1072.917730	-19.714801
1073.301850	-19.694504
1073.686246	-19.673559
1074.070917	-19.653138
1074.455864	-19.632697
1074.841087	-19.611910
1075.226586	-19.591828
1075.612362	-19.570844
1075.998415	-19.550715
1076.384745	-19.529786
1076.771353	-19.509257
1077.158238	-19.488594
1077.545401	-19.467201
1077.932843	-19.446645
1078.320564	-19.424715
1078.708564	-19.403659
1079.096842	-19.381717
1079.485401	-19.359584
1079.874240	-19.337820
1080.263358	-19.314682
1080.652757	-19.292633
1081.042438	-19.269208
1081.432399	-19.246285
1081.822641	-19.223154
1082.213166	-19.199162
1082.603972	-19.176308
1082.995061	-19.152005
1083.386433	-19.128658
1083.778087	-19.104803
1084.170025	-19.080738
1084.562246	-19.057647
1084.954751	-19.033396
1085.347541	-19.010381
1085.740615	-18.986843
1086.133973	-18.963525
1086.527617	-18.941011
1086.921546	-18.917653
1087.315761	-18.895636
1087.710262	-18.873090
1088.105050	-18.850889
1088.500124	-18.829374
1088.895485	-18.807150
1089.291134	-18.786137
1089.687070	-18.764555
1090.083294	-18.743287
1090.479806	-18.722534
1090.876607	-18.701092
1091.273696	-18.680530
1091.671075	-18.659361
1092.068744	-18.638359
1092.466702	-18.617601
1092.864950	-18.596023
1093.263489	-18.575183
1093.662319	-18.553598
1094.061440	-18.532124
1094.460852	-18.510739
1094.860555	-18.488550
1095.260551	-18.466949
1095.660840	-18.444635
1096.061421	-18.422340
1096.462295	-18.400199
1096.863462	-18.377399
1097.264923	-18.355186
1097.666678	-18.332466
1098.068727	-18.309921
1098.471071	-18.287602
1098.873710	-18.264973
1099.276644	-18.242896
1099.679874	-18.220713
1100.083400	-18.198865
1100.487222	-18.177406
1100.891340	-18.155945
1101.295756	-18.135080
1101.700468	-18.114390
1102.105478	-18.094144
1102.510787	-18.074394
1102.916393	-18.054911
1103.322298	-18.035956
1103.728502	-18.017392
1104.135005	-17.999158
1104.541807	-17.981341
1104.948909	-17.963897
1105.356312	-17.946765
1105.764015	-17.930005
1106.172019	-17.913448
1106.580324	-17.897094
1106.988931	-17.881019
1107.397840	-17.864879
1107.807051	-17.848914
1108.216564	-17.832954
1108.626380	-17.816841
1109.036500	-17.800816
1109.446923	-17.784455
1109.857649	-17.767971
1110.268680	-17.751282
1110.680016	-17.734154
1111.091657	-17.716888
1111.503602	-17.699129
1111.915854	-17.681026
1112.328411	-17.662601
1112.741275	-17.643613
1113.154445	-17.624399
1113.567922	-17.604683
1113.981706	-17.584603
1114.395798	-17.564258
1114.810198	-17.543430
1115.224906	-17.522395
1115.639923	-17.501120
1116.055249	-17.479557
1116.470884	-17.457840
1116.886829	-17.436026
1117.303084	-17.414162
1117.719650	-17.392246
1118.136526	-17.370369
1118.553713	-17.348621
1118.971212	-17.326975
1119.389022	-17.305504
1119.807145	-17.284319
1120.225580	-17.263364
1120.644328	-17.242663
1121.063389	-17.222412
1121.482763	-17.202471
1121.902452	-17.182885
1122.322454	-17.163745
1122.742771	-17.144958
1123.163404	-17.126579
1123.584351	-17.108569
1124.005614	-17.090936
1124.427193	-17.073732
1124.849089	-17.056764
1125.271301	-17.040156
1125.693830	-17.023787
1126.116677	-17.007589
1126.539842	-16.991635
1126.963324	-16.975760
1127.387126	-16.959953
1127.811246	-16.944209
1128.235685	-16.928382
1128.660444	-16.912544
1129.085522	-16.896479
1129.510922	-16.880207
1129.936641	-16.863751
1130.362682	-16.846987
1130.789044	-16.829888
1131.215728	-16.812427
1131.642734	-16.794536
1132.070063	-16.776213
1132.497714	-16.757421
1132.925689	-16.738152
1133.353987	-16.718404
1133.782610	-16.698177
1134.211556	-16.677439
1134.640827	-16.656227
1135.070424	-16.634569
1135.500345	-16.612454
1135.930593	-16.589904
1136.361166	-16.566970
1136.792067	-16.543694
1137.223294	-16.520136
1137.654848	-16.496301
1138.086730	-16.472257
1138.518940	-16.448053
1138.951479	-16.423722
1139.384346	-16.399352
1139.817543	-16.374993
1140.251069	-16.350677
1140.684925	-16.326461
1141.119111	-16.302429
1141.553628	-16.278647
1141.988475	-16.255115
1142.423655	-16.231882
1142.859166	-16.208995
1143.295009	-16.186499
1143.731185	-16.164449
1144.167694	-16.142864
1144.604536	-16.121783
1145.041711	-16.101216
1145.479221	-16.081127
1145.917065	-16.061547
1146.355245	-16.042537
1146.793759	-16.024096
1147.232609	-16.006171
1147.671795	-15.988764
1148.111317	-15.971865
1148.551177	-15.955465
1148.991373	-15.939530
1149.431907	-15.924048
1149.872779	-15.908954
1150.313989	-15.894224
1150.755538	-15.879840
1151.197426	-15.865796
1151.639653	-15.851989
1152.082220	-15.838374
1152.525128	-15.824904
1152.968376	-15.811583
1153.411966	-15.798303
1153.855897	-15.785072
1154.300169	-15.771803
1154.744784	-15.758471
1155.189742	-15.744993
1155.635042	-15.731364
1156.080687	-15.717514
1156.526674	-15.703434
1156.973007	-15.689053
1157.419683	-15.674386
1157.866705	-15.659352
1158.314072	-15.643947
1158.761786	-15.628131
1159.209845	-15.611917
1159.658251	-15.595280
1160.107004	-15.578213
1160.556104	-15.560681
1161.005553	-15.542725
1161.455349	-15.524318
1161.905494	-15.505474
1162.355989	-15.486199
1162.806832	-15.466522
1163.258026	-15.446462
1163.709570	-15.426020
1164.161464	-15.405254
1164.613710	-15.384146
1165.066307	-15.362755
1165.519256	-15.341083
1165.972558	-15.319242
1166.426212	-15.297197
1166.880219	-15.274983
1167.334580	-15.252672
1167.789295	-15.230282
1168.244364	-15.207830
1168.699788	-15.185425
1169.155567	-15.163041
1169.611702	-15.140730
1170.068193	-15.118556
1170.525041	-15.096493
1170.982245	-15.074653
1171.439807	-15.053051
1171.897726	-15.031639
1172.356004	-15.010535
1172.814640	-14.989761
1173.273635	-14.969302
1173.732989	-14.949228
1174.192703	-14.929511
1174.652778	-14.910196
1175.113213	-14.891277
1175.574009	-14.872790
1176.035167	-14.854763
1176.496687	-14.837180
1176.958569	-14.820022
1177.420814	-14.803317
1177.883422	-14.787074
1178.346394	-14.771285
1178.809730	-14.755928
1179.273430	-14.741031
1179.737496	-14.726571
1180.201927	-14.712494
1180.666723	-14.698831
1181.131886	-14.685597
1181.597416	-14.672724
1182.063312	-14.660214
1182.529576	-14.648041
1182.996209	-14.636179
1183.463209	-14.624638
1183.930579	-14.613373
1184.398317	-14.602359
1184.866426	-14.591589
1185.334904	-14.581007
1185.803754	-14.570608
1186.272974	-14.560383
1186.742566	-14.550307
1187.212529	-14.540302
1187.682865	-14.530395
1188.153574	-14.520591
1188.624656	-14.510798
1189.096112	-14.501004
1189.567942	-14.491241
1190.040147	-14.481442
1190.512726	-14.471607
1190.985681	-14.461708
1191.459012	-14.451709
1191.932720	-14.441636
1192.406804	-14.431429
1192.881265	-14.421105
1193.356104	-14.410643
1193.831322	-14.400013
1194.306918	-14.389224
1194.782893	-14.378255
1195.259248	-14.367127
1195.735982	-14.355790
1196.213097	-14.344268
1196.690593	-14.332542
1197.168471	-14.320632
1197.646730	-14.308527
1198.125371	-14.296217
1198.604395	-14.283726
1199.083803	-14.271046
1199.563594	-14.258171
1200.043769	-14.245131
1200.524329	-14.231915
1201.005273	-14.218550
1201.486604	-14.205030
1201.968320	-14.191336
1202.450422	-14.177537
1202.932912	-14.163611
1203.415789	-14.149573
1203.899054	-14.135422
1204.382707	-14.121188
1204.866748	-14.106888
1205.351179	-14.092509
1205.836000	-14.078091
1206.321211	-14.063623
1206.806812	-14.049112
1207.292805	-14.034605
1207.779189	-14.020073
1208.265965	-14.005549
1208.753134	-13.991027
1209.240696	-13.976515
1209.728651	-13.962055
1210.217000	-13.947605
1210.705744	-13.933205
1211.194883	-13.918847
1211.684417	-13.904542
1212.174347	-13.890289
1212.664673	-13.876098
1213.155396	-13.861967
1213.646516	-13.847906
1214.138034	-13.833913
1214.629951	-13.819986
1215.122266	-13.806142
1215.614980	-13.792373
1216.108095	-13.778666
1216.601609	-13.765039
1217.095524	-13.751491
1217.589841	-13.738018
1218.084559	-13.724612
1218.579679	-13.711274
1219.075202	-13.698023
1219.571128	-13.684817
1220.067458	-13.671688
1220.564191	-13.658646
1221.061330	-13.645620
1221.558874	-13.632667
1222.056823	-13.619793
1222.555178	-13.606948
1223.053940	-13.594141
1223.553109	-13.581389
1224.052686	-13.568645
1224.552671	-13.555965
1225.053065	-13.543270
1225.553867	-13.530593
1226.055079	-13.517945
1226.556702	-13.505284
1227.058735	-13.492597
1227.561179	-13.479915
1228.064035	-13.467200
1228.567303	-13.454472
1229.070983	-13.441684
1229.575077	-13.428863
1230.079585	-13.415998
1230.584506	-13.403073
1231.089842	-13.390075
1231.595594	-13.377033
1232.101761	-13.363905
1232.608345	-13.350691
1233.115345	-13.337410
1233.622762	-13.324042
1234.130597	-13.310580
1234.638851	-13.297027
1235.147523	-13.283391
1235.656615	-13.269658
1236.166126	-13.255817
1236.676058	-13.241895
1237.186411	-13.227883
1237.697185	-13.213768
1238.208381	-13.199555
1238.719999	-13.185270
1239.232040	-13.170897
1239.744505	-13.156428
1240.257394	-13.141877
1240.770708	-13.127279
1241.284446	-13.112575
1241.798610	-13.097813
1242.313201	-13.083010
1242.828218	-13.068122
1243.343662	-13.053196
1243.859534	-13.038218
1244.375834	-13.023203
1244.892563	-13.008156
1245.409721	-12.993078
1245.927309	-12.977988
1246.445327	-12.962890
1246.963777	-12.947786
1247.482657	-12.932693
1248.001970	-12.917620
1248.521716	-12.902553
1249.041894	-12.887534
1249.562506	-12.872544
1250.083553	-12.857597
1250.605034	-12.842711
1251.126950	-12.827865
1251.649302	-12.813099
1252.172091	-12.798406
1252.695316	-12.783771
1253.218979	-12.769248
1253.743079	-12.754803
1254.267619	-12.740445
1254.792597	-12.726213
1255.318015	-12.712066
1255.843874	-12.698042
1256.370173	-12.684135
1256.896913	-12.670335
1257.424095	-12.656669
1257.951720	-12.643130
1258.479787	-12.629714
1259.008298	-12.616444
1259.537254	-12.603298
1260.066654	-12.590303
1260.596499	-12.577451
1261.126790	-12.564731
1261.657527	-12.552175
1262.188711	-12.539757
1262.720342	-12.527499
1263.252422	-12.515403
1263.784950	-12.503455
1264.317928	-12.491685
1264.851355	-12.480075
1265.385232	-12.468626
1265.919560	-12.457364
1266.454340	-12.446253
1266.989572	-12.435314
1267.525256	-12.424562
1268.061394	-12.413956
1268.597985	-12.403548
1269.135031	-12.393293
1269.672531	-12.383212
1270.210487	-12.373312
1270.748899	-12.363567
1271.287768	-12.353996
1271.827094	-12.344605
1272.366877	-12.335361
1272.907119	-12.326302
1273.447820	-12.317408
1273.988981	-12.308667
1274.530601	-12.300113
1275.072683	-12.291697
1275.615226	-12.283454
1276.158230	-12.275378
1276.701697	-12.267441
1277.245627	-12.259674
1277.790021	-12.252050
1278.334879	-12.244571
1278.880202	-12.237256
1279.425991	-12.230061
1279.972245	-12.223019
1280.518966	-12.216114
1281.066155	-12.209331
1281.613811	-12.202690
1282.161936	-12.196168
1282.710529	-12.189771
1283.259593	-12.183495
1283.809126	-12.177325
1284.359131	-12.171274
1284.909607	-12.165321
1285.460555	-12.159466
1286.011976	-12.153708
1286.563870	-12.148040
1287.116237	-12.142458
1287.669080	-12.136964
1288.222397	-12.131540
1288.776191	-12.126197
1289.330460	-12.120924
1289.885207	-12.115710
1290.440431	-12.110566
1290.996133	-12.105469
1291.552314	-12.100430
1292.108975	-12.095442
1292.666115	-12.090492
1293.223737	-12.085594
1293.781839	-12.080727
1294.340424	-12.075897
1294.899491	-12.071097
1295.459041	-12.066317
1296.019075	-12.061564
1296.579593	-12.056832
1297.140597	-12.052110
1297.702086	-12.047404
1298.264061	-12.042716
1298.826524	-12.038031
1299.389474	-12.033362
1299.952912	-12.028697
1300.516839	-12.024037
1301.081255	-12.019387
1301.646162	-12.014736
1302.211559	-12.010089
1302.777448	-12.005450
1303.343829	-12.000809
1303.910702	-11.996171
1304.478069	-11.991544
1305.045930	-11.986910
1305.614285	-11.982290
1306.183136	-11.977674
1306.752483	-11.973060
1307.322326	-11.968465
1307.892666	-11.963866
1308.463504	-11.959284
1309.034841	-11.954714
1309.606677	-11.950154
1310.179012	-11.945617
1310.751849	-11.941099
1311.325186	-11.936597
1311.899025	-11.932126
1312.473366	-11.927675
1313.048211	-11.923252
1313.623559	-11.918865
1314.199412	-11.914505
1314.775770	-11.910188
1315.352634	-11.905909
1315.930004	-11.901668
1316.507881	-11.897474
1317.086266	-11.893321
1317.665159	-11.889218
1318.244562	-11.885168
1318.824474	-11.881173
1319.404897	-11.877235
1319.985831	-11.873359
1320.567276	-11.869544
1321.149234	-11.865796
1321.731706	-11.862121
1322.314691	-11.858511
1322.898190	-11.854981
1323.482205	-11.851524
1324.066736	-11.848142
1324.651783	-11.844842
1325.237347	-11.841622
1325.823430	-11.838488
1326.410031	-11.835442
1326.997151	-11.832487
1327.584791	-11.829626
1328.172952	-11.826858
1328.761634	-11.824184
1329.350839	-11.821616
1329.940566	-11.819145
1330.530817	-11.816782
1331.121592	-11.814522
1331.712891	-11.812362
1332.304716	-11.810315
1332.897068	-11.808370
1333.489946	-11.806539
1334.083352	-11.804821
1334.677287	-11.803215
1335.271750	-11.801725
1335.866744	-11.800348
1336.462268	-11.799088
1337.058323	-11.797946
1337.654910	-11.796926
1338.252029	-11.796025
1338.849682	-11.795249
1339.447869	-11.794595
1340.046591	-11.794063
1340.645848	-11.793659
1341.245641	-11.793378
1341.845972	-11.793222
1342.446840	-11.793199
1343.048246	-11.793292
1343.650191	-11.793521
1344.252677	-11.793874
1344.855702	-11.794347
1345.459269	-11.794958
1346.063379	-11.795685
1346.668030	-11.796542
1347.273226	-11.797529
1347.878965	-11.798632
1348.485250	-11.799867
1349.092080	-11.801222
1349.699456	-11.802693
1350.307380	-11.804295
1350.915851	-11.806006
1351.524871	-11.807837
1352.134441	-11.809785
1352.744560	-11.811836
1353.355231	-11.814001
1353.966453	-11.816277
1354.578227	-11.818652
1355.190555	-11.821139
1355.803436	-11.823721
1356.416872	-11.826395
1357.030863	-11.829168
1357.645411	-11.832022
1358.260515	-11.834965
1358.876177	-11.837992
1359.492397	-11.841093
1360.109176	-11.844273
1360.726516	-11.847523
1361.344416	-11.850839
1361.962877	-11.854225
1362.581901	-11.857670
1363.201487	-11.861165
1363.821637	-11.864721
1364.442352	-11.868317
1365.063632	-11.871959
1365.685478	-11.875649
1366.307891	-11.879363
1366.930871	-11.883114
1367.554420	-11.886889
1368.178538	-11.890676
1368.803226	-11.894489
1369.428485	-11.898299
1370.054315	-11.902114
1370.680717	-11.905932
1371.307693	-11.909729
1371.935242	-11.913524
1372.563366	-11.917298
1373.192065	-11.921042
1373.821341	-11.924770
1374.451193	-11.928454
1375.081623	-11.932102
1375.712632	-11.935713
1376.344221	-11.939263
1376.976389	-11.942764
1377.609139	-11.946205
1378.242470	-11.949572
1378.876384	-11.952873
1379.510881	-11.956089
1380.145963	-11.959216
1380.781629	-11.962261
1381.417881	-11.965199
1382.054720	-11.968035
1382.692147	-11.970763
1383.330161	-11.973358
1383.968765	-11.975839
1384.607959	-11.978180
1385.247743	-11.980376
1385.888119	-11.982438
1386.529087	-11.984337
1387.170648	-11.986085
1387.812804	-11.987676
1388.455554	-11.989085
1389.098899	-11.990331
1389.742842	-11.991393
1390.387381	-11.992271
1391.032519	-11.992972
1391.678256	-11.993474
1392.324592	-11.993791
1392.971529	-11.993923
1393.619068	-11.993856
1394.267208	-11.993601
1394.915952	-11.993150
1395.565300	-11.992499
1396.215253	-11.991663
1396.865812	-11.990626
1397.516977	-11.989387
1398.168749	-11.987954
1398.821130	-11.986309
1399.474120	-11.984468
1400.127719	-11.982425
1400.781930	-11.980168
1401.436752	-11.977717
1402.092186	-11.975056
1402.748234	-11.972193
1403.404897	-11.969136
1404.062174	-11.965872
1404.720067	-11.962419
1405.378577	-11.958785
1406.037705	-11.954968
1406.697451	-11.950996
1407.357817	-11.946867
1408.018803	-11.942596
1408.680410	-11.938206
1409.342639	-11.933702
1410.005492	-11.929108
1410.668968	-11.924446
1411.333068	-11.919719
1411.997795	-11.914953
1412.663147	-11.910161
1413.329127	-11.905348
1413.995736	-11.900545
1414.662973	-11.895748
1415.330840	-11.890972
1415.999339	-11.886241
1416.668469	-11.881537
1417.338232	-11.876883
1418.008628	-11.872280
1418.679659	-11.867725
1419.351325	-11.863235
1420.023628	-11.858805
1420.696568	-11.854444
1421.370145	-11.850169
1422.044362	-11.845977
1422.719219	-11.841887
1423.394717	-11.837914
1424.070856	-11.834056
1424.747638	-11.830335
1425.425064	-11.826753
1426.103134	-11.823313
1426.781850	-11.820033
1427.461212	-11.816904
1428.141221	-11.813933
1428.821878	-11.811124
1429.503185	-11.808459
1430.185141	-11.805940
1430.867749	-11.803550
1431.551008	-11.801260
1432.234920	-11.799061
1432.919486	-11.796923
1433.604707	-11.794826
1434.290583	-11.792760
1434.977116	-11.790693
1435.664307	-11.788620
1436.352156	-11.786527
1437.040664	-11.784395
1437.729833	-11.782229
1438.419663	-11.780011
1439.110156	-11.777738
1439.801312	-11.775415
1440.493132	-11.773030
1441.185617	-11.770589
1441.878768	-11.768085
1442.572586	-11.765503
1443.267072	-11.762832
1443.962228	-11.760040
1444.658053	-11.757090
1445.354549	-11.753942
1446.051717	-11.750529
1446.749558	-11.746782
1447.448073	-11.742622
1448.147263	-11.737947
1448.847128	-11.732649
1449.547671	-11.726604
1450.248891	-11.719680
1450.950789	-11.711745
1451.653368	-11.702659
1452.356627	-11.692280
1453.060568	-11.680474
1453.765192	-11.667108
1454.470500	-11.652067
1455.176492	-11.635255
1455.883170	-11.616586
1456.590534	-11.596003
1457.298586	-11.573476
1458.007327	-11.548999
1458.716758	-11.522599
1459.426880	-11.494335
1460.137693	-11.464287
1460.849199	-11.432573
1461.561398	-11.399318
1462.274293	-11.364667
1462.987883	-11.328785
1463.702170	-11.291825
1464.417155	-11.253955
1465.132838	-11.215326
1465.849222	-11.176061
1466.566306	-11.136289
1467.284093	-11.096093
1468.002582	-11.055541
1468.721775	-11.014671
1469.441674	-10.973461
1470.162278	-10.931877
1470.883590	-10.889836
1471.605609	-10.847216
1472.328338	-10.803876
1473.051777	-10.759628
1473.775928	-10.714272
1474.500790	-10.667603
1475.226367	-10.619389
1475.952657	-10.569423
1476.679663	-10.517503
1477.407386	-10.463444
1478.135826	-10.407120
1478.864985	-10.348434
1479.594863	-10.287354
1480.325463	-10.223912
1481.056784	-10.158192
1481.788828	-10.090356
1482.521597	-10.020622
1483.255090	-9.949266
1483.989309	-9.876630
1484.724256	-9.803082
1485.459931	-9.729020
1486.196336	-9.654856
1486.933471	-9.580980
1487.671337	-9.507776
1488.409937	-9.435579
1489.149270	-9.364676
1489.889337	-9.295312
1490.630141	-9.227660
1491.371682	-9.161838
1492.113961	-9.097904
1492.856979	-9.035847
1493.600738	-8.975609
1494.345238	-8.917079
1495.090481	-8.860105
1495.836467	-8.804508
1496.583198	-8.750084
1497.330675	-8.696624
1498.078899	-8.643933
1498.827872	-8.591821
1499.577593	-8.540139
1500.328065	-8.488769
1501.079289	-8.437626
1501.831265	-8.386669
1502.583995	-8.335874
1503.337480	-8.285227
1504.091721	-8.234709
1504.846719	-8.184275
1505.602475	-8.133849
1506.358991	-8.083315
1507.116268	-8.032541
1507.874306	-7.981410
1508.633108	-7.929859
1509.392673	-7.877950
1510.153004	-7.825943
1510.914101	-7.774363
1511.675965	-7.724081
1512.438599	-7.676383
1513.202002	-7.633013
1513.966176	-7.596206
1514.731122	-7.568664
1515.496842	-7.553558
1516.263336	-7.554489
1517.030607	-7.575442
1517.798654	-7.620770
1518.567479	-7.695160
1519.337083	-7.803646
1520.107468	-7.951659
1520.878634	-8.145097
1521.650584	-8.390483
1522.423317	-8.695174
1523.196836	-9.067678
1523.971141	-9.518132
1524.746233	-10.058971
1525.522115	-10.705979
1526.298786	-11.479927
1527.076249	-12.409243
1527.854504	-13.534723
1528.633553	-14.918358
1529.413397	-16.661761
1530.194037	-18.950311
1530.975474	-22.183352
1531.757709	-27.532244
1532.540745	-44.286923
1533.324581	-30.451733
1534.109220	-23.706063
1534.894662	-20.055080
1535.680909	-17.603960
1536.467961	-15.815032
1537.255821	-14.460843
1538.044489	-13.425189
1538.833967	-12.641953
1539.624256	-12.071038
1540.415357	-11.687281
1541.207271	-11.474781
1542.000000	-11.423689
1542.793545	-11.528178
1543.587907	-11.784894
1544.383087	-12.191234
1545.179088	-12.742686
1545.975909	-13.427852
1546.773552	-14.218765
1547.572019	-15.053691
1548.371311	-15.814003
1549.171428	-16.317433
1549.972373	-16.379565
1550.774147	-15.942964
1551.576751	-15.126213
1552.380185	-14.119297
1553.184453	-13.072787
1553.989554	-12.071417
1554.795490	-11.152602
1555.602263	-10.327965
1556.409873	-9.596921
1557.218322	-8.953745
1558.027612	-8.390955
1558.837743	-7.900835
1559.648717	-7.476079
1560.460536	-7.110013
1561.273200	-6.796644
1562.086710	-6.530618
1562.901069	-6.307156
1563.716278	-6.121991
1564.532337	-5.971303
1565.349249	-5.851668
1566.167014	-5.760021
1566.985634	-5.693613
1567.805111	-5.649988
1568.625444	-5.626958
1569.446637	-5.622574
1570.268690	-5.635110
1571.091605	-5.663040
1571.915382	-5.705015
1572.740024	-5.759839
1573.565532	-5.826445
1574.391907	-5.903866
1575.219150	-5.991207
1576.047262	-6.087626
1576.876246	-6.192303
1577.706103	-6.304434
1578.536833	-6.423200
1579.368439	-6.547773
1580.200922	-6.677305
1581.034282	-6.810939
1581.868522	-6.947817
1582.703643	-7.087092
1583.539646	-7.227947
1584.376532	-7.369615
1585.214304	-7.511394
1586.052962	-7.652671
1586.892508	-7.792928
1587.732943	-7.931757
1588.574269	-8.068862
1589.416487	-8.204056
1590.259599	-8.337269
1591.103605	-8.468526
1591.948508	-8.597945
1592.794309	-8.725725
1593.641009	-8.852126
1594.488609	-8.977463
1595.337112	-9.102095
1596.186518	-9.226410
1597.036829	-9.350820
1597.888047	-9.475741
1598.740172	-9.601587
1599.593207	-9.728766
1600.447153	-9.857668
1601.302010	-9.988662
1602.157782	-10.122085
1603.014469	-10.258234
1603.872072	-10.397367
1604.730593	-10.539692
1605.590034	-10.685370
1606.450397	-10.834516
1607.311681	-10.987194
1608.173890	-11.143415
1609.037024	-11.303141
1609.901085	-11.466285
1610.766075	-11.632724
1611.631995	-11.802292
1612.498846	-11.974791
1613.366630	-12.149985
1614.235349	-12.327613
1615.105004	-12.507396
1615.975596	-12.689038
1616.847128	-12.872229
1617.719600	-13.056644
1618.593014	-13.241947
1619.467372	-13.427796
1620.342675	-13.613841
1621.218924	-13.799727
1622.096122	-13.985099
1622.974270	-14.169602
1623.853369	-14.352884
1624.733420	-14.534592
1625.614427	-14.714380
1626.496389	-14.891902
1627.379308	-15.066824
1628.263187	-15.238824
1629.148026	-15.407582
1630.033828	-15.572782
1630.920593	-15.734116
1631.808324	-15.891290
1632.697022	-16.044030
1633.586688	-16.192068
1634.477324	-16.335151
1635.368932	-16.473049
1636.261514	-16.605550
1637.155070	-16.732468
1638.049602	-16.853634
1638.945113	-16.968898
1639.841603	-17.078135
1640.739075	-17.181229
1641.637529	-17.278087
1642.536968	-17.368629
1643.437393	-17.452797
1644.338806	-17.530566
1645.241209	-17.601927
1646.144602	-17.666896
1647.048988	-17.725506
1647.954368	-17.777808
1648.860744	-17.823867
1649.768118	-17.863754
1650.676491	-17.897549
1651.585865	-17.925337
1652.496241	-17.947194
1653.407621	-17.963200
1654.320008	-17.973443
1655.233401	-17.978031
1656.147804	-17.977087
1657.063218	-17.970746
1657.979645	-17.959171
1658.897085	-17.942542
1659.815542	-17.921060
1660.735016	-17.894942
1661.655509	-17.864416
1662.577023	-17.829720
1663.499560	-17.791101
1664.423121	-17.748817
1665.347709	-17.703124
1666.273324	-17.654284
1667.199969	-17.602560
1668.127645	-17.548214
1669.056353	-17.491494
1669.986097	-17.432630
1670.916877	-17.371836
1671.848695	-17.309309
1672.781553	-17.245223
1673.715452	-17.179735
1674.650395	-17.112991
1675.586383	-17.045133
1676.523418	-16.976303
1677.461501	-16.906642
1678.400635	-16.836299
1679.340821	-16.765422
1680.282061	-16.694161
1681.224357	-16.622663
1682.167710	-16.551067
1683.112122	-16.479500
1684.057595	-16.408073
1685.004132	-16.336886
1685.951732	-16.266032
1686.900400	-16.195591
1687.850135	-16.125640
1688.800940	-16.056246
1689.752818	-15.987474
1690.705768	-15.919385
1691.659795	-15.852033
1692.614898	-15.785464
1693.571081	-15.719720
1694.528345	-15.654829
1695.486691	-15.590809
1696.446122	-15.527668
1697.406640	-15.465409
1698.368245	-15.404036
1699.330941	-15.343556
1700.294729	-15.283983
1701.259611	-15.225338
1702.225588	-15.167641
1703.192664	-15.110916
1704.160838	-15.055183
1705.130114	-15.000459
1706.100493	-14.946749
1707.071977	-14.894050
1708.044568	-14.842345
1709.018268	-14.791607
1709.993079	-14.741800
1710.969003	-14.692883
1711.946041	-14.644819
1712.924196	-14.597572
1713.903469	-14.551116
1714.883862	-14.505433
1715.865378	-14.460516
1716.848017	-14.416364
1717.831783	-14.372977
1718.816677	-14.330355
1719.802701	-14.288487
1720.789857	-14.247359
1721.778147	-14.206946
1722.767573	-14.167224
1723.758136	-14.128168
1724.749840	-14.089762
1725.742685	-14.052002
1726.736673	-14.014891
1727.731808	-13.978444
1728.728090	-13.942681
1729.725521	-13.907618
1730.724105	-13.873263
1731.723842	-13.839615
1732.724735	-13.806656
1733.726785	-13.774357
1734.729995	-13.742682
1735.734366	-13.711590
1736.739902	-13.681048
1737.746603	-13.651031
1738.754472	-13.621529
1739.763510	-13.592541
1740.773721	-13.564070
1741.785105	-13.536120
1742.797665	-13.508694
1743.811403	-13.481794
1744.826321	-13.455412
1745.842422	-13.429538
1746.859706	-13.404157
1747.878177	-13.379257
1748.897835	-13.354830
1749.918685	-13.330869
1750.940726	-13.307367
1751.963963	-13.284313
1752.988395	-13.261691
1754.014027	-13.239477
1755.040860	-13.217647
1756.068895	-13.196175
1757.098135	-13.175036
1758.128583	-13.154208
1759.160240	-13.133672
1760.193109	-13.113410
1761.227191	-13.093400
1762.262488	-13.073620
1763.299004	-13.054042
1764.336740	-13.034641
1765.375697	-13.015397
1766.415880	-12.996305
1767.457288	-12.977377
1768.499926	-12.958638
1769.543794	-12.940129
1770.588895	-12.921892
1771.635231	-12.903964
1772.682805	-12.886374
1773.731619	-12.869132
1774.781674	-12.852237
1775.832973	-12.835679
1776.885519	-12.819447
1777.939312	-12.803533
1778.994357	-12.787943
1780.050654	-12.772695
1781.108207	-12.757812
1782.167017	-12.743321
1783.227087	-12.729238
1784.288418	-12.715563
1785.351013	-12.702273
1786.414875	-12.689323
1787.480006	-12.676650
1788.546407	-12.664185
1789.614082	-12.651864
1790.683032	-12.639638
1791.753259	-12.627480
1792.824767	-12.615379
1793.897557	-12.603345
1794.971632	-12.591399
1796.046994	-12.579562
1797.123645	-12.567853
1798.201588	-12.556281
1799.280824	-12.544843
1800.361357	-12.533528
1801.443188	-12.522317
1802.526320	-12.511194
1803.610756	-12.500150
1804.696497	-12.489192
1805.783546	-12.478346
1806.871906	-12.467655
1807.961578	-12.457172
1809.052565	-12.446948
1810.144870	-12.437018
1811.238494	-12.427398
1812.333441	-12.418078
1813.429713	-12.409029
1814.527311	-12.400214
1815.626239	-12.391597
1816.726499	-12.383150
1817.828094	-12.374855
1818.931025	-12.366702
1820.035295	-12.358680
1821.140906	-12.350784
1822.247862	-12.343009
1823.356165	-12.335356
1824.465816	-12.327835
1825.576819	-12.320465
1826.689175	-12.313269
1827.802888	-12.306270
1828.917960	-12.299478
1830.034394	-12.292892
1831.152191	-12.286490
1832.271354	-12.280241
1833.391887	-12.274115
1834.513790	-12.268096
1835.637068	-12.262192
1836.761722	-12.256438
1837.887755	-12.250886
1839.015169	-12.245592
1840.143968	-12.240599
1841.274153	-12.235925
1842.405727	-12.231558
1843.538693	-12.227458
1844.673053	-12.223570
1845.808810	-12.219843
1846.945966	-12.216245
1848.084525	-12.212774
1849.224488	-12.209447
1850.365858	-12.206288
1851.508638	-12.203305
1852.652831	-12.200481
1853.798438	-12.197765
1854.945463	-12.195089
1856.093909	-12.192382
1857.243777	-12.189589
1858.395071	-12.186696
1859.547794	-12.183730
1860.701947	-12.180761
1861.857533	-12.177877
1863.014556	-12.175170
1864.173018	-12.172705
1865.332922	-12.170521
1866.494270	-12.168636
1867.657065	-12.167059
1868.821309	-12.165812
1869.987006	-12.164928
1871.154158	-12.164450
1872.322768	-12.164411
1873.492839	-12.164824
1874.664373	-12.165670
1875.837373	-12.166902
1877.011841	-12.168450
1878.187782	-12.170238
1879.365197	-12.172202
1880.544089	-12.174299
1881.724460	-12.176509
1882.906315	-12.178829
1884.089655	-12.181261
1885.274483	-12.183804
1886.460803	-12.186449
1887.648616	-12.189186
1888.837927	-12.192006
1890.028736	-12.194904
1891.221049	-12.197878
1892.414866	-12.200931
1893.610192	-12.204073
1894.807028	-12.207320
1896.005379	-12.210688
1897.205246	-12.214193
1898.406633	-12.217832
1899.609542	-12.221591
1900.813977	-12.225441
1902.019940	-12.229349
1903.227434	-12.233293
1904.436462	-12.237266
1905.647028	-12.241298
1906.859133	-12.245453
1908.072781	-12.249821
1909.287976	-12.254494
1910.504719	-12.259533
1911.723013	-12.264955
1912.942863	-12.270735
1914.164270	-12.276825
1915.387238	-12.283184
1916.611770	-12.289798
1917.837868	-12.296680
1919.065536	-12.303858
1920.294777	-12.311355
1921.525594	-12.319172
1922.757989	-12.327285
1923.991967	-12.335641
1925.227529	-12.344181
1926.464679	-12.352851
1927.703420	-12.361611
1928.943755	-12.370434
1930.185688	-12.379293
1931.429221	-12.388162
1932.674356	-12.397016
1933.921099	-12.405845
1935.169451	-12.414664
1936.419415	-12.423504
1937.670996	-12.432404
1938.924195	-12.441385
1940.179017	-12.450446
1941.435463	-12.459568
1942.693538	-12.468734
1943.953245	-12.477954
1945.214586	-12.487287
1946.477566	-12.496836
1947.742186	-12.506722
1949.008451	-12.517026
1950.276363	-12.527747
1951.545926	-12.538785
1952.817143	-12.549991
1954.090017	-12.561248
1955.364551	-12.572542
1956.640749	-12.583974
1957.918615	-12.595709
1959.198150	-12.607884
1960.479359	-12.620538
1961.762244	-12.633613
1963.046810	-12.647006
1964.333059	-12.660641
1965.620995	-12.674512
1966.910621	-12.688668
1968.201940	-12.703166
1969.494956	-12.718020
1970.789672	-12.733181
1972.086091	-12.748567
1973.384217	-12.764111
1974.684053	-12.779795
1975.985602	-12.795647
1977.288869	-12.811708
1978.593855	-12.827991
1979.900566	-12.844478
1981.209003	-12.861140
1982.519171	-12.877978
1983.831073	-12.895032
1985.144712	-12.912377
1986.460093	-12.930088
1987.777217	-12.948215
1989.096089	-12.966767
1990.416713	-12.985708
1991.739092	-13.004962
1993.063228	-13.024433
1994.389127	-13.044041
1995.716791	-13.063759
1997.046223	-13.083617
1998.377428	-13.103687
1999.710409	-13.124028
2001.045169	-13.144653
2002.381713	-13.165521
2003.720043	-13.186579
2005.060163	-13.207821
2006.402077	-13.229328
2007.745788	-13.251228
2009.091301	-13.273618
2010.438618	-13.296491
2011.787743	-13.319735
2013.138680	-13.343208
2014.491433	-13.366846
2015.846005	-13.390703
2017.202399	-13.414906
2018.560621	-13.439551
2019.920673	-13.464634
2021.282558	-13.490043
2022.646281	-13.515640
2024.011846	-13.541339
2025.379256	-13.567158
2026.748515	-13.593188
2028.119626	-13.619524
2029.492594	-13.646201
2030.867422	-13.673180
2032.244114	-13.700392
2033.622673	-13.727791
2035.003104	-13.755393
2036.385411	-13.783233
2037.769597	-13.811314
2039.155665	-13.839579
2040.543621	-13.867944
2041.933467	-13.896378
2043.325208	-13.924941
2044.718847	-13.953761
2046.114389	-13.982966
2047.511837	-14.012619
2048.911195	-14.042722
2050.312467	-14.073250
2051.715657	-14.104193
2053.120769	-14.135558
2054.527807	-14.167348
2055.936775	-14.199533
2057.347677	-14.232076
2058.760516	-14.264972
2060.175297	-14.298282
2061.592025	-14.332112
2063.010701	-14.366557
2064.431332	-14.401659
2065.853921	-14.437401
2067.278472	-14.473750
2068.704988	-14.510707
2070.133475	-14.548306
2071.563936	-14.586560
2072.996375	-14.625396
2074.430796	-14.664649
2075.867204	-14.704139
2077.305603	-14.743793
2078.745996	-14.783672
2080.188389	-14.823866
2081.632784	-14.864357
2083.079187	-14.904988
2084.527601	-14.945593
2085.978030	-14.986189
2087.430480	-15.027037
2088.884954	-15.068465
2090.341455	-15.110588
2091.799990	-15.153160
2093.260561	-15.195744
2094.723173	-15.238063
2096.187831	-15.280236
2097.654538	-15.322670
2099.123300	-15.365706
2100.594119	-15.409327
2102.067001	-15.453192
2103.541950	-15.496952
2105.018971	-15.540592
2106.498067	-15.584511
2107.979243	-15.629268
2109.462503	-15.675183
2110.947853	-15.722110
2112.435295	-15.769567
2113.924836	-15.817128
2115.416478	-15.864801
2116.910227	-15.913088
2118.406087	-15.962650
2119.904063	-16.013772
2121.404158	-16.066073
2122.906378	-16.118741
2124.410727	-16.171183
2125.917210	-16.223529
2127.425831	-16.276469
2128.936594	-16.330537
2130.449505	-16.385544
2131.964567	-16.440730
2133.481786	-16.495504
2135.001166	-16.550024
2136.522711	-16.605058
2138.046427	-16.661274
2139.572317	-16.718648
2141.100388	-16.776537
2142.630642	-16.834279
2144.163085	-16.891727
2145.697722	-16.949229
2147.234558	-17.007171
2148.773596	-17.065571
2150.314842	-17.124115
2151.858301	-17.182522
2153.403977	-17.240825
2154.951875	-17.299312
2156.502000	-17.358243
2158.054357	-17.417656
2159.608950	-17.477479
2161.165785	-17.537776
2162.724866	-17.598823
2164.286198	-17.660874
2165.849786	-17.723908
2167.415635	-17.787668
2168.983749	-17.851976
2170.554134	-17.916957
2172.126795	-17.982942
2173.701737	-18.050101
2175.278964	-18.118175
2176.858481	-18.186572
2178.440294	-18.254807
2180.024408	-18.322937
2181.610827	-18.391544
2183.199557	-18.461204
2184.790602	-18.531901
2186.383968	-18.603056
2187.979660	-18.674194
2189.577683	-18.745536
2191.178041	-18.817830
2192.780741	-18.891536
2194.385787	-18.966248
2195.993185	-19.040981
2197.602939	-19.115082
2199.215054	-19.182459
