# 2022-03-21_18.28.18
# shape = sech2
# FWHM_ps = 0.1
# carrier_nm = 1542
# frep_MHz = 12126
# pow_mW = 8000
# GDD = 0.0
# propa_len = 0.16
# untap_len = 0.01
# taper_len = 0.1
# waist_len = 0.02
# uptap_len = 0.02
# untap_scale = 1.0
# waist_scale = 0.18333333333333335
# workingDir = NL_20110305_12 (Spirou)
# axis = slow
# window_ps = 10.0
# steps = 200
# points = 21700
# 
# wavelength [nm]	 power spectral density [dB]
600.043425	-104.305079
600.163550	-97.530100
600.283723	-94.614874
600.403943	-93.758572
600.524212	-93.974962
600.644529	-95.269277
600.764895	-98.284476
600.885308	-103.609613
601.005770	-102.232197
601.126280	-96.845267
601.246839	-93.843322
601.367446	-92.433158
601.488101	-92.494139
601.608804	-94.362637
601.729557	-99.373028
601.850357	-115.069097
601.971206	-99.676949
602.092104	-94.496250
602.213050	-92.303950
602.334045	-91.547182
602.455089	-92.037890
602.576181	-94.549468
602.697322	-100.465768
602.818511	-100.072025
602.939749	-94.225944
603.061036	-91.291511
603.182372	-89.917473
603.303757	-89.600844
603.425191	-90.479017
603.546673	-92.987188
603.668204	-98.015434
603.789785	-100.632054
603.911414	-94.891934
604.033092	-91.492182
604.154820	-89.842801
604.276596	-89.600267
604.398422	-90.888288
604.520297	-94.193845
604.642220	-98.861265
604.764193	-96.681402
604.886216	-92.746163
605.008287	-90.214718
605.130408	-88.894091
605.252578	-88.848434
605.374798	-90.202843
605.497066	-93.332891
605.619385	-99.630027
605.741752	-111.319587
605.864169	-98.643692
605.986636	-94.070228
606.109152	-92.005305
606.231718	-91.688752
606.354333	-92.959382
606.476998	-95.771684
606.599712	-100.582309
606.722476	-102.356268
606.845290	-97.112411
606.968154	-93.813577
607.091067	-92.662907
607.214030	-92.996571
607.337043	-94.790861
607.460106	-98.660985
607.583219	-105.771077
607.706381	-101.847663
607.829594	-96.187306
607.952856	-93.245325
608.076169	-91.981357
608.199531	-92.364520
608.322944	-94.178945
608.446407	-97.880365
608.569920	-106.696982
608.693483	-105.501260
608.817096	-98.076235
608.940759	-95.123762
609.064473	-94.212338
609.188237	-94.837733
609.312051	-97.565379
609.435916	-101.827601
609.559831	-99.303845
609.683796	-94.651422
609.807812	-92.119201
609.931878	-91.223108
610.055995	-92.002457
610.180162	-94.624195
610.304380	-100.464370
610.428648	-106.400693
610.552967	-96.033103
610.677337	-91.712887
610.801757	-89.672009
610.926228	-89.159038
611.050750	-89.964455
611.175323	-92.656821
611.299946	-99.136845
611.424620	-109.766837
611.549345	-95.750592
611.674121	-91.725214
611.798948	-90.334979
611.923826	-90.313232
612.048755	-91.500761
612.173734	-93.880808
612.298765	-97.690231
612.423847	-99.883513
612.548980	-97.397497
612.674165	-95.142369
612.799400	-94.206903
612.924687	-94.156529
613.050025	-94.734093
613.175414	-96.159973
613.300854	-98.963226
613.426346	-103.622199
613.551889	-105.302205
613.677484	-98.971239
613.803130	-94.855956
613.928827	-92.205096
614.054576	-90.767544
614.180377	-90.494530
614.306229	-91.527355
614.432132	-93.797488
614.558087	-97.128412
614.684094	-96.778474
614.810153	-92.353165
614.936263	-90.041216
615.062425	-89.439320
615.188639	-90.194518
615.314904	-91.910632
615.441222	-94.470062
615.567591	-97.903983
615.694012	-98.450192
615.820486	-95.126503
615.947011	-93.329724
616.073588	-93.701509
616.200217	-95.433267
616.326898	-98.892415
616.453632	-105.443153
616.580417	-118.565157
616.707255	-104.003429
616.834144	-100.941709
616.961086	-100.924160
617.088081	-104.401811
617.215127	-113.598712
617.342226	-106.402565
617.469378	-100.157251
617.596581	-97.640090
617.723837	-96.153510
617.851146	-95.997799
617.978507	-97.625750
618.105920	-102.908360
618.233386	-116.457100
618.360905	-103.018854
618.488476	-97.583875
618.616100	-95.097253
618.743777	-94.240549
618.871506	-95.860599
618.999288	-102.477027
619.127123	-104.707794
619.255011	-96.597812
619.382951	-92.891431
619.510945	-91.204523
619.638991	-91.090800
619.767090	-92.819463
619.895243	-96.297218
620.023448	-103.580950
620.151706	-99.757382
620.280017	-94.475415
620.408382	-91.863607
620.536799	-91.636039
620.665270	-93.102368
620.793794	-97.080007
620.922371	-109.556193
621.051002	-102.241023
621.179686	-94.505286
621.308423	-91.742556
621.437213	-91.065529
621.566057	-91.357997
621.694954	-92.122715
621.823905	-93.812450
621.952909	-98.938494
622.081967	-99.793507
622.211079	-94.188641
622.340244	-91.376177
622.469462	-90.719213
622.598735	-90.830829
622.728061	-91.739055
622.857441	-94.138437
622.986874	-96.106772
623.116361	-94.827748
623.245903	-93.315445
623.375498	-92.647355
623.505147	-92.508896
623.634850	-93.389458
623.764606	-95.410520
623.894417	-97.409078
624.024282	-97.525418
624.154201	-99.250124
624.284174	-102.988175
624.414202	-104.322779
624.544283	-103.385197
624.674419	-101.340282
624.804609	-98.916542
624.934853	-95.455902
625.065151	-92.411593
625.195504	-90.950307
625.325911	-91.353957
625.456373	-91.950183
625.586889	-91.160977
625.717460	-88.400478
625.848085	-85.496750
625.978764	-83.866658
626.109498	-83.386977
626.240287	-84.044193
626.371131	-85.148837
626.502029	-85.751347
626.632982	-84.603028
626.763989	-82.729520
626.895052	-81.607143
627.026169	-81.881093
627.157341	-83.680557
627.288568	-87.133977
627.419850	-87.534302
627.551187	-84.499247
627.682579	-82.318289
627.814026	-81.671952
627.945528	-82.565239
628.077085	-85.034421
628.208697	-86.829654
628.340364	-84.667231
628.472087	-82.355194
628.603865	-81.536440
628.735698	-81.917135
628.867586	-83.993557
628.999530	-87.906865
629.131529	-89.039242
629.263584	-85.772899
629.395694	-84.336302
629.527859	-84.776115
629.660080	-87.343489
629.792357	-91.815074
629.924689	-90.932623
630.057077	-86.963825
630.189520	-85.528195
630.322019	-86.035802
630.454574	-88.879941
630.587184	-94.084678
630.719851	-93.867767
630.852573	-89.879296
630.985351	-88.901004
631.118185	-89.357194
631.251075	-91.314782
631.384021	-93.765991
631.517023	-92.575778
631.650081	-89.960705
631.783195	-90.099880
631.916365	-92.277849
632.049592	-92.824116
632.182874	-91.723749
632.316213	-91.515794
632.449608	-91.319144
632.583059	-92.154390
632.716567	-92.292268
632.850131	-88.693125
632.983751	-85.555902
633.117428	-84.573290
633.251161	-85.002540
633.384951	-86.060209
633.518797	-87.012879
633.652700	-86.538749
633.786660	-84.897904
633.920676	-83.721237
634.054749	-83.688917
634.188879	-85.270431
634.323065	-87.943275
634.457308	-88.445175
634.591608	-85.948656
634.725965	-84.207433
634.860379	-83.597310
634.994850	-84.605353
635.129377	-87.685400
635.263962	-94.570611
635.398604	-93.560553
635.533303	-88.925717
635.668058	-87.423336
635.802872	-87.752449
635.937742	-89.031027
636.072669	-91.072613
636.207654	-93.167427
636.342696	-94.937409
636.477796	-98.990611
636.612953	-100.915526
636.748167	-92.098485
636.883439	-87.458066
637.018768	-85.942018
637.154155	-86.569811
637.289599	-88.728947
637.425101	-90.200971
637.560660	-88.495108
637.696277	-84.890492
637.831952	-82.599286
637.967685	-82.231338
638.103475	-83.617680
638.239324	-85.815952
638.375230	-88.502099
638.511194	-88.747697
638.647215	-85.895299
638.783295	-84.817075
638.919433	-86.675685
639.055629	-91.907493
639.191883	-106.669010
639.328195	-95.285237
639.464565	-89.688414
639.600994	-88.687702
639.737481	-91.627082
639.874025	-93.159920
640.010629	-89.586737
640.147290	-87.236242
640.284010	-85.673527
640.420789	-85.469635
640.557625	-87.925948
640.694521	-90.845701
640.831474	-87.836193
640.968487	-85.437177
641.105558	-84.353935
641.242687	-84.637307
641.379876	-87.145098
641.517123	-88.148451
641.654429	-84.403459
641.791793	-82.257651
641.929216	-81.567271
642.066699	-81.917881
642.204240	-83.725644
642.341840	-85.630001
642.479499	-83.766110
642.617217	-82.130840
642.754994	-81.939565
642.892830	-82.685870
643.030726	-84.275238
643.168680	-85.545789
643.306694	-83.464927
643.444767	-81.864541
643.582899	-81.847288
643.721091	-82.900403
643.859342	-84.983117
643.997652	-88.160723
644.136022	-87.040872
644.274451	-85.356008
644.412940	-85.955050
644.551488	-88.629831
644.690096	-92.699216
644.828763	-102.684610
644.967490	-100.449910
645.106277	-98.004568
645.245124	-102.943714
645.384030	-99.228824
645.522997	-96.635141
645.662023	-96.738180
645.801109	-98.198486
645.940255	-105.473922
646.079460	-95.432545
646.218726	-90.861771
646.358052	-90.428275
646.497438	-93.731591
646.636884	-100.457963
646.776391	-104.251696
646.915957	-95.305701
647.055584	-93.939277
647.195271	-98.869412
647.335019	-95.990129
647.474826	-89.290644
647.614695	-86.572591
647.754623	-86.608692
647.894612	-89.345145
648.034662	-91.096859
648.174772	-85.409104
648.314943	-82.206323
648.455174	-81.395945
648.595466	-82.163869
648.735819	-84.340193
648.876233	-86.501066
649.016707	-83.188697
649.157242	-79.922976
649.297838	-79.047907
649.438495	-80.021166
649.579213	-82.277688
649.719992	-84.391892
649.860832	-83.171986
650.001733	-80.223191
650.142695	-79.234098
650.283718	-80.576034
650.424803	-84.181161
650.565949	-87.437016
650.707156	-84.682775
650.848424	-81.257379
650.989754	-80.292163
651.131145	-81.863177
651.272597	-85.620661
651.414111	-86.545748
651.555687	-83.144307
651.697324	-80.751243
651.839022	-80.163258
651.980782	-82.096025
652.122604	-86.455827
652.264488	-90.386415
652.406433	-88.260565
652.548441	-85.829499
652.690510	-85.959610
652.832640	-90.203040
652.974833	-94.133088
653.117088	-90.093255
653.259405	-88.212315
653.401784	-88.783305
653.544224	-93.379362
653.686727	-90.450501
653.829293	-85.542818
653.971920	-84.685705
654.114609	-86.005476
654.257361	-88.438918
654.400175	-92.887534
654.543052	-90.950776
654.685991	-87.312192
654.828992	-87.674476
654.972056	-90.741713
655.115183	-95.904576
655.258372	-95.782156
655.401623	-94.165965
655.544937	-99.714845
655.688314	-98.509770
655.831754	-90.159537
655.975256	-86.431419
656.118822	-84.785277
656.262450	-85.964504
656.406141	-91.612852
656.549894	-95.446998
656.693711	-89.183891
656.837591	-87.135595
656.981534	-86.038026
657.125540	-86.211768
657.269610	-87.776391
657.413742	-90.850733
657.557938	-94.619588
657.702196	-98.074018
657.846519	-95.595893
657.990904	-89.360537
658.135353	-85.500914
658.279866	-84.023306
658.424441	-83.634327
658.569081	-83.589972
658.713784	-83.745595
658.858550	-82.672392
659.003381	-80.011785
659.148274	-78.850679
659.293232	-79.540294
659.438253	-81.102960
659.583339	-82.070059
659.728488	-81.585220
659.873701	-79.258192
660.018978	-77.984881
660.164318	-78.521243
660.309723	-80.383379
660.455192	-83.157956
660.600725	-86.382294
660.746323	-86.058729
660.891984	-83.772448
661.037710	-83.433797
661.183500	-84.333422
661.329354	-85.488463
661.475272	-86.708738
661.621255	-86.731053
661.767303	-83.733479
661.913415	-81.989393
662.059591	-82.237334
662.205833	-84.747815
662.352138	-88.910756
662.498509	-85.462893
662.644944	-80.752758
662.791443	-79.067529
662.938008	-80.087276
663.084638	-83.712503
663.231332	-91.555586
663.378091	-88.731916
663.524915	-83.390305
663.671804	-82.422346
663.818759	-84.590618
663.965778	-90.586156
664.112863	-106.686735
664.260012	-95.963921
664.407227	-95.697954
664.554507	-96.676473
664.701853	-90.669047
664.849264	-87.755821
664.996740	-88.652689
665.144282	-95.109151
665.291889	-91.799821
665.439561	-84.853102
665.587300	-82.636296
665.735103	-83.481623
665.882973	-87.739997
666.030908	-92.877650
666.178909	-85.625483
666.326976	-82.243689
666.475109	-82.501933
666.623307	-86.623328
666.771571	-102.747869
666.919902	-90.121598
667.068298	-86.733495
667.216761	-88.726334
667.365289	-103.923871
667.513884	-88.873734
667.662545	-83.313279
667.811272	-82.178570
667.960065	-84.259721
668.108925	-89.817219
668.257851	-87.841256
668.406843	-82.394573
668.555902	-80.634757
668.705027	-82.140187
668.854219	-87.819566
669.003478	-97.009590
669.152803	-86.113952
669.302195	-83.225730
669.451653	-83.974235
669.601179	-87.685665
669.750771	-91.814055
669.900430	-92.686175
670.050156	-92.673321
670.199949	-87.823142
670.349808	-82.956348
670.499735	-80.527365
670.649729	-80.596464
670.799790	-83.124181
670.949918	-89.984844
671.100114	-90.483192
671.250377	-83.153155
671.400707	-80.561689
671.551104	-80.558523
671.701569	-82.505378
671.852101	-87.653527
672.002700	-89.829765
672.153368	-82.301122
672.304102	-78.728680
672.454905	-77.581593
672.605775	-78.711333
672.756713	-82.402870
672.907718	-87.138180
673.058791	-82.127300
673.209933	-79.098801
673.361142	-79.278310
673.512419	-81.952156
673.663764	-88.539353
673.815177	-95.732177
673.966658	-86.699721
674.118207	-82.894099
674.269825	-80.870015
674.421510	-80.198048
674.573264	-81.668683
674.725086	-85.725518
674.876977	-87.007222
675.028936	-81.289832
675.180963	-78.910926
675.333059	-79.786333
675.485224	-83.851581
675.637457	-83.327224
675.789758	-78.219579
675.942129	-76.353353
676.094568	-77.251506
676.247075	-80.237843
676.399652	-81.275288
676.552298	-78.278659
676.705012	-76.551479
676.857795	-77.734973
677.010648	-81.495257
677.163569	-82.205202
677.316560	-79.280798
677.469619	-78.145340
677.622748	-79.831713
677.775946	-85.578444
677.929214	-86.465938
678.082551	-81.038012
678.235957	-79.889607
678.389432	-82.253287
678.542977	-88.124677
678.696592	-87.221756
678.850276	-83.446716
679.004030	-83.708074
679.157853	-88.736622
679.311746	-105.627143
679.465709	-87.041996
679.619742	-84.120351
679.773844	-84.516290
679.928017	-86.798934
680.082259	-88.261842
680.236571	-89.670272
680.390954	-92.782559
680.545406	-87.424726
680.699929	-81.489571
680.854522	-79.316220
681.009185	-80.113568
681.163918	-83.404692
681.318722	-83.371318
681.473596	-78.738434
681.628540	-76.479120
681.783555	-76.682562
681.938641	-79.102460
682.093797	-81.468456
682.249023	-79.265641
682.404321	-77.364606
682.559689	-77.338186
682.715128	-79.808079
682.870637	-85.506800
683.026218	-83.529050
683.181869	-78.644328
683.337591	-76.885091
683.493385	-77.623119
683.649249	-80.892994
683.805185	-86.294127
683.961191	-82.683951
684.117269	-80.131377
684.273418	-81.753862
684.429639	-90.197992
684.585930	-89.741168
684.742294	-81.557211
684.898728	-79.783602
685.055234	-81.581197
685.211812	-89.432018
685.368461	-94.101710
685.525182	-86.086790
685.681975	-85.680560
685.838839	-88.230551
685.995775	-88.767012
686.152783	-88.040798
686.309863	-90.516431
686.467014	-87.068430
686.624238	-81.754979
686.781534	-79.935911
686.938902	-81.095909
687.096342	-86.773039
687.253854	-90.372948
687.411438	-83.196886
687.569095	-81.109456
687.726824	-82.147937
687.884626	-87.389680
688.042499	-93.811376
688.200446	-83.978901
688.358465	-79.770426
688.516556	-78.396282
688.674720	-79.540181
688.832957	-84.171845
688.991266	-92.992019
689.149649	-86.028572
689.308104	-84.747022
689.466632	-89.632217
689.625233	-91.279821
689.783906	-83.625006
689.942653	-83.101745
690.101473	-91.054445
690.260367	-86.298494
690.419333	-78.562648
690.578372	-76.397090
690.737485	-77.283380
690.896672	-79.610387
691.055931	-78.312585
691.215264	-76.508016
691.374671	-77.427507
691.534151	-82.569990
691.693704	-87.640352
691.853332	-80.993822
692.013033	-80.208987
692.172807	-85.073921
692.332656	-101.042268
692.492578	-84.575134
692.652575	-83.333945
692.812645	-87.616387
692.972789	-85.309759
693.133007	-80.350836
693.293300	-79.679350
693.453666	-83.250072
693.614107	-91.789998
693.774622	-85.478145
693.935211	-83.242247
694.095875	-86.793105
694.256613	-99.915436
694.417426	-87.267736
694.578313	-85.438239
694.739274	-88.317682
694.900311	-89.224057
695.061421	-84.571534
695.222607	-83.558565
695.383868	-86.554397
695.545203	-88.428564
695.706613	-84.090756
695.868098	-82.691707
696.029658	-85.586402
696.191293	-93.106677
696.353003	-83.719288
696.514789	-80.010030
696.676649	-80.112251
696.838585	-85.045392
697.000596	-93.902467
697.162682	-80.833467
697.324844	-77.741843
697.487081	-78.454643
697.649394	-80.921473
697.811782	-79.203057
697.974246	-76.164067
698.136786	-75.900909
698.299401	-78.428358
698.462092	-79.464163
698.624859	-75.762355
698.787702	-73.945411
698.950621	-74.886235
699.113616	-78.756986
699.276686	-84.481366
699.439833	-86.393964
699.603056	-87.148751
699.766355	-84.089545
699.929731	-80.474893
700.093183	-80.618983
700.256711	-84.514767
700.420315	-81.152896
700.583996	-75.996856
700.747754	-74.141885
700.911588	-74.901528
701.075499	-77.711720
701.239486	-79.089553
701.403550	-77.715602
701.567691	-76.805966
701.731909	-77.325257
701.896203	-80.370885
702.060575	-86.661341
702.225024	-81.376213
702.389549	-77.248420
702.554152	-76.721503
702.718832	-79.608841
702.883589	-86.744034
703.048424	-86.739103
703.213335	-86.795580
703.378324	-85.050600
703.543391	-78.171164
703.708535	-75.064270
703.873757	-75.406966
704.039056	-78.564148
704.204433	-78.699024
704.369887	-75.625233
704.535420	-75.225115
704.701030	-78.028012
704.866718	-81.809343
705.032484	-78.891831
705.198328	-77.762523
705.364250	-80.426197
705.530250	-86.636512
705.696328	-84.914860
705.862485	-83.040835
706.028720	-85.181263
706.195033	-89.083795
706.361424	-97.656675
706.527894	-88.309984
706.694442	-79.629109
706.861069	-76.601249
707.027775	-77.601889
707.194559	-84.134544
707.361422	-80.174810
707.528363	-75.008168
707.695384	-74.024573
707.862483	-76.096606
708.029661	-78.128203
708.196918	-75.425548
708.364254	-74.659267
708.531670	-77.512180
708.699164	-85.698212
708.866738	-81.824863
709.034391	-77.646009
709.202123	-78.581796
709.369935	-85.142061
709.537826	-93.339210
709.705796	-87.398103
709.873847	-91.141395
710.041976	-90.262082
710.210186	-81.077588
710.378475	-79.525156
710.546844	-82.768042
710.715292	-91.487155
710.883821	-80.724740
711.052429	-76.838563
711.221118	-77.829806
711.389887	-79.539281
711.558735	-77.712033
711.727664	-76.467689
711.896673	-77.874919
712.065763	-83.857919
712.234932	-83.481774
712.404183	-79.861572
712.573513	-80.721752
712.742924	-85.149169
712.912416	-98.020067
713.081988	-100.796749
713.251641	-99.757435
713.421375	-86.887381
713.591190	-82.037491
713.761085	-79.442735
713.931061	-78.594786
714.101119	-79.093419
714.271257	-78.456060
714.441476	-76.263702
714.611777	-74.862546
714.782159	-74.222180
714.952622	-73.898302
715.123166	-72.969290
715.293792	-72.417659
715.464499	-73.191474
715.635288	-75.543676
715.806158	-77.767365
715.977110	-77.736220
716.148143	-78.199766
716.319259	-80.987256
716.490456	-85.681376
716.661735	-84.127068
716.833096	-80.010227
717.004538	-78.808687
717.176063	-81.015736
717.347670	-85.826161
717.519359	-82.749377
717.691130	-80.755776
717.862984	-84.332430
718.034920	-86.823193
718.206938	-82.214025
718.379039	-82.463369
718.551222	-89.378813
718.723488	-91.678823
718.895836	-85.867779
719.068267	-89.551630
719.240781	-94.977933
719.413377	-86.003296
719.586057	-86.652606
719.758819	-95.403478
719.931664	-84.277022
720.104593	-81.957554
720.277604	-85.771078
720.450699	-103.219705
720.623876	-86.413541
720.797137	-87.128372
720.970482	-105.917831
721.143910	-88.371574
721.317421	-85.987876
721.491016	-90.890198
721.664694	-86.126531
721.838456	-82.865790
722.012302	-87.119482
722.186231	-86.643248
722.360244	-77.788655
722.534342	-75.342676
722.708523	-76.688531
722.882788	-76.545018
723.057137	-73.769181
723.231570	-73.437875
723.406088	-76.110273
723.580689	-76.955282
723.755375	-74.994151
723.930146	-76.396819
724.105000	-83.792050
724.279940	-85.708911
724.454963	-81.442150
724.630072	-85.790998
724.805265	-97.953234
724.980543	-91.239586
725.155905	-93.728873
725.331353	-80.129384
725.506885	-76.974126
725.682503	-79.116651
725.858205	-80.329773
726.033993	-74.796710
726.209865	-73.743470
726.385823	-76.204098
726.561866	-75.356371
726.737995	-73.523144
726.914209	-75.171188
727.090508	-80.129623
727.266893	-76.903770
727.443364	-75.465014
727.619920	-79.390758
727.796562	-90.992282
727.973290	-85.084473
728.150103	-87.192116
728.327003	-85.502452
728.503988	-79.192864
728.681060	-79.572064
728.858218	-87.861708
729.035461	-86.659243
729.212791	-83.672903
729.390208	-90.029893
729.567710	-85.925578
729.745299	-84.230041
729.922975	-87.231982
730.100737	-80.101424
730.278586	-77.791101
730.456521	-82.551539
730.634543	-89.851698
730.812652	-78.435060
730.990848	-77.392139
731.169130	-78.931491
731.347500	-77.639284
731.525957	-76.724224
731.704500	-78.910749
731.883131	-75.844978
732.061850	-72.887972
732.240655	-74.035658
732.419548	-78.905629
732.598528	-79.811948
732.777596	-78.270726
732.956751	-81.220757
733.135994	-79.817909
733.315325	-78.396587
733.494744	-80.640462
733.674250	-76.402620
733.853844	-73.035644
734.033526	-73.027265
734.213296	-75.355862
734.393154	-77.098535
734.573101	-77.066494
734.753135	-76.693050
734.933258	-74.551238
735.113469	-73.726215
735.293769	-75.530300
735.474157	-77.951441
735.654633	-77.422827
735.835198	-76.795550
736.015852	-78.555444
736.196594	-81.778256
736.377426	-86.018454
736.558346	-82.619292
736.739355	-79.291716
736.920453	-79.838083
737.101640	-82.732901
737.282916	-79.065194
737.464282	-75.778035
737.645736	-74.819684
737.827280	-74.859919
738.008914	-75.963070
738.190637	-80.270702
738.372449	-89.273555
738.554351	-81.829036
738.736342	-81.154208
738.918424	-85.621580
739.100595	-82.366616
739.282855	-78.022678
739.465206	-75.714925
739.647647	-74.566170
739.830178	-75.659300
740.012799	-81.468305
740.195510	-85.850845
740.378311	-80.238291
740.561203	-81.415573
740.744185	-85.049919
740.927258	-89.916908
741.110421	-87.076317
741.293674	-77.493583
741.477018	-75.625684
741.660453	-79.140904
741.843979	-79.404270
742.027596	-74.443207
742.211303	-73.620906
742.395102	-73.804131
742.578991	-72.849474
742.762972	-73.960775
742.947044	-77.202836
743.131207	-73.413626
743.315461	-71.480698
743.499807	-73.815017
743.684244	-78.165616
743.868773	-77.206424
744.053394	-78.668668
744.238106	-78.562046
744.422910	-75.430314
744.607805	-77.662472
744.792793	-89.612623
744.977872	-79.868676
745.163044	-80.146205
745.348307	-83.298772
745.533663	-76.775037
745.719111	-76.595123
745.904651	-78.420894
746.090283	-75.306325
746.276008	-75.476866
746.461826	-83.912465
746.647735	-78.810360
746.833738	-75.630213
747.019833	-75.657377
747.206021	-72.871067
747.392302	-71.964644
747.578676	-74.742933
747.765143	-73.640640
747.951703	-71.203080
748.138356	-74.294022
748.325102	-82.036996
748.511941	-75.402675
748.698874	-74.940252
748.885900	-74.010762
749.073019	-71.207226
749.260232	-72.286743
749.447539	-74.280862
749.634939	-69.903218
749.822433	-68.809464
750.010021	-70.945265
750.197703	-71.944534
750.385479	-71.800900
750.573348	-75.654491
750.761312	-76.105429
750.949370	-73.531263
751.137523	-77.553512
751.325769	-86.105639
751.514110	-76.560989
751.702545	-76.523342
751.891075	-79.707267
752.079700	-77.714606
752.268419	-75.986684
752.457233	-77.247039
752.646142	-81.607013
752.835145	-75.550054
753.024244	-71.061781
753.213437	-70.775144
753.402726	-71.785060
753.592110	-71.065383
753.781589	-72.280865
753.971163	-78.762060
754.160833	-75.178711
754.350598	-73.392026
754.540459	-75.817900
754.730415	-72.412270
754.920467	-70.362642
755.110615	-71.793738
755.300858	-71.240409
755.491198	-71.428712
755.681633	-78.001828
755.872164	-74.955078
756.062792	-70.731306
756.253515	-71.611004
756.444335	-70.793670
756.635252	-69.667785
756.826264	-71.760348
757.017373	-71.732102
757.208579	-69.769354
757.399881	-71.888232
757.591280	-77.617140
757.782776	-76.005306
757.974368	-77.454821
758.166058	-87.166084
758.357844	-93.243924
758.549728	-79.376541
758.741708	-73.942137
758.933786	-74.827953
759.125961	-82.633249
759.318233	-81.561696
759.510603	-82.997967
759.703071	-74.820234
759.895635	-70.488856
760.088298	-70.064920
760.281058	-68.674967
760.473916	-66.652986
760.666872	-67.204567
760.859926	-69.258495
761.053078	-69.747195
761.246328	-71.108095
761.439676	-70.846872
761.633122	-68.063828
761.826667	-68.232715
762.020310	-69.585377
762.214052	-69.277615
762.407892	-70.682427
762.601831	-74.492992
762.795868	-75.477669
762.990004	-82.993756
763.184239	-80.339859
763.378573	-75.108756
763.573006	-75.747748
763.767538	-72.516476
763.962169	-71.295284
764.156900	-73.466594
764.351729	-72.987526
764.546658	-74.240884
764.741687	-90.417385
764.936815	-77.046203
765.132042	-75.317261
765.327370	-73.516524
765.522797	-70.060066
765.718324	-70.554430
765.913950	-69.693428
766.109677	-67.423604
766.305504	-68.829689
766.501431	-70.871349
766.697458	-69.095829
766.893586	-70.238548
767.089814	-70.241756
767.286142	-68.535462
767.482571	-70.800125
767.679100	-71.073693
767.875730	-69.023976
768.072461	-72.092763
768.269293	-79.273636
768.466225	-81.283591
768.663259	-82.892147
768.860393	-72.667064
769.057629	-72.903963
769.254966	-72.271280
769.452404	-68.107424
769.649944	-68.765757
769.847585	-70.487717
770.045328	-68.650144
770.243172	-70.661813
770.441118	-70.611211
770.639166	-68.154577
770.837315	-70.898932
771.035567	-70.892483
771.233920	-68.046754
771.432376	-69.020794
771.630934	-68.026819
771.829594	-67.712731
772.028356	-71.769964
772.227220	-72.539029
772.426188	-73.274578
772.625257	-79.478170
772.824430	-72.606913
773.023705	-71.562101
773.223083	-69.515536
773.422563	-67.671962
773.622147	-68.768401
773.821834	-67.564253
774.021624	-65.971659
774.221517	-66.726412
774.421513	-67.407899
774.621613	-68.210770
774.821816	-69.433920
775.022122	-68.600988
775.222532	-69.082944
775.423046	-70.628466
775.623664	-70.410045
775.824385	-70.375202
776.025211	-70.331843
776.226140	-70.327655
776.427173	-68.715351
776.628311	-66.617403
776.829553	-65.751291
777.030899	-65.709752
777.232350	-66.861510
777.433905	-68.462070
777.635564	-69.399169
777.837328	-72.370313
778.039197	-78.147751
778.241171	-73.208392
778.443250	-68.275017
778.645433	-65.012403
778.847722	-63.577172
779.050116	-62.952028
779.252615	-62.261783
779.455219	-62.437709
779.657929	-63.949889
779.860744	-65.829476
780.063665	-67.831062
780.266691	-68.422200
780.469823	-66.927349
780.673061	-67.133831
780.876405	-66.831282
781.079855	-65.600174
781.283410	-66.361526
781.487072	-67.058456
781.690840	-67.674954
781.894715	-68.461767
782.098695	-65.744484
782.302783	-64.954576
782.506976	-64.052631
782.711277	-62.138047
782.915684	-62.150669
783.120198	-62.412983
783.324818	-62.701540
783.529546	-64.922608
783.734381	-63.745942
783.939322	-62.501710
784.144372	-63.001301
784.349528	-62.181971
784.554792	-63.184453
784.760163	-65.652675
784.965642	-66.583300
785.171228	-73.343608
785.376922	-69.623628
785.582724	-66.554099
785.788634	-65.456389
785.994651	-62.999829
786.200777	-63.826136
786.407011	-63.228283
786.613353	-62.161436
786.819804	-64.410409
787.026363	-63.426037
787.233030	-62.900336
787.439806	-62.912089
787.646691	-61.134042
787.853684	-62.484487
788.060786	-62.521745
788.267997	-61.276674
788.475317	-62.495169
788.682746	-61.338944
788.890285	-61.580721
789.097932	-62.694271
789.305689	-61.668550
789.513555	-63.933358
789.721531	-64.105638
789.929617	-62.524361
790.137812	-62.979894
790.346117	-61.979003
790.554531	-63.715663
790.763056	-64.751308
790.971691	-62.496268
791.180436	-62.181710
791.389291	-60.158554
791.598256	-59.488911
791.807332	-60.017241
792.016518	-60.017045
792.225815	-61.736839
792.435222	-61.819941
792.644740	-60.142875
792.854369	-60.252959
793.064109	-60.293300
793.273960	-61.626535
793.483922	-62.972399
793.693995	-61.334758
793.904180	-61.174266
794.114475	-60.117381
794.324882	-59.670557
794.535401	-61.327796
794.746031	-62.318433
794.956774	-64.716783
795.167627	-62.887968
795.378593	-60.319298
795.589671	-60.342256
795.800861	-59.393325
796.012162	-59.699259
796.223577	-59.072422
796.435103	-57.705382
796.646742	-58.242503
796.858493	-57.278591
797.070357	-57.156610
797.282334	-58.370981
797.494423	-58.561127
797.706626	-61.311808
797.918941	-62.462523
798.131369	-62.792230
798.343911	-65.671319
798.556566	-62.384549
798.769334	-62.771616
798.982215	-59.893417
799.195210	-59.543294
799.408319	-60.109200
799.621541	-57.548779
799.834877	-58.373015
800.048327	-57.796397
800.261890	-57.786387
800.475568	-59.768526
800.689360	-57.975621
800.903266	-59.826394
801.117287	-59.550926
801.331422	-58.651960
801.545671	-61.427701
801.760036	-60.120849
801.974514	-63.547055
802.189108	-60.155344
802.403816	-57.822814
802.618640	-58.260833
802.833578	-56.475333
803.048632	-58.549610
803.263800	-59.014639
803.479085	-58.340900
803.694484	-60.127659
803.909999	-56.819639
804.125630	-57.621722
804.341376	-58.360172
804.557239	-58.474067
804.773217	-62.538558
804.989311	-59.142918
805.205521	-60.458159
805.421847	-59.871629
805.638290	-58.486024
805.854849	-59.651584
806.071524	-56.663489
806.288316	-57.906677
806.505225	-57.607562
806.722250	-56.604025
806.939393	-59.303376
807.156652	-57.688101
807.374028	-59.465035
807.591521	-59.761925
807.809132	-59.311683
808.026859	-65.641068
808.244705	-60.633000
808.462667	-61.229152
808.680748	-56.748565
808.898946	-55.912160
809.117261	-56.633481
809.335695	-54.573470
809.554246	-56.911838
809.772916	-57.167711
809.991704	-57.877938
810.210610	-61.657600
810.429634	-59.171280
810.648777	-64.390226
810.868039	-58.424468
811.087419	-58.862999
811.306918	-58.228240
811.526535	-57.098238
811.746272	-61.263353
811.966127	-57.589358
812.186102	-60.734105
812.406196	-59.822552
812.626409	-60.256011
812.846742	-61.842375
813.067194	-57.717251
813.287766	-59.171762
813.508457	-54.333322
813.729269	-54.889832
813.950200	-55.257685
814.171251	-54.729843
814.392422	-59.028294
814.613714	-56.645912
814.835126	-60.210747
815.056658	-62.325549
815.278311	-63.986562
815.500084	-63.959308
815.721978	-59.188663
815.943993	-58.911982
816.166128	-54.281617
816.388385	-55.834173
816.610762	-55.352168
816.833261	-55.409821
817.055881	-58.332323
817.278623	-55.943824
817.501486	-60.663899
817.724471	-62.416546
817.947577	-68.449841
818.170805	-62.195893
818.394155	-59.743661
818.617627	-57.441029
818.841221	-54.240740
819.064937	-56.450803
819.288775	-54.732605
819.512736	-55.780782
819.736819	-56.517816
819.961025	-55.270502
820.185354	-59.969657
820.409805	-58.244660
820.634379	-63.401290
820.859076	-61.994150
821.083897	-62.575436
821.308840	-58.724895
821.533907	-56.201559
821.759097	-58.777249
821.984411	-55.698351
822.209848	-58.831224
822.435409	-57.037460
822.661093	-57.952787
822.886902	-58.927414
823.112834	-56.236331
823.338891	-60.077544
823.565072	-56.370439
823.791377	-59.829371
824.017807	-56.755168
824.244361	-57.785975
824.471039	-60.722248
824.697843	-58.502762
824.924771	-61.816062
825.151824	-56.245571
825.379002	-60.076447
825.606306	-56.200548
825.833734	-59.073704
826.061288	-58.595872
826.288967	-57.160245
826.516772	-56.755436
826.744703	-53.605723
826.972759	-57.789752
827.200941	-55.665250
827.429249	-59.708477
827.657683	-57.024687
827.886243	-57.066589
828.114930	-57.229752
828.343743	-55.381602
828.572682	-60.700182
828.801748	-56.295739
829.030941	-59.171905
829.260260	-54.102837
829.489706	-55.674993
829.719280	-54.514262
829.948980	-54.111981
830.178808	-56.630555
830.408763	-54.870600
830.638845	-59.889423
830.869055	-56.009266
831.099393	-59.821016
831.329858	-55.760885
831.560451	-56.749526
831.791173	-55.278576
832.022022	-54.853267
832.252999	-56.213339
832.484105	-53.654245
832.715339	-56.547696
832.946702	-53.952982
833.178193	-56.690321
833.409813	-53.920058
833.641561	-55.177700
833.873439	-54.825859
834.105445	-54.058176
834.337581	-54.815137
834.569846	-52.730361
834.802241	-55.413184
835.034764	-52.935538
835.267418	-56.241672
835.500201	-54.076859
835.733114	-55.347039
835.966157	-53.128426
836.199329	-53.128302
836.432632	-53.820271
836.666065	-52.180577
836.899629	-53.448496
837.133323	-50.966866
837.367147	-53.296750
837.601102	-51.423427
837.835188	-53.991499
838.069405	-53.299223
838.303752	-54.272234
838.538231	-53.553819
838.772841	-52.992714
839.007582	-53.766199
839.242455	-51.558704
839.477459	-53.124470
839.712595	-50.878750
839.947863	-53.336060
840.183263	-51.002801
840.418794	-52.930250
840.654458	-51.400720
840.890254	-52.211587
841.126182	-51.613658
841.362242	-51.216288
841.598435	-51.614555
841.834761	-50.036199
842.071220	-52.011230
842.307811	-50.614230
842.544536	-53.059992
842.781393	-50.295645
843.018384	-51.879907
843.255508	-50.021299
843.492765	-50.840958
843.730156	-49.650087
843.967681	-49.704887
844.205339	-50.488656
844.443132	-50.386233
844.681058	-52.893690
844.919118	-50.745924
845.157313	-51.119891
845.395642	-48.605777
845.634105	-50.817329
845.872703	-49.385700
846.111436	-50.974185
846.350303	-48.707535
846.589306	-49.694473
846.828443	-49.499590
847.067716	-50.806506
847.307124	-50.742150
847.546667	-49.517091
847.786345	-48.852586
848.026160	-47.975807
848.266110	-49.662291
848.506195	-48.098916
848.746417	-49.123032
848.986775	-47.365118
849.227269	-49.917348
849.467899	-48.992280
849.708666	-51.118339
849.949569	-48.164616
850.190609	-48.719369
850.431785	-47.489968
850.673099	-49.114730
850.914549	-48.799386
851.156137	-48.562801
851.397861	-47.779195
851.639723	-47.906529
851.881723	-49.186710
852.123860	-48.710059
852.366135	-49.124947
852.608547	-47.373278
852.851098	-47.907359
853.093786	-46.670589
853.336613	-48.432479
853.579578	-47.117464
853.822681	-48.762523
854.065923	-47.348310
854.309304	-48.895616
854.552823	-47.145161
854.796481	-48.432848
855.040278	-47.256239
855.284215	-48.081721
855.528290	-46.504299
855.772505	-47.013424
856.016859	-46.769154
856.261353	-47.650752
856.505987	-47.742519
856.750760	-47.462270
856.995673	-46.720997
857.240727	-46.344340
857.485920	-47.297308
857.731254	-47.050593
857.976729	-47.468397
858.222343	-46.546628
858.468099	-47.876882
858.713995	-46.918693
858.960032	-47.330573
859.206211	-45.392803
859.452530	-45.955420
859.698991	-45.126315
859.945593	-47.448956
860.192336	-46.523046
860.439222	-47.411318
860.686248	-45.758844
860.933417	-47.570859
861.180728	-46.278031
861.428181	-47.044409
861.675776	-45.169451
861.923514	-46.262965
862.171394	-45.554350
862.419417	-47.304682
862.667582	-46.110005
862.915890	-46.721025
863.164342	-45.527778
863.412936	-46.620791
863.661674	-45.254237
863.910555	-45.460741
864.159579	-44.923068
864.408747	-46.360817
864.658059	-46.307223
864.907515	-46.701396
865.157114	-45.513108
865.406858	-45.782847
865.656746	-45.509354
865.906778	-46.006858
866.156955	-45.116435
866.407277	-45.118216
866.657743	-45.481887
866.908354	-46.496126
867.159110	-46.040545
867.410011	-45.609468
867.661057	-45.263725
867.912249	-45.539586
868.163586	-45.309349
868.415069	-45.072645
868.666697	-44.636964
868.918472	-44.974478
869.170392	-45.902492
869.422458	-45.882578
869.674671	-44.493558
869.927030	-44.060561
870.179536	-44.719447
870.432188	-45.576477
870.684987	-45.574269
870.937933	-45.282074
871.191026	-44.995414
871.444266	-45.449437
871.697653	-45.541520
871.951188	-45.069707
872.204870	-43.821405
872.458700	-44.184245
872.712677	-44.819385
872.966803	-45.390299
873.221076	-44.680525
873.475498	-45.105879
873.730068	-44.726069
873.984787	-45.036058
874.239654	-43.989937
874.494669	-44.051599
874.749834	-43.628685
875.005147	-45.183959
875.260610	-45.285043
875.516222	-45.368297
875.771983	-43.999453
876.027894	-44.751542
876.283954	-44.155181
876.540164	-44.848358
876.796524	-44.042252
877.053033	-44.587644
877.309693	-44.008993
877.566503	-45.301159
877.823464	-44.511494
878.080575	-44.380502
878.337837	-43.239590
878.595249	-43.607800
878.852813	-43.186445
879.110528	-44.586320
879.368393	-44.840845
879.626410	-44.927462
879.884579	-43.781752
880.142899	-44.181202
880.401371	-43.997191
880.659994	-44.452923
880.918770	-44.189416
881.177698	-44.063133
881.436778	-43.758579
881.696010	-44.096618
881.955395	-43.647602
882.214933	-42.866831
882.474623	-43.169849
882.734467	-44.064688
882.994463	-44.521222
883.254613	-43.860109
883.514916	-43.945933
883.775372	-43.719846
884.035982	-44.614289
884.296746	-44.018664
884.557664	-43.378121
884.818735	-42.610044
885.079961	-43.958542
885.341341	-44.254551
885.602876	-44.220689
885.864565	-43.281095
886.126409	-43.288502
886.388407	-43.022381
886.650561	-43.642417
886.912870	-43.609979
887.175334	-43.673403
887.437953	-43.901988
887.700728	-43.746476
887.963658	-43.069610
888.226745	-43.025997
888.489987	-43.840077
888.753385	-43.657413
889.016940	-43.309816
889.280651	-42.815694
889.544518	-42.999371
889.808543	-43.319753
890.072723	-44.024166
890.337061	-43.207429
890.601556	-42.813094
890.866208	-42.851472
891.131017	-43.151607
891.395984	-43.114825
891.661109	-43.674522
891.926391	-43.439030
892.191831	-42.717340
892.457429	-42.560515
892.723186	-42.773432
892.989100	-43.114573
893.255173	-43.327122
893.521405	-42.845378
893.787796	-41.898576
894.054345	-42.200801
894.321053	-42.809062
894.587921	-43.073881
894.854948	-43.023890
895.122134	-42.977621
895.389480	-42.368754
895.656986	-42.419355
895.924651	-42.772974
896.192477	-42.603610
896.460463	-42.368373
896.728609	-42.008319
896.996915	-41.635645
897.265382	-41.984349
897.534010	-42.891668
897.802799	-42.528263
898.071749	-42.151374
898.340860	-42.215806
898.610132	-42.026458
898.879566	-41.836014
899.149162	-42.079563
899.418919	-42.073659
899.688838	-41.926953
899.958919	-41.613710
900.229162	-40.881504
900.499568	-41.113490
900.770136	-42.251664
901.040867	-42.185075
901.311761	-41.223597
901.582817	-41.226039
901.854037	-41.628110
902.125420	-41.713566
902.396966	-41.409439
902.668676	-40.916024
902.940550	-41.203863
903.212587	-41.559772
903.484788	-40.616508
903.757153	-40.047744
904.029683	-41.121585
904.302377	-42.048504
904.575236	-41.086931
904.848259	-40.393741
905.121447	-40.716204
905.394800	-41.693083
905.668319	-41.102181
905.942002	-39.449874
906.215852	-39.341014
906.489866	-41.235530
906.764047	-41.806961
907.038393	-39.883009
907.312906	-39.467772
907.587584	-40.434640
907.862429	-41.347566
908.137441	-40.237734
908.412619	-39.180137
908.687964	-39.971299
908.963476	-41.541415
909.239155	-40.138034
909.515002	-38.434380
909.791015	-39.207739
910.067197	-40.798927
910.343546	-40.559854
910.620063	-39.211130
910.896748	-38.825532
911.173601	-39.879633
911.450623	-40.003561
911.727813	-38.803125
912.005171	-38.583008
912.282699	-40.224818
912.560395	-39.946650
912.838261	-38.205257
913.116296	-38.126493
913.394500	-39.111037
913.672874	-40.057355
913.951418	-38.871889
914.230131	-38.058927
914.509015	-38.859429
914.788068	-39.655924
915.067292	-38.252354
915.346687	-37.397169
915.626252	-38.538251
915.905988	-39.037251
916.185895	-38.297239
916.465973	-37.661124
916.746223	-38.113604
917.026644	-39.190253
917.307236	-38.085337
917.588000	-36.996207
917.868937	-37.593820
918.150045	-39.030301
918.431325	-37.997887
918.712778	-36.894979
918.994404	-37.282025
919.276202	-38.086338
919.558173	-38.338287
919.840317	-37.048909
920.122634	-36.849897
920.405125	-37.866047
920.687789	-37.506355
920.970627	-36.637525
921.253639	-36.788495
921.536824	-37.793747
921.820184	-37.487773
922.103718	-36.459986
922.387427	-36.032579
922.671310	-36.634980
922.955368	-37.771714
923.239601	-36.814815
923.524009	-36.146715
923.808592	-36.411608
924.093351	-36.485150
924.378285	-36.712832
924.663396	-36.436700
924.948682	-36.209129
925.234144	-36.320532
925.519782	-36.196067
925.805597	-35.969859
926.091589	-36.038985
926.377757	-36.390871
926.664102	-36.193802
926.950624	-35.945538
927.237323	-35.454490
927.524200	-35.173889
927.811255	-35.996272
928.098487	-36.101609
928.385897	-35.616904
928.673485	-35.416967
928.961251	-35.257958
929.249196	-35.733967
929.537319	-35.667306
929.825621	-35.163966
930.114102	-35.380464
930.402762	-35.616686
930.691601	-35.282905
930.980620	-34.961423
931.269818	-35.191533
931.559196	-35.289805
931.848753	-35.135983
932.138491	-34.897323
932.428409	-34.725471
932.718508	-35.185000
933.008787	-34.823399
933.299246	-34.371834
933.589887	-34.967538
933.880709	-34.902977
934.171712	-34.648050
934.462896	-34.473244
934.754262	-34.307714
935.045810	-34.894166
935.337539	-34.625698
935.629451	-34.130860
935.921545	-34.530311
936.213822	-34.684145
936.506281	-34.511554
936.798922	-34.224177
937.091747	-34.147289
937.384755	-34.507030
937.677946	-34.533243
937.971321	-34.120983
938.264879	-33.931656
938.558621	-34.123689
938.852547	-34.075805
939.146657	-34.010321
939.440952	-34.123876
939.735431	-33.831824
940.030095	-33.764595
940.324943	-33.678875
940.619977	-33.632021
940.915196	-34.202862
941.210600	-33.845325
941.506189	-33.347611
941.801965	-33.548874
942.097926	-33.539496
942.394074	-33.884000
942.690407	-33.675444
942.986927	-33.060256
943.283634	-33.391175
943.580527	-33.342778
943.877608	-33.278371
944.174875	-33.667176
944.472330	-33.297880
944.769972	-33.038403
945.067802	-32.805429
945.365820	-32.728143
945.664026	-33.458402
945.962420	-33.220931
946.261002	-32.511801
946.559773	-32.617521
946.858733	-32.768039
947.157881	-33.012557
947.457219	-32.918618
947.756746	-32.517032
948.056462	-32.673846
948.356368	-32.531844
948.656464	-32.397254
948.956749	-32.930457
949.257225	-32.920914
949.557891	-32.404100
949.858748	-32.124004
950.159796	-32.258256
950.461034	-32.881319
950.762463	-32.730550
951.064084	-32.112723
951.365896	-32.222919
951.667900	-32.305310
951.970095	-32.264687
952.272483	-32.349352
952.575063	-32.167790
952.877835	-32.040211
953.180799	-31.814274
953.483956	-31.854793
953.787307	-32.478697
954.090850	-32.197754
954.394586	-31.524780
954.698516	-31.630003
955.002640	-31.879077
955.306957	-31.999398
955.611469	-31.738614
955.916174	-31.572547
956.221074	-32.042001
956.526169	-31.682774
956.831458	-31.142910
957.136942	-31.669550
957.442622	-32.097053
957.748496	-31.829258
958.054567	-31.176371
958.360833	-30.897246
958.667294	-31.783105
958.973952	-32.083155
959.280806	-31.367681
959.587857	-31.154298
959.895104	-31.015435
960.202548	-31.361552
960.510189	-31.795392
960.818027	-31.326716
961.126062	-31.074951
961.434295	-30.947905
961.742726	-31.044271
962.051355	-31.566181
962.360182	-31.221044
962.669207	-30.872943
962.978431	-31.008083
963.287854	-30.937244
963.597475	-31.052874
963.907296	-31.010906
964.217315	-30.843968
964.527535	-30.868762
964.837954	-30.764901
965.148573	-30.893173
965.459392	-30.827872
965.770411	-30.515168
966.081630	-30.607462
966.393051	-30.717779
966.704672	-30.719872
967.016494	-30.334003
967.328517	-30.081494
967.640742	-30.674362
967.953169	-30.684784
968.265797	-30.066423
968.578627	-29.885578
968.891660	-30.048261
969.204895	-30.607885
969.518332	-30.223752
969.831972	-29.508356
970.145816	-29.956947
970.459862	-30.289596
970.774112	-29.939296
971.088565	-29.656582
971.403223	-29.702912
971.718084	-30.139767
972.033149	-29.838765
972.348419	-29.448674
972.663893	-29.746407
972.979572	-29.840495
973.295456	-29.671961
973.611546	-29.439873
973.927840	-29.549865
974.244340	-29.750869
974.561046	-29.360958
974.877958	-29.421701
975.195076	-29.550517
975.512401	-29.269011
975.829932	-29.326539
976.147670	-29.256033
976.465615	-29.300713
976.783767	-29.312454
977.102126	-28.986886
977.420693	-29.113649
977.739468	-29.175504
978.058451	-29.077366
978.377642	-29.030838
978.697041	-28.949062
979.016649	-29.159316
979.336466	-28.911875
979.656492	-28.705772
979.976727	-29.012661
980.297171	-29.052801
980.617825	-29.006806
980.938689	-28.668302
981.259763	-28.632770
981.581048	-29.126052
981.902542	-28.901639
982.224248	-28.639146
982.546164	-28.624023
982.868291	-28.781431
983.190630	-29.008973
983.513180	-28.592852
983.835942	-28.468699
984.158916	-28.616248
984.482101	-28.731173
984.805500	-28.715642
985.129110	-28.190496
985.452934	-28.381601
985.776970	-28.733319
986.101220	-28.327830
986.425683	-28.215721
986.750359	-28.371697
987.075250	-28.544801
987.400354	-28.111782
987.725673	-27.929893
988.051206	-28.550149
988.376954	-28.261004
988.702916	-27.806873
989.029094	-27.999912
989.355487	-28.374033
989.682095	-28.255935
990.008919	-27.536721
990.335959	-27.839247
990.663216	-28.444105
990.990688	-28.001065
991.318377	-27.578134
991.646283	-27.594722
991.974406	-28.210977
992.302746	-27.997540
992.631304	-27.403529
992.960079	-27.671695
993.289072	-27.780033
993.618283	-27.762745
993.947713	-27.581297
994.277361	-27.572662
994.607227	-27.701856
994.937313	-27.360952
995.267618	-27.563882
995.598142	-27.571602
995.928886	-27.343882
996.259849	-27.455314
996.591033	-27.398436
996.922437	-27.500103
997.254061	-27.266182
997.585906	-27.327161
997.917972	-27.494165
998.250260	-27.143590
998.582768	-27.318785
998.915498	-27.311291
999.248450	-27.225460
999.581624	-27.162227
999.915020	-27.182956
1000.248639	-27.466009
1000.582480	-26.984454
1000.916545	-26.975605
1001.250832	-27.297806
1001.585343	-27.219127
1001.920077	-27.021228
1002.255035	-26.763528
1002.590218	-27.248796
1002.925624	-27.212250
1003.261255	-26.805017
1003.597111	-26.895555
1003.933192	-26.971833
1004.269497	-27.134374
1004.606029	-26.750517
1004.942785	-26.812726
1005.279768	-27.040300
1005.616977	-26.784303
1005.954412	-26.852404
1006.292074	-26.766590
1006.629962	-26.907674
1006.968077	-26.736808
1007.306420	-26.650424
1007.644990	-26.896977
1007.983787	-26.623552
1008.322813	-26.688674
1008.662067	-26.668495
1009.001549	-26.755219
1009.341259	-26.659045
1009.681199	-26.411457
1010.021367	-26.673601
1010.361765	-26.514033
1010.702392	-26.531432
1011.043250	-26.447428
1011.384337	-26.413384
1011.725654	-26.502770
1012.067202	-26.291708
1012.408980	-26.451003
1012.750989	-26.223257
1013.093230	-26.239682
1013.435702	-26.345279
1013.778405	-26.230890
1014.121341	-26.227428
1014.464508	-26.018260
1014.807908	-26.296103
1015.151540	-26.178975
1015.495405	-26.020565
1015.839503	-26.078072
1016.183835	-26.068845
1016.528400	-26.222511
1016.873198	-25.916258
1017.218231	-26.033525
1017.563498	-26.084305
1017.908999	-26.024036
1018.254735	-26.003915
1018.600707	-25.865697
1018.946913	-26.102198
1019.293354	-25.940064
1019.640032	-25.977109
1019.986945	-25.894613
1020.334094	-25.847403
1020.681480	-26.028757
1021.029102	-25.876005
1021.376961	-25.888037
1021.725058	-25.736148
1022.073391	-25.975514
1022.421962	-25.901918
1022.770772	-25.671177
1023.119819	-25.850058
1023.469104	-25.843014
1023.818628	-25.892274
1024.168391	-25.655398
1024.518393	-25.818451
1024.868634	-25.828163
1025.219115	-25.732550
1025.569836	-25.840219
1025.920796	-25.701287
1026.271997	-25.832316
1026.623438	-25.731064
1026.975121	-25.833833
1027.327044	-25.721505
1027.679208	-25.686015
1028.031614	-25.867715
1028.384262	-25.715252
1028.737152	-25.741453
1029.090284	-25.636610
1029.443659	-25.840842
1029.797276	-25.675747
1030.151137	-25.550482
1030.505240	-25.705246
1030.859587	-25.663134
1031.214178	-25.647149
1031.569013	-25.436480
1031.924093	-25.632021
1032.279417	-25.545363
1032.634985	-25.491338
1032.990799	-25.450804
1033.346858	-25.392196
1033.703162	-25.551059
1034.059712	-25.371386
1034.416509	-25.367333
1034.773551	-25.291460
1035.130841	-25.466738
1035.488377	-25.321889
1035.846160	-25.192247
1036.204190	-25.368983
1036.562468	-25.294837
1036.920994	-25.276251
1037.279768	-25.112006
1037.638790	-25.290995
1037.998061	-25.213103
1038.357581	-25.159176
1038.717350	-25.125365
1039.077368	-25.108750
1039.437636	-25.230605
1039.798154	-25.007984
1040.158922	-25.046110
1040.519940	-25.022872
1040.881209	-25.135654
1041.242729	-24.946062
1041.604501	-24.894184
1041.966524	-25.045202
1042.328798	-24.966879
1042.691325	-24.911808
1043.054103	-24.797722
1043.417135	-25.037976
1043.780419	-24.890289
1044.143956	-24.818106
1044.507746	-24.852884
1044.871791	-24.947511
1045.236088	-24.890629
1045.600641	-24.736581
1045.965447	-24.915118
1046.330508	-24.869331
1046.695824	-24.896001
1047.061395	-24.712501
1047.427222	-24.837106
1047.793304	-24.883402
1048.159642	-24.782701
1048.526237	-24.697950
1048.893088	-24.748075
1049.260196	-24.874401
1049.627561	-24.585628
1049.995183	-24.657379
1050.363063	-24.688964
1050.731201	-24.699330
1051.099597	-24.491340
1051.468251	-24.574098
1051.837164	-24.616977
1052.206336	-24.472488
1052.575767	-24.460483
1052.945458	-24.424300
1053.315409	-24.527986
1053.685619	-24.328893
1054.056090	-24.350560
1054.426821	-24.298635
1054.797814	-24.392861
1055.169067	-24.231914
1055.540582	-24.164928
1055.912359	-24.251296
1056.284398	-24.200067
1056.656698	-24.103245
1057.029262	-24.007720
1057.402088	-24.184989
1057.775177	-23.968904
1058.148530	-23.942900
1058.522146	-23.921823
1058.896027	-23.987660
1059.270171	-23.785197
1059.644580	-23.782330
1060.019254	-23.839916
1060.394193	-23.735764
1060.769397	-23.687009
1061.144867	-23.628026
1061.520602	-23.727470
1061.896604	-23.543117
1062.272872	-23.584169
1062.649407	-23.526562
1063.026210	-23.615739
1063.403279	-23.436498
1063.780616	-23.449184
1064.158221	-23.493493
1064.536094	-23.460146
1064.914235	-23.371272
1065.292645	-23.362368
1065.671325	-23.463114
1066.050273	-23.261160
1066.429491	-23.323740
1066.808979	-23.323241
1067.188738	-23.360917
1067.568766	-23.153455
1067.949066	-23.299442
1068.329636	-23.248250
1068.710478	-23.198711
1069.091592	-23.132655
1069.472977	-23.202642
1069.854635	-23.160837
1070.236565	-23.046593
1070.618768	-23.106306
1071.001243	-23.076950
1071.383993	-23.069642
1071.767016	-22.913178
1072.150313	-23.069562
1072.533884	-22.952256
1072.917730	-22.939166
1073.301850	-22.841864
1073.686246	-22.971689
1074.070917	-22.807918
1074.455864	-22.799725
1074.841087	-22.807524
1075.226586	-22.790107
1075.612362	-22.648374
1075.998415	-22.632726
1076.384745	-22.717879
1076.771353	-22.548990
1077.158238	-22.528851
1077.545401	-22.517919
1077.932843	-22.545945
1078.320564	-22.320210
1078.708564	-22.436657
1079.096842	-22.347096
1079.485401	-22.322591
1079.874240	-22.205801
1080.263358	-22.328874
1080.652757	-22.167829
1081.042438	-22.118256
1081.432399	-22.107298
1081.822641	-22.136818
1082.213166	-21.989800
1082.603972	-21.973178
1082.995061	-22.021779
1083.386433	-21.894692
1083.778087	-21.866769
1084.170025	-21.870076
1084.562246	-21.890162
1084.954751	-21.724413
1085.347541	-21.831261
1085.740615	-21.780857
1086.133973	-21.781619
1086.527617	-21.649217
1086.921546	-21.792342
1087.315761	-21.655019
1087.710262	-21.649589
1088.105050	-21.626339
1088.500124	-21.683744
1088.895485	-21.480173
1089.291134	-21.562793
1089.687070	-21.546011
1090.083294	-21.461852
1090.479806	-21.419023
1090.876607	-21.502723
1091.273696	-21.408499
1091.671075	-21.357212
1092.068744	-21.445191
1092.466702	-21.402895
1092.864950	-21.335629
1093.263489	-21.353296
1093.662319	-21.434444
1094.061440	-21.268978
1094.460852	-21.305557
1094.860555	-21.288390
1095.260551	-21.260424
1095.660840	-21.113543
1096.061421	-21.210855
1096.462295	-21.057563
1096.863462	-21.027984
1097.264923	-20.947450
1097.666678	-21.008411
1098.068727	-20.813141
1098.471071	-20.871077
1098.873710	-20.821827
1099.276644	-20.817322
1099.679874	-20.704476
1100.083400	-20.841880
1100.487222	-20.695608
1100.891340	-20.715019
1101.295756	-20.734271
1101.700468	-20.741875
1102.105478	-20.572470
1102.510787	-20.676879
1102.916393	-20.602001
1103.322298	-20.522756
1103.728502	-20.468441
1104.135005	-20.482450
1104.541807	-20.315409
1104.948909	-20.320772
1105.356312	-20.301713
1105.764015	-20.202213
1106.172019	-20.150478
1106.580324	-20.204968
1106.988931	-20.129448
1107.397840	-20.100555
1107.807051	-20.187406
1108.216564	-20.164215
1108.626380	-20.120033
1109.036500	-20.214885
1109.446923	-20.259536
1109.857649	-20.179224
1110.268680	-20.262956
1110.680016	-20.255993
1111.091657	-20.201910
1111.503602	-20.220550
1111.915854	-20.229955
1112.328411	-20.085171
1112.741275	-20.094204
1113.154445	-20.046769
1113.567922	-19.958119
1113.981706	-19.880794
1114.395798	-19.906590
1114.810198	-19.751481
1115.224906	-19.735969
1115.639923	-19.743273
1116.055249	-19.695209
1116.470884	-19.613361
1116.886829	-19.694681
1117.303084	-19.621613
1117.719650	-19.648927
1118.136526	-19.658487
1118.553713	-19.663033
1118.971212	-19.601028
1119.389022	-19.660135
1119.807145	-19.626865
1120.225580	-19.575654
1120.644328	-19.545668
1121.063389	-19.521932
1121.482763	-19.389319
1121.902452	-19.403537
1122.322454	-19.307366
1122.742771	-19.178274
1123.163404	-19.142601
1123.584351	-19.067053
1124.005614	-18.955460
1124.427193	-18.937752
1124.849089	-18.857165
1125.271301	-18.777586
1125.693830	-18.781094
1126.116677	-18.759320
1126.539842	-18.709480
1126.963324	-18.718818
1127.387126	-18.739599
1127.811246	-18.709098
1128.235685	-18.780948
1128.660444	-18.769215
1129.085522	-18.771945
1129.510922	-18.801896
1129.936641	-18.859534
1130.362682	-18.798756
1130.789044	-18.854731
1131.215728	-18.804187
1131.642734	-18.814686
1132.070063	-18.763153
1132.497714	-18.796219
1132.925689	-18.642331
1133.353987	-18.682980
1133.782610	-18.585961
1134.211556	-18.554045
1134.640827	-18.466861
1135.070424	-18.458714
1135.500345	-18.305521
1135.930593	-18.369398
1136.361166	-18.245757
1136.792067	-18.228371
1137.223294	-18.159402
1137.654848	-18.178506
1138.086730	-18.077854
1138.518940	-18.140834
1138.951479	-18.039812
1139.384346	-18.052374
1139.817543	-18.043034
1140.251069	-18.032698
1140.684925	-17.986640
1141.119111	-18.002376
1141.553628	-17.962850
1141.988475	-17.945312
1142.423655	-17.950892
1142.859166	-17.886076
1143.295009	-17.856942
1143.731185	-17.855350
1144.167694	-17.802070
1144.604536	-17.745506
1145.041711	-17.748160
1145.479221	-17.635855
1145.917065	-17.668706
1146.355245	-17.576881
1146.793759	-17.559735
1147.232609	-17.467242
1147.671795	-17.511677
1148.111317	-17.386287
1148.551177	-17.428196
1148.991373	-17.342948
1149.431907	-17.331037
1149.872779	-17.323567
1150.313989	-17.303142
1150.755538	-17.258867
1151.197426	-17.283498
1151.639653	-17.255020
1152.082220	-17.255844
1152.525128	-17.269699
1152.968376	-17.235925
1153.411966	-17.263430
1153.855897	-17.263641
1154.300169	-17.265823
1154.744784	-17.241976
1155.189742	-17.292727
1155.635042	-17.223470
1156.080687	-17.293372
1156.526674	-17.223278
1156.973007	-17.238876
1157.419683	-17.215238
1157.866705	-17.211018
1158.314072	-17.151059
1158.761786	-17.159904
1159.209845	-17.090188
1159.658251	-17.070535
1160.107004	-17.039743
1160.556104	-16.953798
1161.005553	-16.941377
1161.455349	-16.872812
1161.905494	-16.826135
1162.355989	-16.765101
1162.806832	-16.729009
1163.258026	-16.635786
1163.709570	-16.645501
1164.161464	-16.533506
1164.613710	-16.524145
1165.066307	-16.464117
1165.519256	-16.420539
1165.972558	-16.386581
1166.426212	-16.351750
1166.880219	-16.303673
1167.334580	-16.293509
1167.789295	-16.268365
1168.244364	-16.222045
1168.699788	-16.246174
1169.155567	-16.182974
1169.611702	-16.212825
1170.068193	-16.185647
1170.525041	-16.180777
1170.982245	-16.179749
1171.439807	-16.184920
1171.897726	-16.172051
1172.356004	-16.189799
1172.814640	-16.181254
1173.273635	-16.174875
1173.732989	-16.211629
1174.192703	-16.162706
1174.652778	-16.208446
1175.113213	-16.167759
1175.574009	-16.189673
1176.035167	-16.168061
1176.496687	-16.162931
1176.958569	-16.134616
1177.420814	-16.142513
1177.883422	-16.097839
1178.346394	-16.081187
1178.809730	-16.058131
1179.273430	-16.005346
1179.737496	-16.011409
1180.201927	-15.922539
1180.666723	-15.915907
1181.131886	-15.860625
1181.597416	-15.817556
1182.063312	-15.768835
1182.529576	-15.715639
1182.996209	-15.675777
1183.463209	-15.628789
1183.930579	-15.575112
1184.398317	-15.516668
1184.866426	-15.506003
1185.334904	-15.425056
1185.803754	-15.417834
1186.272974	-15.348374
1186.742566	-15.340623
1187.212529	-15.308285
1187.682865	-15.257874
1188.153574	-15.258670
1188.624656	-15.222166
1189.096112	-15.220829
1189.567942	-15.185037
1190.040147	-15.186296
1190.512726	-15.171672
1190.985681	-15.175413
1191.459012	-15.144997
1191.932720	-15.157257
1192.406804	-15.154526
1192.881265	-15.134911
1193.356104	-15.147977
1193.831322	-15.113688
1194.306918	-15.147853
1194.782893	-15.106147
1195.259248	-15.103132
1195.735982	-15.103614
1196.213097	-15.073085
1196.690593	-15.079587
1197.168471	-15.026509
1197.646730	-15.038900
1198.125371	-15.005123
1198.604395	-14.977567
1199.083803	-14.952896
1199.563594	-14.929426
1200.043769	-14.906442
1200.524329	-14.865562
1201.005273	-14.839326
1201.486604	-14.810596
1201.968320	-14.789705
1202.450422	-14.733590
1202.932912	-14.727915
1203.415789	-14.685931
1203.899054	-14.662556
1204.382707	-14.630171
1204.866748	-14.593576
1205.351179	-14.596532
1205.836000	-14.534976
1206.321211	-14.532011
1206.806812	-14.501667
1207.292805	-14.479860
1207.779189	-14.462607
1208.265965	-14.419756
1208.753134	-14.429252
1209.240696	-14.385978
1209.728651	-14.370848
1210.217000	-14.349751
1210.705744	-14.328853
1211.194883	-14.314643
1211.684417	-14.274053
1212.174347	-14.273725
1212.664673	-14.242838
1213.155396	-14.223217
1213.646516	-14.202469
1214.138034	-14.181609
1214.629951	-14.171548
1215.122266	-14.139125
1215.614980	-14.127894
1216.108095	-14.116202
1216.601609	-14.093574
1217.095524	-14.076522
1217.589841	-14.069635
1218.084559	-14.049343
1218.579679	-14.042284
1219.075202	-14.022414
1219.571128	-14.012374
1220.067458	-14.012822
1220.564191	-13.980874
1221.061330	-13.983692
1221.558874	-13.975211
1222.056823	-13.949911
1222.555178	-13.953472
1223.053940	-13.932378
1223.553109	-13.921667
1224.052686	-13.919714
1224.552671	-13.885612
1225.053065	-13.891028
1225.553867	-13.878077
1226.055079	-13.838601
1226.556702	-13.857977
1227.058735	-13.822192
1227.561179	-13.802037
1228.064035	-13.816836
1228.567303	-13.757493
1229.070983	-13.782406
1229.575077	-13.754646
1230.079585	-13.710274
1230.584506	-13.762175
1231.089842	-13.680062
1231.595594	-13.696879
1232.101761	-13.708636
1232.608345	-13.629563
1233.115345	-13.693982
1233.622762	-13.627598
1234.130597	-13.618017
1234.638851	-13.662615
1235.147523	-13.560516
1235.656615	-13.625516
1236.166126	-13.594703
1236.676058	-13.534508
1237.186411	-13.612740
1237.697185	-13.520932
1238.208381	-13.547026
1238.719999	-13.559059
1239.232040	-13.477182
1239.744505	-13.559692
1240.257394	-13.482382
1240.770708	-13.480520
1241.284446	-13.528081
1241.798610	-13.428330
1242.313201	-13.497625
1242.828218	-13.451730
1243.343662	-13.426403
1243.859534	-13.470975
1244.375834	-13.385183
1244.892563	-13.439577
1245.409721	-13.397382
1245.927309	-13.363299
1246.445327	-13.410758
1246.963777	-13.329696
1247.482657	-13.357115
1248.001970	-13.339367
1248.521716	-13.295943
1249.041894	-13.327736
1249.562506	-13.265964
1250.083553	-13.278948
1250.605034	-13.268046
1251.126950	-13.217625
1251.649302	-13.250364
1252.172091	-13.201159
1252.695316	-13.187648
1253.218979	-13.195339
1253.743079	-13.148996
1254.267619	-13.153701
1254.792597	-13.126397
1255.318015	-13.109677
1255.843874	-13.097872
1256.370173	-13.066495
1256.896913	-13.059884
1257.424095	-13.032941
1257.951720	-13.013900
1258.479787	-12.990270
1259.008298	-12.978438
1259.537254	-12.945622
1260.066654	-12.925219
1260.596499	-12.919892
1261.126790	-12.869598
1261.657527	-12.869510
1262.188711	-12.845601
1262.720342	-12.804938
1263.252422	-12.808437
1263.784950	-12.764074
1264.317928	-12.752194
1264.851355	-12.732935
1265.385232	-12.690461
1265.919560	-12.697573
1266.454340	-12.646516
1266.989572	-12.631434
1267.525256	-12.626555
1268.061394	-12.567175
1268.597985	-12.576184
1269.135031	-12.541460
1269.672531	-12.506814
1270.210487	-12.509247
1270.748899	-12.463368
1271.287768	-12.457458
1271.827094	-12.431538
1272.366877	-12.406682
1272.907119	-12.401862
1273.447820	-12.364557
1273.988981	-12.359736
1274.530601	-12.344878
1275.072683	-12.310935
1275.615226	-12.317651
1276.158230	-12.288710
1276.701697	-12.271788
1277.245627	-12.270230
1277.790021	-12.242856
1278.334879	-12.236304
1278.880202	-12.220174
1279.425991	-12.207144
1279.972245	-12.195557
1280.518966	-12.175926
1281.066155	-12.173453
1281.613811	-12.153064
1282.161936	-12.137856
1282.710529	-12.139831
1283.259593	-12.111761
1283.809126	-12.108145
1284.359131	-12.105336
1284.909607	-12.078595
1285.460555	-12.084225
1286.011976	-12.072853
1286.563870	-12.057732
1287.116237	-12.062535
1287.669080	-12.048687
1288.222397	-12.045716
1288.776191	-12.044381
1289.330460	-12.033548
1289.885207	-12.039859
1290.440431	-12.028670
1290.996133	-12.027949
1291.552314	-12.034794
1292.108975	-12.016372
1292.666115	-12.029360
1293.223737	-12.026007
1293.781839	-12.010469
1294.340424	-12.030109
1294.899491	-12.016522
1295.459041	-12.008039
1296.019075	-12.029040
1296.579593	-12.005516
1297.140597	-12.010887
1297.702086	-12.021872
1298.264061	-11.999171
1298.826524	-12.012087
1299.389474	-12.013389
1299.952912	-11.995622
1300.516839	-12.012145
1301.081255	-12.003236
1301.646162	-11.995564
1302.211559	-12.007659
1302.777448	-11.994690
1303.343829	-11.994426
1303.910702	-11.999169
1304.478069	-11.986665
1305.045930	-11.989889
1305.614285	-11.986601
1306.183136	-11.977359
1306.752483	-11.980286
1307.322326	-11.970391
1307.892666	-11.965506
1308.463504	-11.963497
1309.034841	-11.952359
1309.606677	-11.948500
1310.179012	-11.943184
1310.751849	-11.929375
1311.325186	-11.929783
1311.899025	-11.916098
1312.473366	-11.907609
1313.048211	-11.904223
1313.623559	-11.889487
1314.199412	-11.880860
1314.775770	-11.878138
1315.352634	-11.857274
1315.930004	-11.855926
1316.507881	-11.843495
1317.086266	-11.827879
1317.665159	-11.822437
1318.244562	-11.809883
1318.824474	-11.791450
1319.404897	-11.789585
1319.985831	-11.767743
1320.567276	-11.757176
1321.149234	-11.747548
1321.731706	-11.728136
1322.314691	-11.714701
1322.898190	-11.707333
1323.482205	-11.682407
1324.066736	-11.676517
1324.651783	-11.659976
1325.237347	-11.642929
1325.823430	-11.632661
1326.410031	-11.619026
1326.997151	-11.600728
1327.584791	-11.594408
1328.172952	-11.576645
1328.761634	-11.565028
1329.350839	-11.554962
1329.940566	-11.540712
1330.530817	-11.529187
1331.121592	-11.520045
1331.712891	-11.505828
1332.304716	-11.497098
1332.897068	-11.485392
1333.489946	-11.475319
1334.083352	-11.464576
1334.677287	-11.454976
1335.271750	-11.446140
1335.866744	-11.434089
1336.462268	-11.428016
1337.058323	-11.418782
1337.654910	-11.407063
1338.252029	-11.404950
1338.849682	-11.394560
1339.447869	-11.384939
1340.046591	-11.386889
1340.645848	-11.373896
1341.245641	-11.369748
1341.845972	-11.372636
1342.446840	-11.358036
1343.048246	-11.360611
1343.650191	-11.361528
1344.252677	-11.347309
1344.855702	-11.356279
1345.459269	-11.352631
1346.063379	-11.342873
1346.668030	-11.355215
1347.273226	-11.347103
1347.878965	-11.344574
1348.485250	-11.355922
1349.092080	-11.346900
1349.699456	-11.351137
1350.307380	-11.358309
1350.915851	-11.353327
1351.524871	-11.360405
1352.134441	-11.364826
1352.744560	-11.366183
1353.355231	-11.371218
1353.966453	-11.376630
1354.578227	-11.383283
1355.190555	-11.383027
1355.803436	-11.394259
1356.416872	-11.400833
1357.030863	-11.397211
1357.645411	-11.416093
1358.260515	-11.416998
1358.876177	-11.416095
1359.492397	-11.438926
1360.109176	-11.433608
1360.726516	-11.440307
1361.344416	-11.460133
1361.962877	-11.454481
1362.581901	-11.467078
1363.201487	-11.480033
1363.821637	-11.481257
1364.442352	-11.492262
1365.063632	-11.501333
1365.685478	-11.511656
1366.307891	-11.513495
1366.930871	-11.527134
1367.554420	-11.539808
1368.178538	-11.533618
1368.803226	-11.556406
1369.428485	-11.562481
1370.054315	-11.557422
1370.680717	-11.582852
1371.307693	-11.582200
1371.935242	-11.584358
1372.563366	-11.602584
1373.192065	-11.603723
1373.821341	-11.610201
1374.451193	-11.616431
1375.081623	-11.630202
1375.712632	-11.628449
1376.344221	-11.632334
1376.976389	-11.654662
1377.609139	-11.642410
1378.242470	-11.653123
1378.876384	-11.672035
1379.510881	-11.659814
1380.145963	-11.674501
1380.781629	-11.683813
1381.417881	-11.685578
1382.054720	-11.688993
1382.692147	-11.700116
1383.330161	-11.712297
1383.968765	-11.700553
1384.607959	-11.723076
1385.247743	-11.730922
1385.888119	-11.718172
1386.529087	-11.742869
1387.170648	-11.743857
1387.812804	-11.743718
1388.455554	-11.751647
1389.098899	-11.762313
1389.742842	-11.765888
1390.387381	-11.757456
1391.032519	-11.784905
1391.678256	-11.777349
1392.324592	-11.772693
1392.971529	-11.797105
1393.619068	-11.787850
1394.267208	-11.791716
1394.915952	-11.794719
1395.565300	-11.805981
1396.215253	-11.798805
1396.865812	-11.795356
1397.516977	-11.821339
1398.168749	-11.800811
1398.821130	-11.808853
1399.474120	-11.822143
1400.127719	-11.815717
1400.781930	-11.819265
1401.436752	-11.820061
1402.092186	-11.839211
1402.748234	-11.820862
1403.404897	-11.833258
1404.062174	-11.850941
1404.720067	-11.834534
1405.378577	-11.850219
1406.037705	-11.854563
1406.697451	-11.866686
1407.357817	-11.857690
1408.018803	-11.875661
1408.680410	-11.894784
1409.342639	-11.878951
1410.005492	-11.906935
1410.668968	-11.913649
1411.333068	-11.923181
1411.997795	-11.923762
1412.663147	-11.943978
1413.329127	-11.960216
1413.995736	-11.946023
1414.662973	-11.979983
1415.330840	-11.983544
1415.999339	-11.992621
1416.668469	-11.997365
1417.338232	-12.018297
1418.008628	-12.030336
1418.679659	-12.016958
1419.351325	-12.053688
1420.023628	-12.051943
1420.696568	-12.061980
1421.370145	-12.066368
1422.044362	-12.088486
1422.719219	-12.094715
1423.394717	-12.081694
1424.070856	-12.115810
1424.747638	-12.106818
1425.425064	-12.115748
1426.103134	-12.113385
1426.781850	-12.139238
1427.461212	-12.138646
1428.141221	-12.131858
1428.821878	-12.164409
1429.503185	-12.156967
1430.185141	-12.168059
1430.867749	-12.159073
1431.551008	-12.191100
1432.234920	-12.181545
1432.919486	-12.183938
1433.604707	-12.210524
1434.290583	-12.216877
1434.977116	-12.231737
1435.664307	-12.226655
1436.352156	-12.269656
1437.040664	-12.255833
1437.729833	-12.267852
1438.419663	-12.276811
1439.110156	-12.297297
1439.801312	-12.301041
1440.493132	-12.304855
1441.185617	-12.351364
1441.878768	-12.352083
1442.572586	-12.380583
1443.267072	-12.385669
1443.962228	-12.429784
1444.658053	-12.419104
1445.354549	-12.431152
1446.051717	-12.448661
1446.749558	-12.460044
1447.448073	-12.470572
1448.147263	-12.475982
1448.847128	-12.529054
1449.547671	-12.530977
1450.248891	-12.567681
1450.950789	-12.577982
1451.653368	-12.623381
1452.356627	-12.611021
1453.060568	-12.620845
1453.765192	-12.628153
1454.470500	-12.631331
1455.176492	-12.628647
1455.883170	-12.627694
1456.590534	-12.670603
1457.298586	-12.673750
1458.007327	-12.713341
1458.716758	-12.727383
1459.426880	-12.784453
1460.137693	-12.773489
1460.849199	-12.790954
1461.561398	-12.777130
1462.274293	-12.776599
1462.987883	-12.736069
1463.702170	-12.714607
1464.417155	-12.709725
1465.132838	-12.700798
1465.849222	-12.710331
1466.566306	-12.722585
1467.284093	-12.781396
1468.002582	-12.796449
1468.721775	-12.842669
1469.441674	-12.847223
1470.162278	-12.882456
1470.883590	-12.839467
1471.605609	-12.823209
1472.328338	-12.765146
1473.051777	-12.739961
1473.775928	-12.673260
1474.500790	-12.654213
1475.226367	-12.641537
1475.952657	-12.666336
1476.679663	-12.691090
1477.407386	-12.749535
1478.135826	-12.825847
1478.864985	-12.891010
1479.594863	-12.948364
1480.325463	-12.977544
1481.056784	-13.005802
1481.788828	-12.968673
1482.521597	-12.932046
1483.255090	-12.854730
1483.989309	-12.816227
1484.724256	-12.742317
1485.459931	-12.735096
1486.196336	-12.735757
1486.933471	-12.830838
1487.671337	-12.927851
1488.409937	-13.126699
1489.149270	-13.340595
1489.889337	-13.643767
1490.630141	-13.914446
1491.371682	-14.239262
1492.113961	-14.496304
1492.856979	-14.745279
1493.600738	-14.851184
1494.345238	-14.907512
1495.090481	-14.829294
1495.836467	-14.709746
1496.583198	-14.488469
1497.330675	-14.281387
1498.078899	-14.057188
1498.827872	-13.892361
1499.577593	-13.739755
1500.328065	-13.675938
1501.079289	-13.657878
1501.831265	-13.728608
1502.583995	-13.824060
1503.337480	-13.992853
1504.091721	-14.165864
1504.846719	-14.360953
1505.602475	-14.485888
1506.358991	-14.572300
1507.116268	-14.547410
1507.874306	-14.449912
1508.633108	-14.233470
1509.392673	-13.985462
1510.153004	-13.693080
1510.914101	-13.436608
1511.675965	-13.186963
1512.438599	-13.031406
1513.202002	-12.933295
1513.966176	-12.963661
1514.731122	-13.064937
1515.496842	-13.327135
1516.263336	-13.692202
1517.030607	-14.245301
1517.798654	-14.924078
1518.567479	-15.839618
1519.337083	-16.942965
1520.107468	-18.308130
1520.878634	-19.867629
1521.650584	-21.470249
1522.423317	-22.613288
1523.196836	-22.390134
1523.971141	-21.058737
1524.746233	-19.212451
1525.522115	-17.441927
1526.298786	-15.866197
1527.076249	-14.492751
1527.854504	-13.317547
1528.633553	-12.266107
1529.413397	-11.371606
1530.194037	-10.555448
1530.975474	-9.850928
1531.757709	-9.197863
1532.540745	-8.632383
1533.324581	-8.112279
1534.109220	-7.654510
1534.894662	-7.243105
1535.680909	-6.882768
1536.467961	-6.575791
1537.255821	-6.306877
1538.044489	-6.097990
1538.833967	-5.925830
1539.624256	-5.819094
1540.415357	-5.747501
1541.207271	-5.743400
1542.000000	-5.782929
1542.793545	-5.888435
1543.587907	-6.044893
1544.383087	-6.262825
1545.179088	-6.546583
1545.975909	-6.886530
1546.773552	-7.303607
1547.572019	-7.773366
1548.371311	-8.336187
1549.171428	-8.953795
1549.972373	-9.672576
1550.774147	-10.453972
1551.576751	-11.343280
1552.380185	-12.305575
1553.184453	-13.352614
1553.989554	-14.447425
1554.795490	-15.524330
1555.602263	-16.492873
1556.409873	-17.142356
1557.218322	-17.377684
1558.027612	-17.100749
1558.837743	-16.513483
1559.648717	-15.701858
1560.460536	-14.890882
1561.273200	-14.068381
1562.086710	-13.366900
1562.901069	-12.715121
1563.716278	-12.193770
1564.532337	-11.731297
1565.349249	-11.377196
1566.167014	-11.092688
1566.985634	-10.888671
1567.805111	-10.761989
1568.625444	-10.686004
1569.446637	-10.696609
1570.268690	-10.738360
1571.091605	-10.866490
1571.915382	-11.011907
1572.740024	-11.232155
1573.565532	-11.470940
1574.391907	-11.760643
1575.219150	-12.074359
1576.047262	-12.401815
1576.876246	-12.763358
1577.706103	-13.101162
1578.536833	-13.474152
1579.368439	-13.788740
1580.200922	-14.125694
1581.034282	-14.392459
1581.868522	-14.654663
1582.703643	-14.855217
1583.539646	-15.012506
1584.376532	-15.139987
1585.214304	-15.195332
1586.052962	-15.257250
1586.892508	-15.233282
1587.732943	-15.237534
1588.574269	-15.173164
1589.416487	-15.134637
1590.259599	-15.064415
1591.103605	-14.989992
1591.948508	-14.929488
1592.794309	-14.832413
1593.641009	-14.780251
1594.488609	-14.672451
1595.337112	-14.608025
1596.186518	-14.503681
1597.036829	-14.414395
1597.888047	-14.324547
1598.740172	-14.209594
1599.593207	-14.134037
1600.447153	-14.015623
1601.302010	-13.950302
1602.157782	-13.855831
1603.014469	-13.792061
1603.872072	-13.740640
1604.730593	-13.684001
1605.590034	-13.678519
1606.450397	-13.643181
1607.311681	-13.667726
1608.173890	-13.673923
1609.037024	-13.713311
1609.901085	-13.771599
1610.766075	-13.818224
1611.631995	-13.918056
1612.498846	-13.982632
1613.366630	-14.099421
1614.235349	-14.194954
1615.105004	-14.299542
1615.975596	-14.423788
1616.847128	-14.508675
1617.719600	-14.639219
1618.593014	-14.717022
1619.467372	-14.819926
1620.342675	-14.907037
1621.218924	-14.969088
1622.096122	-15.063352
1622.974270	-15.101201
1623.853369	-15.181510
1624.733420	-15.230869
1625.614427	-15.286339
1626.496389	-15.367325
1627.379308	-15.411800
1628.263187	-15.512893
1629.148026	-15.580415
1630.033828	-15.679463
1630.920593	-15.791226
1631.808324	-15.881861
1632.697022	-16.025387
1633.586688	-16.126287
1634.477324	-16.264043
1635.368932	-16.389221
1636.261514	-16.492879
1637.155070	-16.629389
1638.049602	-16.709432
1638.945113	-16.822404
1639.841603	-16.904770
1640.739075	-16.970972
1641.637529	-17.061015
1642.536968	-17.097792
1643.437393	-17.172173
1644.338806	-17.215906
1645.241209	-17.256357
1646.144602	-17.322348
1647.048988	-17.344912
1647.954368	-17.408767
1648.860744	-17.442059
1649.768118	-17.473651
1650.676491	-17.524401
1651.585865	-17.529232
1652.496241	-17.567794
1653.407621	-17.571147
1654.320008	-17.565728
1655.233401	-17.573853
1656.147804	-17.533421
1657.063218	-17.520608
1657.979645	-17.478317
1658.897085	-17.425797
1659.815542	-17.395095
1660.735016	-17.324931
1661.655509	-17.283897
1662.577023	-17.227298
1663.499560	-17.157055
1664.423121	-17.112657
1665.347709	-17.031506
1666.273324	-16.969922
1667.199969	-16.902458
1668.127645	-16.812754
1669.056353	-16.749635
1669.986097	-16.656392
1670.916877	-16.570893
1671.848695	-16.492477
1672.781553	-16.388267
1673.715452	-16.310953
1674.650395	-16.219103
1675.586383	-16.125821
1676.523418	-16.052660
1677.461501	-15.955501
1678.400635	-15.876026
1679.340821	-15.795131
1680.282061	-15.699499
1681.224357	-15.626164
1682.167710	-15.536578
1683.112122	-15.451882
1684.057595	-15.380451
1685.004132	-15.290943
1685.951732	-15.218413
1686.900400	-15.143397
1687.850135	-15.060016
1688.800940	-14.995660
1689.752818	-14.918867
1690.705768	-14.846305
1691.659795	-14.784242
1692.614898	-14.707807
1693.571081	-14.644407
1694.528345	-14.580465
1695.486691	-14.508176
1696.446122	-14.451241
1697.406640	-14.386634
1698.368245	-14.323739
1699.330941	-14.272384
1700.294729	-14.209909
1701.259611	-14.155367
1702.225588	-14.104539
1703.192664	-14.044539
1704.160838	-13.996550
1705.130114	-13.945897
1706.100493	-13.891771
1707.071977	-13.849627
1708.044568	-13.800690
1709.018268	-13.754072
1709.993079	-13.715797
1710.969003	-13.668789
1711.946041	-13.628244
1712.924196	-13.591518
1713.903469	-13.547467
1714.883862	-13.512810
1715.865378	-13.477643
1716.848017	-13.438218
1717.831783	-13.409154
1718.816677	-13.376508
1719.802701	-13.343072
1720.789857	-13.318628
1721.778147	-13.288049
1722.767573	-13.259612
1723.758136	-13.237744
1724.749840	-13.208418
1725.742685	-13.183382
1726.736673	-13.162096
1727.731808	-13.133980
1728.728090	-13.112568
1729.725521	-13.093086
1730.724105	-13.067920
1731.723842	-13.050338
1732.724735	-13.032023
1733.726785	-13.008865
1734.729995	-12.993010
1735.734366	-12.974302
1736.739902	-12.952646
1737.746603	-12.938894
1738.754472	-12.921977
1739.763510	-12.903816
1740.773721	-12.892692
1741.785105	-12.876857
1742.797665	-12.860242
1743.811403	-12.849344
1744.826321	-12.833105
1745.842422	-12.817327
1746.859706	-12.807031
1747.878177	-12.791886
1748.897835	-12.778197
1749.918685	-12.769207
1750.940726	-12.755125
1751.963963	-12.742997
1752.988395	-12.734865
1754.014027	-12.721647
1755.040860	-12.710079
1756.068895	-12.701263
1757.098135	-12.687365
1758.128583	-12.675791
1759.160240	-12.667685
1760.193109	-12.655536
1761.227191	-12.645960
1762.262488	-12.639295
1763.299004	-12.628481
1764.336740	-12.619985
1765.375697	-12.614189
1766.415880	-12.604590
1767.457288	-12.597153
1768.499926	-12.592457
1769.543794	-12.584060
1770.588895	-12.577267
1771.635231	-12.573242
1772.682805	-12.565985
1773.731619	-12.560394
1774.781674	-12.557782
1775.832973	-12.551448
1776.885519	-12.545270
1777.939312	-12.541581
1778.994357	-12.534850
1780.050654	-12.528812
1781.108207	-12.526394
1782.167017	-12.521378
1783.227087	-12.515858
1784.288418	-12.513504
1785.351013	-12.509133
1786.414875	-12.504090
1787.480006	-12.502740
1788.546407	-12.499891
1789.614082	-12.495224
1790.683032	-12.493886
1791.753259	-12.492198
1792.824767	-12.488666
1793.897557	-12.488503
1794.971632	-12.488921
1796.046994	-12.486628
1797.123645	-12.486566
1798.201588	-12.487720
1799.280824	-12.486085
1800.361357	-12.485985
1801.443188	-12.488315
1802.526320	-12.488655
1803.610756	-12.489663
1804.696497	-12.493245
1805.783546	-12.495038
1806.871906	-12.496199
1807.961578	-12.500328
1809.052565	-12.503871
1810.144870	-12.506048
1811.238494	-12.510586
1812.333441	-12.515272
1813.429713	-12.518244
1814.527311	-12.523499
1815.626239	-12.530250
1816.726499	-12.535226
1817.828094	-12.540726
1818.931025	-12.547246
1820.035295	-12.551973
1821.140906	-12.556689
1822.247862	-12.563687
1823.356165	-12.570758
1824.465816	-12.577300
1825.576819	-12.585227
1826.689175	-12.593274
1827.802888	-12.599999
1828.917960	-12.607755
1830.034394	-12.617192
1831.152191	-12.626180
1832.271354	-12.635777
1833.391887	-12.647097
1834.513790	-12.657828
1835.637068	-12.668058
1836.761722	-12.680057
1837.887755	-12.692589
1839.015169	-12.703978
1840.143968	-12.715849
1841.274153	-12.728390
1842.405727	-12.740135
1843.538693	-12.752445
1844.673053	-12.766742
1845.808810	-12.780603
1846.945966	-12.793138
1848.084525	-12.806689
1849.224488	-12.820683
1850.365858	-12.833626
1851.508638	-12.847381
1852.652831	-12.862181
1853.798438	-12.876151
1854.945463	-12.890070
1856.093909	-12.904623
1857.243777	-12.918986
1858.395071	-12.933481
1859.547794	-12.948384
1860.701947	-12.962986
1861.857533	-12.977400
1863.014556	-12.992059
1864.173018	-13.007144
1865.332922	-13.022963
1866.494270	-13.038323
1867.657065	-13.052637
1868.821309	-13.067429
1869.987006	-13.082596
1871.154158	-13.097365
1872.322768	-13.113603
1873.492839	-13.131109
1874.664373	-13.147683
1875.837373	-13.164489
1877.011841	-13.182582
1878.187782	-13.199774
1879.365197	-13.216883
1880.544089	-13.236381
1881.724460	-13.256467
1882.906315	-13.276067
1884.089655	-13.296868
1885.274483	-13.317749
1886.460803	-13.337687
1887.648616	-13.359268
1888.837927	-13.382248
1890.028736	-13.403509
1891.221049	-13.424172
1892.414866	-13.446402
1893.610192	-13.468760
1894.807028	-13.490635
1896.005379	-13.513359
1897.205246	-13.535954
1898.406633	-13.556875
1899.609542	-13.577511
1900.813977	-13.599161
1902.019940	-13.620910
1903.227434	-13.642234
1904.436462	-13.663394
1905.647028	-13.684266
1906.859133	-13.704618
1908.072781	-13.724823
1909.287976	-13.745663
1910.504719	-13.767076
1911.723013	-13.788259
1912.942863	-13.809049
1914.164270	-13.829681
1915.387238	-13.849755
1916.611770	-13.868762
1917.837868	-13.887604
1919.065536	-13.907618
1920.294777	-13.928040
1921.525594	-13.947987
1922.757989	-13.967819
1923.991967	-13.988232
1925.227529	-14.009219
1926.464679	-14.030702
1927.703420	-14.052850
1928.943755	-14.075003
1930.185688	-14.096638
1931.429221	-14.118154
1932.674356	-14.139804
1933.921099	-14.161465
1935.169451	-14.182279
1936.419415	-14.202483
1937.670996	-14.223401
1938.924195	-14.245219
1940.179017	-14.267422
1941.435463	-14.289225
1942.693538	-14.309958
1943.953245	-14.329368
1945.214586	-14.348480
1946.477566	-14.368418
1947.742186	-14.388812
1949.008451	-14.408752
1950.276363	-14.427515
1951.545926	-14.445423
1952.817143	-14.462369
1954.090017	-14.478185
1955.364551	-14.492791
1956.640749	-14.506521
1957.918615	-14.519165
1959.198150	-14.530994
1960.479359	-14.542639
1961.762244	-14.554826
1963.046810	-14.566507
1964.333059	-14.576827
1965.620995	-14.586679
1966.910621	-14.596989
1968.201940	-14.606953
1969.494956	-14.615520
1970.789672	-14.622582
1972.086091	-14.629027
1973.384217	-14.634851
1974.684053	-14.639997
1975.985602	-14.644538
1977.288869	-14.649176
1978.593855	-14.653939
1979.900566	-14.658583
1981.209003	-14.662999
1982.519171	-14.667285
1983.831073	-14.671267
1985.144712	-14.675007
1986.460093	-14.678860
1987.777217	-14.682618
1989.096089	-14.685148
1990.416713	-14.686033
1991.739092	-14.686659
1993.063228	-14.689067
1994.389127	-14.692904
1995.716791	-14.696831
1997.046223	-14.700285
1998.377428	-14.704072
1999.710409	-14.708678
2001.045169	-14.713854
2002.381713	-14.718461
2003.720043	-14.720560
2005.060163	-14.719094
2006.402077	-14.714533
2007.745788	-14.707158
2009.091301	-14.695527
2010.438618	-14.677643
2011.787743	-14.652863
2013.138680	-14.622021
2014.491433	-14.586123
2015.846005	-14.545711
2017.202399	-14.501188
2018.560621	-14.455171
2019.920673	-14.411008
2021.282558	-14.371793
2022.646281	-14.338563
2024.011846	-14.312968
2025.379256	-14.295763
2026.748515	-14.287877
2028.119626	-14.288848
2029.492594	-14.298631
2030.867422	-14.314403
2032.244114	-14.332692
2033.622673	-14.352512
2035.003104	-14.374209
2036.385411	-14.396087
2037.769597	-14.414551
2039.155665	-14.427834
2040.543621	-14.435922
2041.933467	-14.439997
2043.325208	-14.439141
2044.718847	-14.432358
2046.114389	-14.419017
2047.511837	-14.400733
2048.911195	-14.378246
2050.312467	-14.351267
2051.715657	-14.319795
2053.120769	-14.284640
2054.527807	-14.245691
2055.936775	-14.203013
2057.347677	-14.157279
2058.760516	-14.109518
2060.175297	-14.061702
2061.592025	-14.015727
2063.010701	-13.972096
2064.431332	-13.931308
2065.853921	-13.894924
2067.278472	-13.863174
2068.704988	-13.836362
2070.133475	-13.814267
2071.563936	-13.797406
2072.996375	-13.784931
2074.430796	-13.775622
2075.867204	-13.767976
2077.305603	-13.761587
2078.745996	-13.755687
2080.188389	-13.749647
2081.632784	-13.741702
2083.079187	-13.730574
2084.527601	-13.716904
2085.978030	-13.700704
2087.430480	-13.681164
2088.884954	-13.658085
2090.341455	-13.632687
2091.799990	-13.607386
2093.260561	-13.583837
2094.723173	-13.562218
2096.187831	-13.542154
2097.654538	-13.524563
2099.123300	-13.509720
2100.594119	-13.496513
2102.067001	-13.483829
2103.541950	-13.471263
2105.018971	-13.458922
2106.498067	-13.445867
2107.979243	-13.430501
2109.462503	-13.411949
2110.947853	-13.391449
2112.435295	-13.370561
2113.924836	-13.349818
2115.416478	-13.328644
2116.910227	-13.307523
2118.406087	-13.288355
2119.904063	-13.270428
2121.404158	-13.252418
2122.906378	-13.234623
2124.410727	-13.218444
2125.917210	-13.204228
2127.425831	-13.191130
2128.936594	-13.179480
2130.449505	-13.170071
2131.964567	-13.162737
2133.481786	-13.156316
2135.001166	-13.150293
2136.522711	-13.145263
2138.046427	-13.141731
2139.572317	-13.138998
2141.100388	-13.135935
2142.630642	-13.132685
2144.163085	-13.129656
2145.697722	-13.125848
2147.234558	-13.121267
2148.773596	-13.117073
2150.314842	-13.112857
2151.858301	-13.108658
2153.403977	-13.104224
2154.951875	-13.098956
2156.502000	-13.093872
2158.054357	-13.089432
2159.608950	-13.084567
2161.165785	-13.079109
2162.724866	-13.074281
2164.286198	-13.070212
2165.849786	-13.065929
2167.415635	-13.061399
2168.983749	-13.057008
2170.554134	-13.052825
2172.126795	-13.048858
2173.701737	-13.044733
2175.278964	-13.040632
2176.858481	-13.037454
2178.440294	-13.035676
2180.024408	-13.036246
2181.610827	-13.039740
2183.199557	-13.044493
2184.790602	-13.050238
2186.383968	-13.058680
2187.979660	-13.069441
2189.577683	-13.081471
2191.178041	-13.094473
2192.780741	-13.107862
2194.385787	-13.122544
2195.993185	-13.137176
2197.602939	-13.150007
2199.215054	-13.163527
2200.829537	-13.178291
2202.446392	-13.191920
2204.065624	-13.205081
2205.687239	-13.218055
2207.311242	-13.229884
2208.937638	-13.241181
2210.566433	-13.252852
2212.197631	-13.264150
2213.831239	-13.274370
2215.467261	-13.284641
2217.105703	-13.296235
2218.746570	-13.307678
2220.389867	-13.318313
2222.035601	-13.329349
2223.683776	-13.341868
2225.334398	-13.355731
2226.987472	-13.370645
2228.643004	-13.386489
2230.300999	-13.404288
2231.961463	-13.423641
2233.624402	-13.445111
2235.289820	-13.470036
2236.957723	-13.497345
2238.628118	-13.526312
2240.301009	-13.558188
2241.976402	-13.592605
2243.654303	-13.628294
2245.334717	-13.665040
2247.017650	-13.703129
2248.703108	-13.740638
2250.391096	-13.776898
2252.081620	-13.813118
2253.774686	-13.848710
2255.470300	-13.883416
2257.168467	-13.918523
2258.869193	-13.952515
2260.572484	-13.985051
2262.278345	-14.018383
2263.986783	-14.052528
2265.697804	-14.085609
2267.411412	-14.116889
2269.127615	-14.148703
2270.846417	-14.182098
2272.567826	-14.215324
2274.291846	-14.248181
2276.018484	-14.282301
2277.747745	-14.318354
2279.479637	-14.355723
2281.214164	-14.394329
2282.951333	-14.435525
2284.691149	-14.480251
2286.433619	-14.527192
2288.178750	-14.576526
2289.926546	-14.629392
2291.677014	-14.686632
2293.430161	-14.747109
2295.185992	-14.809779
2296.944513	-14.874580
2298.705732	-14.941620
2300.469653	-15.009232
2302.236283	-15.077298
2304.005629	-15.146582
2305.777696	-15.213686
2307.552492	-15.278903
2309.330022	-15.343887
2311.110292	-15.407527
2312.893310	-15.470871
2314.679080	-15.533962
2316.467611	-15.595608
2318.258907	-15.656315
2320.052976	-15.720381
2321.849824	-15.783418
2323.649457	-15.843132
2325.451883	-15.904367
2327.257106	-15.967195
2329.065135	-16.029701
2330.875975	-16.093096
2332.689633	-16.158382
2334.506116	-16.226583
2336.325430	-16.296679
2338.147581	-16.370658
2339.972578	-16.448375
2341.800425	-16.528964
2343.631130	-16.613045
2345.464700	-16.701852
2347.301141	-16.796039
2349.140461	-16.893532
2350.982665	-16.994754
2352.827760	-17.098536
2354.675754	-17.203176
2356.526653	-17.311354
2358.380464	-17.419448
2360.237195	-17.524773
2362.096851	-17.629823
2363.959440	-17.734072
2365.824968	-17.833956
2367.693444	-17.933630
2369.564873	-18.032507
2371.439263	-18.127378
2373.316620	-18.226519
2375.196953	-18.326315
2377.080267	-18.421508
2378.966570	-18.519618
2380.855869	-18.616410
2382.748171	-18.710781
2384.643484	-18.808214
2386.541815	-18.905333
2388.443170	-19.003136
2390.347557	-19.107313
2392.254984	-19.207788
2394.165457	-19.312075
2396.078984	-19.428909
2397.995572	-19.546012
2399.915229	-19.667943
2401.837961	-19.798593
2403.763777	-19.933344
2405.692684	-20.073381
2407.624689	-20.217480
2409.559800	-20.365909
2411.498023	-20.522969
2413.439368	-20.676874
2415.383840	-20.826211
2417.331449	-20.979273
2419.282201	-21.123418
2421.236104	-21.264971
2423.193165	-21.410139
2425.153393	-21.546777
2427.116795	-21.681160
2429.083378	-21.818846
2431.053151	-21.955882
2433.026121	-22.087210
2435.002297	-22.214191
2436.981685	-22.351603
2438.964293	-22.482301
2440.950131	-22.602151
2442.939204	-22.728722
2444.931522	-22.857119
2446.927092	-22.980418
2448.925923	-23.106663
2450.928022	-23.247406
2452.933397	-23.387511
2454.942056	-23.533203
2456.954008	-23.690825
2458.969260	-23.854466
2460.987821	-24.025108
2463.009699	-24.211696
2465.034902	-24.401112
2467.063437	-24.595422
2469.095315	-24.802333
2471.130542	-25.010564
2473.169127	-25.213283
2475.211078	-25.410119
2477.256404	-25.602660
2479.305112	-25.784444
2481.357212	-25.964278
2483.412713	-26.139385
2485.471621	-26.301328
2487.533946	-26.472214
2489.599696	-26.639380
2491.668880	-26.790887
2493.741507	-26.957078
2495.817585	-27.117834
2497.897122	-27.258892
2499.980127	-27.397394
2502.066609	-27.546365
2504.156578	-27.677557
2506.250040	-27.801447
2508.347006	-27.943742
2510.447483	-28.091734
2512.551482	-28.243611
2514.659010	-28.416505
2516.770076	-28.601320
2518.884690	-28.790846
2521.002861	-29.002180
2523.124597	-29.237004
2525.249907	-29.489103
2527.378801	-29.748369
2529.511287	-30.011374
2531.647375	-30.279637
2533.787074	-30.549339
2535.930393	-30.791910
2538.077340	-31.018855
2540.227927	-31.242736
2542.382160	-31.455225
2544.540051	-31.643652
2546.701608	-31.831033
2548.866840	-32.051718
2551.035757	-32.218534
2553.208369	-32.377527
2555.384684	-32.563573
2557.564713	-32.723625
2559.748465	-32.831389
2561.935948	-32.952384
2564.127174	-33.082366
2566.322152	-33.138046
2568.520890	-33.251431
2570.723399	-33.380395
2572.929689	-33.489023
2575.139769	-33.629811
2577.353649	-33.817142
2579.571340	-34.016169
2581.792849	-34.227241
2584.018189	-34.521123
2586.247368	-34.796174
2588.480396	-35.129477
2590.717284	-35.503326
2592.958041	-35.863490
2595.202678	-36.214801
2597.451204	-36.559114
2599.703630	-36.889924
2601.959966	-37.167856
2604.220222	-37.488187
2606.484408	-37.723904
2608.752535	-38.001371
2611.024612	-38.254817
2613.300651	-38.497222
2615.580661	-38.693110
2617.864653	-38.889783
2620.152638	-38.990889
2622.444625	-39.042511
2624.740626	-39.101543
2627.040651	-39.058656
2629.344710	-39.045418
2631.652814	-38.997669
2633.964974	-39.014214
2636.281200	-39.020399
2638.601504	-39.079843
2640.925896	-39.137808
2643.254386	-39.278241
2645.586987	-39.425205
2647.923707	-39.690024
2650.264559	-39.993059
2652.609554	-40.339638
2654.958702	-40.745277
2657.312015	-41.237103
2659.669503	-41.667905
2662.031178	-42.100351
2664.397051	-42.604839
2666.767132	-43.074745
2669.141434	-43.600045
2671.519968	-44.078576
2673.902745	-44.638268
2676.289776	-45.214367
2678.681072	-45.825847
2681.076646	-46.355536
2683.476508	-46.718137
2685.880671	-46.883471
2688.289145	-46.976980
2690.701942	-46.736686
2693.119075	-46.452917
2695.540554	-46.125217
2697.966391	-45.839843
2700.396599	-45.516704
2702.831189	-45.241751
2705.270172	-44.991454
2707.713561	-44.800810
2710.161368	-44.714453
2712.613605	-44.710601
2715.070283	-44.804553
2717.531416	-45.056156
2719.997014	-45.349563
2722.467090	-45.621916
2724.941657	-45.944813
2727.420726	-46.295553
2729.904310	-46.620836
2732.392421	-46.991878
2734.885072	-47.450957
2737.382275	-47.910530
2739.884042	-48.547140
2742.390387	-49.398046
2744.901321	-50.357070
2747.416857	-51.489706
2749.937008	-52.989523
2752.461787	-54.469641
2754.991206	-55.931170
2757.525279	-56.977553
2760.064017	-57.712523
2762.607434	-57.295019
2765.155544	-56.547078
2767.708358	-55.444787
2770.265890	-54.406362
2772.828153	-53.368325
2775.395160	-52.407102
2777.966924	-51.889263
2780.543459	-51.578480
2783.124778	-51.441418
2785.710894	-51.350502
2788.301821	-51.370064
2790.897572	-51.357539
2793.498160	-51.310697
2796.103599	-51.204065
2798.713903	-51.084012
2801.329085	-51.107191
2803.949159	-51.018320
2806.574139	-51.151641
2809.204038	-51.296707
2811.838871	-51.784984
2814.478650	-52.235255
2817.123391	-53.028062
2819.773107	-53.891728
2822.427812	-54.979205
2825.087521	-56.208870
2827.752247	-57.487535
2830.422005	-59.305400
2833.096808	-61.176045
2835.776672	-64.126097
2838.461611	-66.573761
2841.151638	-68.457879
2843.846769	-69.271652
2846.547019	-63.458137
2849.252401	-62.596259
2851.962930	-66.695102
2854.678621	-59.897594
2857.399489	-63.176706
2860.125549	-63.597558
2862.856815	-61.805730
2865.593302	-60.869724
2868.335026	-58.988072
2871.082002	-60.641263
2873.834244	-58.061885
2876.591767	-57.701628
2879.354588	-56.009638
2882.122721	-56.803529
2884.896181	-56.434773
2887.674984	-57.004224
2890.459146	-56.775176
2893.248681	-56.592393
2896.043606	-57.298856
2898.843937	-57.768161
2901.649687	-59.209856
2904.460875	-59.845484
2907.277515	-62.190845
2910.099623	-62.576429
2912.927215	-65.626550
2915.760308	-65.638454
2918.598916	-67.353645
2921.443057	-65.811045
2924.292747	-65.033654
2927.148002	-65.796650
2930.008837	-64.537689
2932.875270	-67.053394
2935.747318	-67.097969
2938.624995	-69.878792
2941.508320	-75.510211
2944.397308	-78.244711
2947.291977	-83.703281
2950.192343	-74.915068
2953.098423	-71.410658
2956.010234	-67.266565
2958.927792	-66.805873
2961.851116	-64.721852
2964.780221	-63.763625
2967.715126	-63.434547
2970.655847	-62.563764
2973.602402	-62.542239
2976.554808	-62.123124
2979.513083	-62.127929
2982.477243	-63.443889
2985.447308	-64.546082
2988.423293	-66.474215
2991.405218	-70.692958
2994.393099	-71.543703
2997.386955	-73.620488
