# 2022-03-22_11.01.11
# shape = sech2
# FWHM_ps = 0.11
# carrier_nm = 1542
# frep_MHz = 12126
# pow_mW = 8000
# GDD = 0.0
# propa_len = 0.13244444444444445
# untap_len = 0.01
# taper_len = 0.07244444444444445
# waist_len = 0.02
# uptap_len = 0.02
# untap_scale = 1.0
# waist_scale = 0.22631578947368425
# workingDir = NL_20110305_12 (Spirou)
# axis = slow
# window_ps = 10.0
# steps = 200
# points = 21700
# 
# wavelength [nm]	 power spectral density [dB]
600.043425	-87.391661
600.163550	-87.275407
600.283723	-87.276032
600.403943	-87.421614
600.524212	-87.705574
600.644529	-88.124154
600.764895	-88.676825
600.885308	-89.325834
601.005770	-90.016990
601.126280	-90.689326
601.246839	-91.231827
601.367446	-91.597405
601.488101	-91.810596
601.608804	-91.930445
601.729557	-92.025777
601.850357	-92.184566
601.971206	-92.474513
602.092104	-92.931841
602.213050	-93.535637
602.334045	-94.262350
602.455089	-95.117355
602.576181	-96.091314
602.697322	-97.142435
602.818511	-98.249662
602.939749	-99.342971
603.061036	-100.314773
603.182372	-101.121786
603.303757	-101.670601
603.425191	-101.901765
603.546673	-101.859435
603.668204	-101.600660
603.789785	-101.203632
603.911414	-100.750261
604.033092	-100.348610
604.154820	-100.133501
604.276596	-100.149728
604.398422	-100.444818
604.520297	-101.009675
604.642220	-101.830591
604.764193	-102.875913
604.886216	-104.119527
605.008287	-105.365299
605.130408	-106.321494
605.252578	-106.778283
605.374798	-106.822780
605.497066	-106.527524
605.619385	-106.065454
605.741752	-105.447458
605.864169	-104.549562
605.986636	-103.415176
606.109152	-102.239641
606.231718	-101.044634
606.354333	-99.826981
606.476998	-98.643959
606.599712	-97.517271
606.722476	-96.581448
606.845290	-95.902527
606.968154	-95.463654
607.091067	-95.280129
607.214030	-95.374095
607.337043	-95.712610
607.460106	-96.175362
607.583219	-96.619748
607.706381	-96.884080
607.829594	-96.812243
607.952856	-96.468253
608.076169	-96.037024
608.199531	-95.612082
608.322944	-95.258787
608.446407	-95.030003
608.569920	-94.958574
608.693483	-95.040402
608.817096	-95.237809
608.940759	-95.494622
609.064473	-95.783884
609.188237	-95.959343
609.312051	-95.887313
609.435916	-95.426839
609.559831	-94.646981
609.683796	-93.770692
609.807812	-92.949309
609.931878	-92.268529
610.055995	-91.764132
610.180162	-91.450959
610.304380	-91.330017
610.428648	-91.363596
610.552967	-91.511209
610.677337	-91.765418
610.801757	-92.086463
610.926228	-92.405168
611.050750	-92.717255
611.175323	-92.995394
611.299946	-93.195870
611.424620	-93.317130
611.549345	-93.390815
611.674121	-93.430477
611.798948	-93.484706
611.923826	-93.549852
612.048755	-93.597084
612.173734	-93.620753
612.298765	-93.642337
612.423847	-93.607749
612.548980	-93.476657
612.674165	-93.250661
612.799400	-93.007944
612.924687	-92.753355
613.050025	-92.455303
613.175414	-92.149375
613.300854	-91.819346
613.426346	-91.434944
613.551889	-91.005273
613.677484	-90.514970
613.803130	-89.985075
613.928827	-89.444161
614.054576	-88.904652
614.180377	-88.374344
614.306229	-87.871716
614.432132	-87.444737
614.558087	-87.102354
614.684094	-86.852849
614.810153	-86.714184
614.936263	-86.678651
615.062425	-86.712731
615.188639	-86.778393
615.314904	-86.832885
615.441222	-86.849465
615.567591	-86.824272
615.694012	-86.742981
615.820486	-86.621405
615.947011	-86.449909
616.073588	-86.231807
616.200217	-85.992541
616.326898	-85.760646
616.453632	-85.564710
616.580417	-85.431914
616.707255	-85.399287
616.834144	-85.465804
616.961086	-85.603858
617.088081	-85.774674
617.215127	-85.928025
617.342226	-86.039055
617.469378	-86.075985
617.596581	-86.017804
617.723837	-85.870729
617.851146	-85.664265
617.978507	-85.414773
618.105920	-85.134957
618.233386	-84.854761
618.360905	-84.585177
618.488476	-84.332123
618.616100	-84.109130
618.743777	-83.911641
618.871506	-83.728948
618.999288	-83.556997
619.127123	-83.405488
619.255011	-83.260725
619.382951	-83.111878
619.510945	-82.948527
619.638991	-82.762867
619.767090	-82.566706
619.895243	-82.355379
620.023448	-82.125674
620.151706	-81.905414
620.280017	-81.712789
620.408382	-81.558671
620.536799	-81.446247
620.665270	-81.386294
620.793794	-81.383224
620.922371	-81.436184
621.051002	-81.546727
621.179686	-81.708220
621.308423	-81.913135
621.437213	-82.137769
621.566057	-82.377071
621.694954	-82.610240
621.823905	-82.830866
621.952909	-83.044710
622.081967	-83.258023
622.211079	-83.463413
622.340244	-83.673297
622.469462	-83.889837
622.598735	-84.113620
622.728061	-84.338347
622.857441	-84.580339
622.986874	-84.848209
623.116361	-85.152820
623.245903	-85.508634
623.375498	-85.926080
623.505147	-86.398144
623.634850	-86.893968
623.764606	-87.360815
623.894417	-87.789897
624.024282	-88.168314
624.154201	-88.496337
624.284174	-88.780096
624.414202	-89.029075
624.544283	-89.254779
624.674419	-89.464043
624.804609	-89.617964
624.934853	-89.700162
625.065151	-89.722915
625.195504	-89.701802
625.325911	-89.643627
625.456373	-89.532435
625.586889	-89.364634
625.717460	-89.202457
625.848085	-89.050895
625.978764	-88.894581
626.109498	-88.719447
626.240287	-88.570129
626.371131	-88.429676
626.502029	-88.299073
626.632982	-88.164125
626.763989	-88.038346
626.895052	-87.929637
627.026169	-87.855651
627.157341	-87.842986
627.288568	-87.931908
627.419850	-88.168553
627.551187	-88.555531
627.682579	-89.077223
627.814026	-89.685557
627.945528	-90.392693
628.077085	-91.127403
628.208697	-91.835982
628.340364	-92.357476
628.472087	-92.541446
628.603865	-92.155289
628.735698	-91.300885
628.867586	-90.193018
628.999530	-89.093253
629.131529	-88.094516
629.263584	-87.302180
629.395694	-86.659577
629.527859	-86.166424
629.660080	-85.766297
629.792357	-85.473165
629.924689	-85.225905
630.057077	-85.056909
630.189520	-84.937702
630.322019	-84.890384
630.454574	-84.876228
630.587184	-84.937007
630.719851	-85.031066
630.852573	-85.200783
630.985351	-85.433539
631.118185	-85.745288
631.251075	-86.106044
631.384021	-86.565449
631.517023	-87.079439
631.650081	-87.676720
631.783195	-88.345651
631.916365	-89.162007
632.049592	-90.116324
632.182874	-91.254150
632.316213	-92.539530
632.449608	-94.028651
632.583059	-95.603866
632.716567	-97.335063
632.850131	-99.355380
632.983751	-101.888514
633.117428	-104.107337
633.251161	-103.591215
633.384951	-100.654948
633.518797	-97.646725
633.652700	-95.136534
633.786660	-93.011495
633.920676	-91.157925
634.054749	-89.553851
634.188879	-88.209958
634.323065	-87.069705
634.457308	-86.096189
634.591608	-85.277785
634.725965	-84.586651
634.860379	-83.980217
634.994850	-83.440979
635.129377	-82.949405
635.263962	-82.497683
635.398604	-82.097087
635.533303	-81.738750
635.668058	-81.412949
635.802872	-81.095764
635.937742	-80.807653
636.072669	-80.545913
636.207654	-80.328034
636.342696	-80.175977
636.477796	-80.109337
636.612953	-80.108346
636.748167	-80.172207
636.883439	-80.301900
637.018768	-80.500063
637.154155	-80.784964
637.289599	-81.169203
637.425101	-81.659526
637.560660	-82.248423
637.696277	-82.924993
637.831952	-83.658293
637.967685	-84.443826
638.103475	-85.261997
638.239324	-86.095022
638.375230	-86.906334
638.511194	-87.605368
638.647215	-88.091269
638.783295	-88.233045
638.919433	-87.971118
639.055629	-87.371989
639.191883	-86.560913
639.328195	-85.660747
639.464565	-84.750601
639.600994	-83.905270
639.737481	-83.133062
639.874025	-82.434726
640.010629	-81.775213
640.147290	-81.166499
640.284010	-80.604546
640.420789	-80.100793
640.557625	-79.647046
640.694521	-79.250405
640.831474	-78.882700
640.968487	-78.524985
641.105558	-78.172492
641.242687	-77.837658
641.379876	-77.534400
641.517123	-77.286711
641.654429	-77.099014
641.791793	-76.978278
641.929216	-76.915180
642.066699	-76.902309
642.204240	-76.940651
642.341840	-77.036212
642.479499	-77.193122
642.617217	-77.410233
642.754994	-77.682540
642.892830	-78.006878
643.030726	-78.387005
643.168680	-78.840074
643.306694	-79.376653
643.444767	-80.028581
643.582899	-80.804613
643.721091	-81.704358
643.859342	-82.729714
643.997652	-83.903486
644.136022	-85.247306
644.274451	-86.803266
644.412940	-88.644640
644.551488	-90.829227
644.690096	-93.501225
644.828763	-96.940653
644.967490	-101.413446
645.106277	-103.336393
645.245124	-99.103331
645.384030	-95.230384
645.522997	-92.541745
645.662023	-90.609486
645.801109	-89.183265
645.940255	-88.123277
646.079460	-87.253258
646.218726	-86.468614
646.358052	-85.773470
646.497438	-85.147560
646.636884	-84.574245
646.776391	-84.069911
646.915957	-83.620868
647.055584	-83.207137
647.195271	-82.804122
647.335019	-82.408184
647.474826	-82.032641
647.614695	-81.677507
647.754623	-81.361886
647.894612	-81.115193
648.034662	-80.930311
648.174772	-80.830323
648.314943	-80.815450
648.455174	-80.876325
648.595466	-80.994782
648.735819	-81.164988
648.876233	-81.352867
649.016707	-81.547897
649.157242	-81.728350
649.297838	-81.859935
649.438495	-81.921387
649.579213	-81.861145
649.719992	-81.633018
649.860832	-81.269153
650.001733	-80.823747
650.142695	-80.371979
650.283718	-79.988494
650.424803	-79.710442
650.565949	-79.544280
650.707156	-79.497236
650.848424	-79.579280
650.989754	-79.782442
651.131145	-80.106193
651.272597	-80.564219
651.414111	-81.150381
651.555687	-81.860443
651.697324	-82.708291
651.839022	-83.740531
651.980782	-84.995452
652.122604	-86.547034
652.264488	-88.492182
652.406433	-91.021468
652.548441	-94.415182
652.690510	-99.057008
652.832640	-101.347095
652.974833	-96.901621
653.117088	-92.913192
653.259405	-90.030166
653.401784	-87.849680
653.544224	-86.141698
653.686727	-84.729748
653.829293	-83.555955
653.971920	-82.597741
654.114609	-81.792399
654.257361	-81.116764
654.400175	-80.531482
654.543052	-79.990630
654.685991	-79.465088
654.828992	-78.951429
654.972056	-78.458609
655.115183	-78.013408
655.258372	-77.622991
655.401623	-77.295775
655.544937	-77.024230
655.688314	-76.795840
655.831754	-76.612418
655.975256	-76.490087
656.118822	-76.428542
656.262450	-76.444604
656.406141	-76.560135
656.549894	-76.775205
656.693711	-77.100207
656.837591	-77.547318
656.981534	-78.124605
657.125540	-78.827095
657.269610	-79.653158
657.413742	-80.593272
657.557938	-81.607106
657.702196	-82.635380
657.846519	-83.604638
657.990904	-84.374700
658.135353	-84.785736
658.279866	-84.752766
658.424441	-84.350734
658.569081	-83.719965
658.713784	-82.963847
658.858550	-82.183766
659.003381	-81.417089
659.148274	-80.666224
659.293232	-79.925845
659.438253	-79.224512
659.583339	-78.563887
659.728488	-77.946330
659.873701	-77.392875
660.018978	-76.903934
660.164318	-76.462273
660.309723	-76.061641
660.455192	-75.697990
660.600725	-75.364456
660.746323	-75.070589
660.891984	-74.833560
661.037710	-74.650898
661.183500	-74.522470
661.329354	-74.460023
661.475272	-74.455286
661.621255	-74.505798
661.767303	-74.611144
661.913415	-74.775720
662.059591	-74.985145
662.205833	-75.259518
662.352138	-75.600977
662.498509	-76.027509
662.644944	-76.530737
662.791443	-77.121923
662.938008	-77.777622
663.084638	-78.480665
663.231332	-79.221513
663.378091	-79.996829
663.524915	-80.773835
663.671804	-81.556359
663.818759	-82.331147
663.965778	-83.054622
664.112863	-83.698037
664.260012	-84.220393
664.407227	-84.568485
664.554507	-84.720256
664.701853	-84.669885
664.849264	-84.397573
664.996740	-83.931499
665.144282	-83.332925
665.291889	-82.670346
665.439561	-82.008680
665.587300	-81.396575
665.735103	-80.839848
665.882973	-80.351525
666.030908	-79.919643
666.178909	-79.542528
666.326976	-79.207144
666.475109	-78.915207
666.623307	-78.666415
666.771571	-78.478282
666.919902	-78.370348
667.068298	-78.349326
667.216761	-78.403966
667.365289	-78.526859
667.513884	-78.679731
667.662545	-78.853053
667.811272	-79.049735
667.960065	-79.265575
668.108925	-79.495720
668.257851	-79.746843
668.406843	-79.985621
668.555902	-80.195965
668.705027	-80.334479
668.854219	-80.409391
669.003478	-80.420090
669.152803	-80.409323
669.302195	-80.408272
669.451653	-80.421529
669.601179	-80.454150
669.750771	-80.486781
669.900430	-80.502791
670.050156	-80.480651
670.199949	-80.404296
670.349808	-80.276325
670.499735	-80.108615
670.649729	-79.901008
670.799790	-79.674400
670.949918	-79.432377
671.100114	-79.188566
671.250377	-78.939598
671.400707	-78.702900
671.551104	-78.453431
671.701569	-78.196617
671.852101	-77.924385
672.002700	-77.653778
672.153368	-77.378061
672.304102	-77.115378
672.454905	-76.866730
672.605775	-76.628153
672.756713	-76.401760
672.907718	-76.187620
673.058791	-75.972468
673.209933	-75.757208
673.361142	-75.529949
673.512419	-75.288631
673.663764	-75.041323
673.815177	-74.799847
673.966658	-74.567026
674.118207	-74.342509
674.269825	-74.121656
674.421510	-73.885039
674.573264	-73.640195
674.725086	-73.397333
674.876977	-73.174458
675.028936	-72.984719
675.180963	-72.832529
675.333059	-72.715443
675.485224	-72.634677
675.637457	-72.594157
675.789758	-72.592900
675.942129	-72.631945
676.094568	-72.712849
676.247075	-72.823564
676.399652	-72.971184
676.552298	-73.153668
676.705012	-73.375247
676.857795	-73.632382
677.010648	-73.911822
677.163569	-74.184666
677.316560	-74.435229
677.469619	-74.640767
677.622748	-74.786216
677.775946	-74.864000
677.929214	-74.868763
678.082551	-74.796105
678.235957	-74.653323
678.389432	-74.444929
678.542977	-74.177521
678.696592	-73.867681
678.850276	-73.512096
679.004030	-73.125318
679.157853	-72.725402
679.311746	-72.339535
679.465709	-71.986539
679.619742	-71.680740
679.773844	-71.427519
679.928017	-71.230042
680.082259	-71.090963
680.236571	-71.022515
680.390954	-71.022622
680.545406	-71.095753
680.699929	-71.234176
680.854522	-71.432680
681.009185	-71.682639
681.163918	-71.976352
681.318722	-72.303430
681.473596	-72.645710
681.628540	-72.992369
681.783555	-73.323366
681.938641	-73.635359
682.093797	-73.928253
682.249023	-74.195453
682.404321	-74.430268
682.559689	-74.623157
682.715128	-74.766770
682.870637	-74.861681
683.026218	-74.904840
683.181869	-74.905342
683.337591	-74.869982
683.493385	-74.805122
683.649249	-74.710708
683.805185	-74.582912
683.961191	-74.427233
684.117269	-74.239467
684.273418	-74.036356
684.429639	-73.826784
684.585930	-73.627380
684.742294	-73.449620
684.898728	-73.310236
685.055234	-73.211267
685.211812	-73.153738
685.368461	-73.118088
685.525182	-73.077583
685.681975	-73.004941
685.838839	-72.879544
685.995775	-72.709706
686.152783	-72.507531
686.309863	-72.287910
686.467014	-72.065686
686.624238	-71.868225
686.781534	-71.716788
686.938902	-71.634425
687.096342	-71.631661
687.253854	-71.714998
687.411438	-71.881537
687.569095	-72.134789
687.726824	-72.463845
687.884626	-72.863476
688.042499	-73.316914
688.200446	-73.794107
688.358465	-74.262263
688.516556	-74.688896
688.674720	-75.046944
688.832957	-75.301849
688.991266	-75.447627
689.149649	-75.464827
689.308104	-75.373994
689.466632	-75.167877
689.625233	-74.871963
689.783906	-74.489861
689.942653	-74.055206
690.101473	-73.588703
690.260367	-73.122855
690.419333	-72.687951
690.578372	-72.302402
690.737485	-71.968136
690.896672	-71.679854
691.055931	-71.439431
691.215264	-71.261417
691.374671	-71.158872
691.534151	-71.146645
691.693704	-71.239440
691.853332	-71.438112
692.013033	-71.738106
692.172807	-72.122932
692.332656	-72.588014
692.492578	-73.114845
692.652575	-73.688720
692.812645	-74.276880
692.972789	-74.827576
693.133007	-75.298045
693.293300	-75.633076
693.453666	-75.801591
693.614107	-75.810763
693.774622	-75.688274
693.935211	-75.473093
694.095875	-75.205860
694.256613	-74.904718
694.417426	-74.604744
694.578313	-74.311958
694.739274	-74.038472
694.900311	-73.779652
695.061421	-73.532896
695.222607	-73.307652
695.383868	-73.121033
695.545203	-73.010812
695.706613	-72.999662
695.868098	-73.109194
696.029658	-73.327694
696.191293	-73.645425
696.353003	-74.050716
696.514789	-74.541356
696.676649	-75.108491
696.838585	-75.728707
697.000596	-76.358038
697.162682	-76.946665
697.324844	-77.411161
697.487081	-77.717430
697.649394	-77.833693
697.811782	-77.773119
697.974246	-77.595051
698.136786	-77.342111
698.299401	-77.086801
698.462092	-76.862963
698.624859	-76.676713
698.787702	-76.509561
698.950621	-76.333788
699.113616	-76.135635
699.276686	-75.912475
699.439833	-75.682776
699.603056	-75.485002
699.766355	-75.378009
699.929731	-75.404669
700.093183	-75.594197
700.256711	-75.952525
700.420315	-76.494312
700.583996	-77.242401
700.747754	-78.238526
700.911588	-79.506890
701.075499	-81.035340
701.239486	-82.649618
701.403550	-83.863511
701.567691	-84.016293
701.731909	-83.068171
701.896203	-81.640280
702.060575	-80.170377
702.225024	-78.842301
702.389549	-77.667069
702.554152	-76.635340
702.718832	-75.722365
702.883589	-74.884047
703.048424	-74.087941
703.213335	-73.331097
703.378324	-72.645504
703.543391	-72.076471
703.708535	-71.660493
703.873757	-71.419295
704.039056	-71.348717
704.204433	-71.443109
704.369887	-71.693562
704.535420	-72.116311
704.701030	-72.731473
704.866718	-73.579144
705.032484	-74.705648
705.198328	-76.154256
705.364250	-77.947087
705.530250	-80.032845
705.696328	-81.966528
705.862485	-82.496573
706.028720	-80.878402
706.195033	-78.376394
706.361424	-75.977410
706.527894	-73.892915
706.694442	-72.130130
706.861069	-70.632656
707.027775	-69.352760
707.194559	-68.261511
707.361422	-67.349999
707.528363	-66.620284
707.695384	-66.071816
707.862483	-65.698297
708.029661	-65.490053
708.196918	-65.429197
708.364254	-65.508146
708.531670	-65.714276
708.699164	-66.050958
708.866738	-66.524476
709.034391	-67.145499
709.202123	-67.914532
709.369935	-68.833196
709.537826	-69.909187
709.705796	-71.181933
709.873847	-72.721318
710.041976	-74.643107
710.210186	-76.943855
710.378475	-78.959081
710.546844	-78.728023
710.715292	-76.295442
710.883821	-73.648273
711.052429	-71.420001
711.221118	-69.629861
711.389887	-68.207867
711.558735	-67.095633
711.727664	-66.252876
711.896673	-65.648171
712.065763	-65.248543
712.234932	-65.016864
712.404183	-64.912639
712.573513	-64.907272
712.742924	-64.980977
712.912416	-65.127219
713.081988	-65.342551
713.251641	-65.615163
713.421375	-65.933883
713.591190	-66.307395
713.761085	-66.778010
713.931061	-67.409905
714.101119	-68.270950
714.271257	-69.422991
714.441476	-70.936638
714.611777	-72.872850
714.782159	-75.236852
714.952622	-77.615821
715.123166	-78.317252
715.293792	-76.461574
715.464499	-73.932625
715.635288	-71.793775
715.806158	-70.153450
715.977110	-68.927329
716.148143	-67.995017
716.319259	-67.263029
716.490456	-66.663855
716.661735	-66.161739
716.833096	-65.735112
717.004538	-65.378331
717.176063	-65.086597
717.347670	-64.858706
717.519359	-64.702022
717.691130	-64.638498
717.862984	-64.701106
718.034920	-64.917314
718.206938	-65.294959
718.379039	-65.835468
718.551222	-66.545381
718.723488	-67.442078
718.895836	-68.506547
719.068267	-69.647717
719.240781	-70.620295
719.413377	-71.039695
719.586057	-70.694140
719.758819	-69.792542
719.931664	-68.685525
720.104593	-67.578206
720.277604	-66.538785
720.450699	-65.601656
720.623876	-64.807037
720.797137	-64.174898
720.970482	-63.690923
721.143910	-63.320416
721.317421	-63.039798
721.491016	-62.850979
721.664694	-62.774197
721.838456	-62.838191
722.012302	-63.064056
722.186231	-63.466087
722.360244	-64.045479
722.534342	-64.797605
722.708523	-65.718520
722.882788	-66.796068
723.057137	-67.947280
723.231570	-68.928865
723.406088	-69.367592
723.580689	-69.047238
723.755375	-68.141594
723.930146	-67.002070
724.105000	-65.873654
724.279940	-64.866810
724.454963	-64.013229
724.630072	-63.310719
724.805265	-62.748511
724.980543	-62.307212
725.155905	-61.965045
725.331353	-61.717193
725.506885	-61.581527
725.682503	-61.583555
725.858205	-61.727720
726.033993	-61.999520
726.209865	-62.371547
726.385823	-62.832755
726.561866	-63.382523
726.737995	-64.014372
726.914209	-64.675912
727.090508	-65.276128
727.266893	-65.716389
727.443364	-65.942443
727.619920	-65.979583
727.796562	-65.878670
727.973290	-65.660834
728.150103	-65.309758
728.327003	-64.830144
728.503988	-64.268513
728.681060	-63.693041
728.858218	-63.147229
729.035461	-62.654225
729.212791	-62.228898
729.390208	-61.890232
729.567710	-61.653164
729.745299	-61.528169
729.922975	-61.504312
730.100737	-61.556539
730.278586	-61.655892
730.456521	-61.790201
730.634543	-61.958103
730.812652	-62.169928
730.990848	-62.436045
731.169130	-62.772779
731.347500	-63.198450
731.525957	-63.729571
731.704500	-64.339496
731.883131	-64.927618
732.061850	-65.314558
732.240655	-65.342362
732.419548	-64.993310
732.598528	-64.399255
732.777596	-63.699272
732.956751	-62.993277
733.135994	-62.346657
733.315325	-61.805019
733.494744	-61.384142
733.674250	-61.074677
733.853844	-60.844623
734.033526	-60.670767
734.213296	-60.555223
734.393154	-60.529902
734.573101	-60.637533
734.753135	-60.909039
734.933258	-61.351059
735.113469	-61.967802
735.293769	-62.760260
735.474157	-63.712326
735.654633	-64.729742
735.835198	-65.585786
736.015852	-65.967913
736.196594	-65.727479
736.377426	-65.023760
736.558346	-64.145583
736.739355	-63.289090
736.920453	-62.529781
737.101640	-61.880983
737.282916	-61.340295
737.464282	-60.903904
737.645736	-60.572238
737.827280	-60.350385
738.008914	-60.249427
738.190637	-60.280300
738.372449	-60.457166
738.554351	-60.793588
738.736342	-61.295087
738.918424	-61.950269
739.100595	-62.735410
739.282855	-63.592950
739.465206	-64.393648
739.647647	-64.925043
739.830178	-65.032636
740.012799	-64.772919
740.195510	-64.321225
740.378311	-63.801607
740.561203	-63.284555
740.744185	-62.816668
740.927258	-62.423250
741.110421	-62.119432
741.293674	-61.919927
741.477018	-61.826559
741.660453	-61.821792
741.843979	-61.888901
742.027596	-62.041439
742.211303	-62.306464
742.395102	-62.695660
742.578991	-63.182344
742.762972	-63.715352
742.947044	-64.219790
743.131207	-64.619668
743.315461	-64.852249
743.499807	-64.887659
743.684244	-64.726962
743.868773	-64.415453
744.053394	-64.024594
744.238106	-63.616584
744.422910	-63.239345
744.607805	-62.929527
744.792793	-62.691012
744.977872	-62.506091
745.163044	-62.356551
745.348307	-62.249419
745.533663	-62.212073
745.719111	-62.268773
745.904651	-62.432271
746.090283	-62.712215
746.276008	-63.123552
746.461826	-63.693525
746.647735	-64.456582
746.833738	-65.451934
747.019833	-66.684043
747.206021	-68.050653
747.392302	-69.262706
747.578676	-69.838823
747.765143	-69.458179
747.951703	-68.367716
748.138356	-67.031030
748.325102	-65.738484
748.511941	-64.624747
748.698874	-63.737932
748.885900	-63.062987
749.073019	-62.576117
749.260232	-62.262931
749.447539	-62.122659
749.634939	-62.162076
749.822433	-62.400447
750.010021	-62.870489
750.197703	-63.616974
750.385479	-64.692919
750.573348	-66.177668
750.761312	-68.210800
750.949370	-71.052963
751.137523	-75.160205
751.325769	-79.796014
751.514110	-77.448594
751.702545	-73.159053
751.891075	-70.296855
752.079700	-68.415467
752.268419	-67.137006
752.457233	-66.252719
752.646142	-65.664864
752.835145	-65.331950
753.024244	-65.236622
753.213437	-65.377816
753.402726	-65.749697
753.592110	-66.347537
753.781589	-67.176955
753.971163	-68.266970
754.160833	-69.687201
754.350598	-71.544179
754.540459	-73.957802
754.730415	-77.050352
754.920467	-80.559724
755.110615	-82.209977
755.300858	-80.313698
755.491198	-77.806199
755.681633	-75.888507
755.872164	-74.566276
756.062792	-73.741221
756.253515	-73.330882
756.444335	-73.270260
756.635252	-73.448332
756.826264	-73.706392
757.017373	-73.880305
757.208579	-73.869413
757.399881	-73.672623
757.591280	-73.382396
757.782776	-73.103783
757.974368	-72.915362
758.166058	-72.831070
758.357844	-72.856272
758.549728	-73.031582
758.741708	-73.418888
758.933786	-74.095087
759.125961	-75.115556
759.318233	-76.526187
759.510603	-78.375574
759.703071	-80.832168
759.895635	-84.645625
760.088298	-93.404669
760.281058	-88.365104
760.473916	-79.933055
760.666872	-75.111394
760.859926	-71.735758
761.053078	-69.226375
761.246328	-67.345635
761.439676	-65.967129
761.633122	-65.005138
761.826667	-64.412638
762.020310	-64.149547
762.214052	-64.182331
762.407892	-64.486848
762.601831	-65.066217
762.795868	-65.960024
762.990004	-67.238621
763.184239	-69.055939
763.378573	-71.787277
763.573006	-76.080998
763.767538	-79.103938
763.962169	-74.047132
764.156900	-69.629598
764.351729	-66.692172
764.546658	-64.689908
764.741687	-63.303994
764.936815	-62.354178
765.132042	-61.745525
765.327370	-61.420040
765.522797	-61.323360
765.718324	-61.409141
765.913950	-61.666983
766.109677	-62.108559
766.305504	-62.730037
766.501431	-63.499563
766.697458	-64.324906
766.893586	-64.996278
767.089814	-65.254627
767.286142	-65.028914
767.482571	-64.499225
767.679100	-63.882636
767.875730	-63.312100
768.072461	-62.793652
768.269293	-62.235029
768.466225	-61.559241
768.663259	-60.796573
768.860393	-60.041139
769.057629	-59.370733
769.254966	-58.838140
769.452404	-58.469933
769.649944	-58.271636
769.847585	-58.241013
770.045328	-58.372239
770.243172	-58.661929
770.441118	-59.129907
770.639166	-59.828028
770.837315	-60.798988
771.035567	-61.976721
771.233920	-63.028085
771.432376	-63.252922
771.630934	-62.237857
771.829594	-60.545581
772.028356	-58.873893
772.227220	-57.502223
772.426188	-56.474134
772.625257	-55.763872
772.824430	-55.334737
773.023705	-55.156891
773.223083	-55.216008
773.422563	-55.510429
773.622147	-56.038362
773.821834	-56.790332
774.021624	-57.750540
774.221517	-58.847792
774.421513	-59.824851
774.621613	-60.193376
774.821816	-59.663436
775.022122	-58.536201
775.222532	-57.290368
775.423046	-56.203885
775.623664	-55.373638
775.824385	-54.809841
776.025211	-54.491116
776.226140	-54.380671
776.427173	-54.429790
776.628311	-54.591986
776.829553	-54.834518
777.030899	-55.140406
777.232350	-55.509513
777.433905	-55.937090
777.635564	-56.370756
777.837328	-56.700650
778.039197	-56.801578
778.241171	-56.612041
778.443250	-56.186059
778.645433	-55.649514
778.847722	-55.110357
779.050116	-54.607857
779.252615	-54.135532
779.455219	-53.679533
779.657929	-53.245358
779.860744	-52.866789
780.063665	-52.602992
780.266691	-52.521626
780.469823	-52.676688
780.673061	-53.089895
780.876405	-53.739431
781.079855	-54.550421
781.283410	-55.393425
781.487072	-56.064239
781.690840	-56.299714
781.894715	-55.962427
782.098695	-55.173606
782.302783	-54.159221
782.506976	-53.114921
782.711277	-52.184123
782.915684	-51.460951
783.120198	-51.003081
783.324818	-50.838577
783.529546	-50.963324
783.734381	-51.356840
783.939322	-51.990012
784.144372	-52.803379
784.349528	-53.680166
784.554792	-54.434402
784.760163	-54.827087
784.965642	-54.681303
785.171228	-54.044980
785.376922	-53.162280
785.582724	-52.280171
785.788634	-51.557709
785.994651	-51.069090
786.200777	-50.831172
786.407011	-50.833173
786.613353	-51.031529
786.819804	-51.344325
787.026363	-51.687587
787.233030	-52.006255
787.439806	-52.268860
787.646691	-52.451778
787.853684	-52.521973
788.060786	-52.444912
788.267997	-52.225465
788.475317	-51.916257
788.682746	-51.582908
788.890285	-51.291321
789.097932	-51.089450
789.305689	-50.972760
789.513555	-50.884337
789.721531	-50.768480
789.929617	-50.622700
790.137812	-50.507434
790.346117	-50.504514
790.554531	-50.669736
790.763056	-51.011015
790.971691	-51.475800
791.180436	-51.934787
791.389291	-52.206404
791.598256	-52.157026
791.807332	-51.809596
792.016518	-51.298794
792.225815	-50.742171
792.435222	-50.206825
792.644740	-49.742548
792.854369	-49.402435
793.064109	-49.243468
793.273960	-49.322188
793.483922	-49.677308
793.693995	-50.305544
793.904180	-51.115935
794.114475	-51.866990
794.324882	-52.219221
794.535401	-52.002394
794.746031	-51.380142
794.956774	-50.649378
795.167627	-50.010221
795.378593	-49.536483
795.589671	-49.231634
795.800861	-49.091316
796.012162	-49.130345
796.223577	-49.377212
796.435103	-49.827468
796.646742	-50.398723
796.858493	-50.912723
797.070357	-51.159577
797.282334	-51.043370
797.494423	-50.677415
797.706626	-50.267248
797.918941	-49.957533
798.131369	-49.781365
798.343911	-49.695647
798.556566	-49.644350
798.769334	-49.606209
798.982215	-49.585187
799.195210	-49.587265
799.408319	-49.602683
799.621541	-49.607525
799.834877	-49.592495
800.048327	-49.588855
800.261890	-49.663386
800.475568	-49.881308
800.689360	-50.244410
800.903266	-50.652003
801.117287	-50.903898
801.331422	-50.817657
801.545671	-50.392656
801.760036	-49.798314
801.974514	-49.218505
802.189108	-48.766960
802.403816	-48.492721
802.618640	-48.419423
802.833578	-48.570797
803.048632	-48.967180
803.263800	-49.598556
803.479085	-50.368966
803.694484	-51.037223
803.909999	-51.273864
804.125630	-50.940346
804.341376	-50.251397
804.557239	-49.531187
804.773217	-48.980520
804.989311	-48.660314
805.205521	-48.563549
805.421847	-48.671866
805.638290	-48.965352
805.854849	-49.403552
806.071524	-49.899699
806.288316	-50.311262
806.505225	-50.483778
806.722250	-50.351989
806.939393	-50.012136
807.156652	-49.655949
807.374028	-49.432702
807.591521	-49.386955
807.809132	-49.474632
808.026859	-49.597446
808.244705	-49.647322
808.462667	-49.566664
808.680748	-49.396540
808.898946	-49.240591
809.117261	-49.174358
809.335695	-49.218311
809.554246	-49.378058
809.772916	-49.663129
809.991704	-50.058488
810.210610	-50.495078
810.429634	-50.825758
810.648777	-50.835864
810.868039	-50.399576
811.087419	-49.666600
811.306918	-48.958795
811.526535	-48.521250
811.746272	-48.444852
811.966127	-48.721175
812.186102	-49.285456
812.406196	-50.004461
812.626409	-50.669034
812.846742	-51.069462
813.067194	-51.092301
813.287766	-50.734479
813.508457	-50.106548
813.729269	-49.433440
813.950200	-48.951324
814.171251	-48.808196
814.392422	-49.053174
814.613714	-49.634558
814.835126	-50.357495
815.056658	-50.878087
815.278311	-50.931923
815.500084	-50.604773
815.721978	-50.166102
815.943993	-49.780424
816.166128	-49.503477
816.388385	-49.380942
816.610762	-49.464622
816.833261	-49.782867
817.055881	-50.300611
817.278623	-50.845116
817.501486	-51.108690
817.724471	-50.921852
817.947577	-50.483453
818.170805	-50.110732
818.394155	-49.960210
818.617627	-50.025958
818.841221	-50.236602
819.064937	-50.515852
819.288775	-50.792671
819.512736	-50.978287
819.736819	-50.961547
819.961025	-50.679076
820.185354	-50.222617
820.409805	-49.833840
820.634379	-49.730919
820.859076	-50.008120
821.083897	-50.615850
821.308840	-51.356935
821.533907	-51.916642
821.759097	-52.041756
821.984411	-51.733267
822.209848	-51.195667
822.435409	-50.619196
822.661093	-50.152918
822.886902	-49.950604
823.112834	-50.138649
823.338891	-50.749569
823.565072	-51.657263
823.791377	-52.459742
824.017807	-52.601347
824.244361	-52.017625
824.471039	-51.226580
824.697843	-50.638824
824.924771	-50.374753
825.151824	-50.422521
825.379002	-50.742676
825.606306	-51.273601
825.833734	-51.885639
826.061288	-52.309127
826.288967	-52.230388
826.516772	-51.646554
826.744703	-50.929517
826.972759	-50.449102
827.200941	-50.391231
827.429249	-50.772111
827.657683	-51.478718
827.886243	-52.246662
828.114930	-52.685460
828.343743	-52.559869
828.572682	-52.055942
828.801748	-51.489122
829.030941	-51.054394
829.260260	-50.862686
829.489706	-50.975472
829.719280	-51.382828
829.948980	-51.985797
830.178808	-52.515866
830.408763	-52.591936
830.638845	-52.133541
830.869055	-51.506978
831.099393	-51.079393
831.329858	-50.992595
831.560451	-51.214811
831.791173	-51.602288
832.022022	-51.937022
832.252999	-52.055242
832.484105	-51.931947
832.715339	-51.623096
832.946702	-51.230817
833.178193	-50.927112
833.409813	-50.888467
833.641561	-51.194626
833.873439	-51.744517
834.105445	-52.214454
834.337581	-52.188825
834.569846	-51.628487
834.802241	-50.928329
835.034764	-50.424430
835.267418	-50.230114
835.500201	-50.375898
835.733114	-50.892601
835.966157	-51.749921
836.199329	-52.680501
836.432632	-53.018266
836.666065	-52.292472
836.899629	-51.034038
837.133323	-49.971640
837.367147	-49.395441
837.601102	-49.305958
837.835188	-49.621116
838.069405	-50.264135
838.303752	-51.125262
838.538231	-51.891442
838.772841	-52.028160
839.007582	-51.334195
839.242455	-50.286091
839.477459	-49.459159
839.712595	-49.086256
839.947863	-49.112546
840.183263	-49.342312
840.418794	-49.595647
840.654458	-49.778535
840.890254	-49.889864
841.126182	-49.935557
841.362242	-49.880865
841.598435	-49.730183
841.834761	-49.597966
842.071220	-49.555412
842.307811	-49.479727
842.544536	-49.161479
842.781393	-48.608484
843.018384	-48.067967
843.255508	-47.790836
843.492765	-47.902708
843.730156	-48.390428
843.967681	-49.082667
844.205339	-49.669030
844.443132	-49.803293
844.681058	-49.298997
844.919118	-48.350991
845.157313	-47.387158
845.395642	-46.708339
845.634105	-46.453572
845.872703	-46.665634
846.111436	-47.270410
846.350303	-48.027743
846.589306	-48.544342
846.828443	-48.498423
847.067716	-47.958187
847.307124	-47.263872
847.546667	-46.693461
847.786345	-46.369454
848.026160	-46.298035
848.266110	-46.431514
848.506195	-46.644173
848.746417	-46.754198
848.986775	-46.676561
849.227269	-46.499444
849.467899	-46.353970
849.708666	-46.324811
849.949569	-46.390047
850.190609	-46.417280
850.431785	-46.269082
850.673099	-45.931836
850.914549	-45.499663
851.156137	-45.103010
851.397861	-44.876463
851.639723	-44.914144
851.881723	-45.216068
852.123860	-45.664442
852.366135	-45.997512
852.608547	-45.926943
852.851098	-45.449745
853.093786	-44.831418
853.336613	-44.309488
853.579578	-44.009285
853.822681	-43.985960
854.065923	-44.212813
854.309304	-44.574067
854.552823	-44.856494
854.796481	-44.838193
855.040278	-44.513799
855.284215	-44.109448
855.528290	-43.828485
855.772505	-43.712272
856.016859	-43.702434
856.261353	-43.721951
856.505987	-43.706128
856.750760	-43.613832
856.995673	-43.442561
857.240727	-43.248349
857.485920	-43.148229
857.731254	-43.234549
857.976729	-43.457341
858.222343	-43.607298
858.468099	-43.475064
858.713995	-43.069246
858.960032	-42.593499
859.206211	-42.235811
859.452530	-42.078705
859.698991	-42.138224
859.945593	-42.403004
860.192336	-42.775031
860.439222	-43.012347
860.686248	-42.887258
860.933417	-42.448483
861.180728	-41.963463
861.428181	-41.645651
861.675776	-41.550847
861.923514	-41.622118
862.171394	-41.766993
862.419417	-41.881368
862.667582	-41.860369
862.915890	-41.679093
863.164342	-41.439596
863.412936	-41.286174
863.661674	-41.286753
863.910555	-41.384712
864.159579	-41.435714
864.408747	-41.335014
864.658059	-41.100064
864.907515	-40.820305
865.157114	-40.604881
865.406858	-40.550064
865.656746	-40.681378
865.906778	-40.917302
866.156955	-41.071033
866.407277	-40.977066
866.657743	-40.657719
866.908354	-40.295004
867.159110	-40.044968
867.410011	-39.970893
867.661057	-40.072458
867.912249	-40.277945
868.163586	-40.438566
868.415069	-40.400635
868.666697	-40.152128
868.918472	-39.849539
869.170392	-39.662756
869.422458	-39.646800
869.674671	-39.738791
869.927030	-39.821217
870.179536	-39.792353
870.432188	-39.631042
870.684987	-39.409983
870.937933	-39.242047
871.191026	-39.213868
871.444266	-39.336221
871.697653	-39.505067
871.951188	-39.540591
872.204870	-39.342234
872.458700	-38.995858
872.712677	-38.689443
872.966803	-38.574247
873.221076	-38.690354
873.475498	-38.963083
873.730068	-39.226259
873.984787	-39.280408
874.239654	-39.037198
874.494669	-38.618985
874.749834	-38.245766
875.005147	-38.079793
875.260610	-38.163780
875.516222	-38.412737
875.771983	-38.652712
876.027894	-38.729499
876.283954	-38.609300
876.540164	-38.380861
876.796524	-38.169975
877.053033	-38.047732
877.309693	-38.006249
877.566503	-37.983589
877.823464	-37.912647
878.080575	-37.802957
878.337837	-37.740328
878.595249	-37.796072
878.852813	-37.961435
879.110528	-38.131386
879.368393	-38.142797
879.626410	-37.898258
879.884579	-37.481146
880.142899	-37.095649
880.401371	-36.925031
880.659994	-37.041126
880.918770	-37.382303
881.177698	-37.758469
881.436778	-37.921670
881.696010	-37.732841
881.955395	-37.307572
882.214933	-36.898176
882.474623	-36.695824
882.734467	-36.751445
882.994463	-36.969476
883.254613	-37.168822
883.514916	-37.204699
883.775372	-37.072038
884.035982	-36.880123
884.296746	-36.743023
884.557664	-36.710843
884.818735	-36.751904
885.079961	-36.773362
885.341341	-36.694642
885.602876	-36.541977
885.864565	-36.427326
886.126409	-36.432883
886.388407	-36.539180
886.650561	-36.630498
886.912870	-36.582211
887.175334	-36.378769
887.437953	-36.130158
887.700728	-35.976199
887.963658	-36.004454
888.226745	-36.200818
888.489987	-36.426529
888.753385	-36.471019
889.016940	-36.237008
889.280651	-35.860949
889.544518	-35.576380
889.808543	-35.520551
890.072723	-35.689391
890.337061	-35.961681
890.601556	-36.144597
890.866208	-36.088589
891.131017	-35.824499
891.395984	-35.534142
891.661109	-35.386316
891.926391	-35.415094
892.191831	-35.525685
892.457429	-35.583183
892.723186	-35.524282
892.989100	-35.398762
893.255173	-35.314494
893.521405	-35.342011
893.787796	-35.450640
894.054345	-35.509404
894.321053	-35.394157
894.587921	-35.135769
894.854948	-34.892581
895.122134	-34.807126
895.389480	-34.924944
895.656986	-35.178393
895.924651	-35.382643
896.192477	-35.346667
896.460463	-35.069615
896.728609	-34.759740
896.996915	-34.607964
897.265382	-34.656990
897.534010	-34.816651
897.802799	-34.941454
898.071749	-34.910803
898.340860	-34.733707
898.610132	-34.544842
898.879566	-34.488018
899.149162	-34.583852
899.418919	-34.702526
899.688838	-34.678438
899.958919	-34.490836
900.229162	-34.267296
900.499568	-34.150597
900.770136	-34.196804
901.040867	-34.358690
901.311761	-34.495173
901.582817	-34.457543
901.854037	-34.246460
902.125420	-34.032433
902.396966	-33.973886
902.668676	-34.085384
902.940550	-34.238505
903.212587	-34.267036
903.484788	-34.115250
903.757153	-33.887532
904.029683	-33.746583
904.302377	-33.795804
904.575236	-33.994397
904.848259	-34.158710
905.121447	-34.103348
905.394800	-33.844748
905.668319	-33.577878
905.942002	-33.476933
906.215852	-33.581565
906.489866	-33.793130
906.764047	-33.919726
907.038393	-33.831821
907.312906	-33.603813
907.587584	-33.421158
907.862429	-33.396443
908.137441	-33.500702
908.412619	-33.605638
908.687964	-33.589256
908.963476	-33.450297
909.239155	-33.312540
909.515002	-33.303854
909.791015	-33.420510
910.067197	-33.521375
910.343546	-33.462202
910.620063	-33.259023
910.896748	-33.060076
911.173601	-33.005241
911.450623	-33.135518
911.727813	-33.349202
912.005171	-33.430337
912.282699	-33.254387
912.560395	-32.950296
912.838261	-32.749774
913.116296	-32.765026
913.394500	-32.942847
913.672874	-33.122888
913.951418	-33.137895
914.230131	-32.960051
914.509015	-32.739541
914.788068	-32.646174
915.067292	-32.712561
915.346687	-32.818209
915.626252	-32.817466
915.905988	-32.694784
916.185895	-32.559516
916.465973	-32.519458
916.746223	-32.591571
917.026644	-32.677247
917.307236	-32.634278
917.588000	-32.432944
917.868937	-32.212883
918.150045	-32.134591
918.431325	-32.228858
918.712778	-32.385196
918.994404	-32.435186
919.276202	-32.297321
919.558173	-32.065544
919.840317	-31.913858
920.122634	-31.935165
920.405125	-32.065457
920.687789	-32.147047
920.970627	-32.086911
921.253639	-31.937502
921.536824	-31.829680
921.820184	-31.850577
922.103718	-31.964314
922.387427	-32.026494
922.671310	-31.936677
922.955368	-31.770616
923.239601	-31.678245
923.524009	-31.723572
923.808592	-31.853074
924.093351	-31.926346
924.378285	-31.825858
924.663396	-31.605365
924.948682	-31.446696
925.234144	-31.464331
925.519782	-31.606340
925.805597	-31.719791
926.091589	-31.683679
926.377757	-31.508608
926.664102	-31.330297
926.950624	-31.276723
927.237323	-31.346407
927.524200	-31.422019
927.811255	-31.405700
928.098487	-31.322438
928.385897	-31.262005
928.673485	-31.276032
928.961251	-31.329662
929.249196	-31.319173
929.537319	-31.197260
929.825621	-31.052777
930.114102	-31.019325
930.402762	-31.134993
930.691601	-31.294800
930.980620	-31.329434
931.269818	-31.166098
931.559196	-30.922877
931.848753	-30.789047
932.138491	-30.847568
932.428409	-31.017698
932.718508	-31.115990
933.008787	-31.032420
933.299246	-30.841335
933.589887	-30.701490
933.880709	-30.698820
934.171712	-30.784319
934.462896	-30.832850
934.754262	-30.776091
935.045810	-30.680323
935.337539	-30.653168
935.629451	-30.707762
935.921545	-30.760524
936.213822	-30.724157
936.506281	-30.610789
936.798922	-30.528810
937.091747	-30.571485
937.384755	-30.704058
937.677946	-30.773567
937.971321	-30.678294
938.264879	-30.494271
938.558621	-30.374709
938.852547	-30.407002
939.146657	-30.539761
939.440952	-30.605235
939.735431	-30.494670
940.030095	-30.300855
940.324943	-30.184325
940.619977	-30.194507
940.915196	-30.258782
941.210600	-30.254511
941.506189	-30.131843
941.801965	-29.991515
942.097926	-29.957130
942.394074	-30.016252
942.690407	-30.043367
942.986927	-29.959522
943.283634	-29.812381
943.580527	-29.723199
943.877608	-29.772760
944.174875	-29.891258
944.472330	-29.914117
944.769972	-29.789209
945.067802	-29.646832
945.365820	-29.622735
945.664026	-29.734904
945.962420	-29.860880
946.261002	-29.838310
946.559773	-29.672103
946.858733	-29.543059
947.157881	-29.579854
947.457219	-29.732121
947.756746	-29.829711
948.056462	-29.750921
948.356368	-29.569358
948.656464	-29.467017
948.956749	-29.518505
949.257225	-29.622814
949.557891	-29.627217
949.858748	-29.508763
950.159796	-29.385369
950.461034	-29.366488
950.762463	-29.424178
951.064084	-29.423962
951.365896	-29.304053
951.667900	-29.169790
951.970095	-29.153434
952.272483	-29.248141
952.575063	-29.314697
952.877835	-29.226328
953.180799	-29.039753
953.483956	-28.942921
953.787307	-29.035862
954.090850	-29.207195
954.394586	-29.247263
954.698516	-29.100522
955.002640	-28.924798
955.306957	-28.900683
955.611469	-29.050116
955.916174	-29.199729
956.221074	-29.169094
956.526169	-29.016032
956.831458	-28.926038
957.136942	-28.973807
957.442622	-29.076121
957.748496	-29.086400
958.054567	-28.977388
958.360833	-28.892779
958.667294	-28.935660
958.973952	-29.022983
959.280806	-29.005748
959.587857	-28.869677
959.895104	-28.753125
960.202548	-28.782001
960.510189	-28.911500
960.818027	-28.947303
961.126062	-28.805849
961.434295	-28.634893
961.742726	-28.610597
962.051355	-28.738353
962.360182	-28.841434
962.669207	-28.752060
962.978431	-28.555126
963.287854	-28.463490
963.597475	-28.547276
963.907296	-28.677986
964.217315	-28.674422
964.527535	-28.524328
964.837954	-28.407975
965.148573	-28.443107
965.459392	-28.539585
965.770411	-28.546996
966.081630	-28.452022
966.393051	-28.380447
966.704672	-28.426531
967.016494	-28.519095
967.328517	-28.487623
967.640742	-28.341590
967.953169	-28.258441
968.265797	-28.337156
968.578627	-28.475494
968.891660	-28.476384
969.204895	-28.289180
969.518332	-28.117171
969.831972	-28.140792
970.145816	-28.294687
970.459862	-28.361599
970.774112	-28.234323
971.088565	-28.055346
971.403223	-28.010240
971.718084	-28.103889
972.033149	-28.158664
972.348419	-28.080668
972.663893	-27.967603
972.979572	-27.961571
973.295456	-28.034584
973.611546	-28.037043
973.927840	-27.905401
974.244340	-27.791244
974.561046	-27.825789
974.877958	-27.959419
975.195076	-27.993596
975.512401	-27.847477
975.829932	-27.684432
976.147670	-27.689267
976.465615	-27.827466
976.783767	-27.904518
977.102126	-27.817289
977.420693	-27.685341
977.739468	-27.674554
978.058451	-27.769751
978.377642	-27.811556
978.697041	-27.731379
979.016649	-27.657253
979.336466	-27.691337
979.656492	-27.777646
979.976727	-27.760766
980.297171	-27.632909
980.617825	-27.553338
980.938689	-27.630201
981.259763	-27.744213
981.581048	-27.722703
981.902542	-27.574231
982.224248	-27.488013
982.546164	-27.558657
982.868291	-27.670245
983.190630	-27.644921
983.513180	-27.518744
983.835942	-27.467072
984.158916	-27.548209
984.482101	-27.620757
984.805500	-27.548043
985.129110	-27.417985
985.452934	-27.406170
985.776970	-27.515939
986.101220	-27.568886
986.425683	-27.455856
986.750359	-27.316078
987.075250	-27.330826
987.400354	-27.456846
987.725673	-27.495202
988.051206	-27.371882
988.376954	-27.249826
988.702916	-27.281359
989.029094	-27.393812
989.355487	-27.392296
989.682095	-27.267911
990.008919	-27.190162
990.335959	-27.241300
990.663216	-27.302286
990.990688	-27.230704
991.318377	-27.101411
991.646283	-27.090172
991.974406	-27.189646
992.302746	-27.214964
992.631304	-27.080548
992.960079	-26.948409
993.289072	-26.986491
993.618283	-27.120698
993.947713	-27.128075
994.277361	-26.972621
994.607227	-26.860107
994.937313	-26.919462
995.267618	-27.027207
995.598142	-26.991670
995.928886	-26.850973
996.259849	-26.794348
996.591033	-26.862255
996.922437	-26.899473
997.254061	-26.808967
997.585906	-26.716693
997.917972	-26.749299
998.250260	-26.821941
998.582768	-26.768661
998.915498	-26.624783
999.248450	-26.586473
999.581624	-26.696926
999.915020	-26.754440
1000.248639	-26.616563
1000.582480	-26.447996
1000.916545	-26.459843
1001.250832	-26.602150
1001.585343	-26.623943
1001.920077	-26.454438
1002.255035	-26.323694
1002.590218	-26.384873
1002.925624	-26.504581
1003.261255	-26.475702
1003.597111	-26.341019
1003.933192	-26.304059
1004.269497	-26.388467
1004.606029	-26.413331
1004.942785	-26.312842
1005.279768	-26.249245
1005.616977	-26.323544
1005.954412	-26.395275
1006.292074	-26.301997
1006.629962	-26.161280
1006.968077	-26.187597
1007.306420	-26.339965
1007.644990	-26.362510
1007.983787	-26.194402
1008.322813	-26.085943
1008.662067	-26.189236
1009.001549	-26.326228
1009.341259	-26.257930
1009.681199	-26.081944
1010.021367	-26.054737
1010.361765	-26.174151
1010.702392	-26.201248
1011.043250	-26.062573
1011.384337	-25.968937
1011.725654	-26.035199
1012.067202	-26.095655
1012.408980	-25.992298
1012.750989	-25.868317
1013.093230	-25.906007
1013.435702	-26.006155
1013.778405	-25.939524
1014.121341	-25.755528
1014.464508	-25.710175
1014.807908	-25.830295
1015.151540	-25.859761
1015.495405	-25.685318
1015.839503	-25.540795
1016.183835	-25.598890
1016.528400	-25.696104
1016.873198	-25.605171
1017.218231	-25.436918
1017.563498	-25.426414
1017.908999	-25.524785
1018.254735	-25.487090
1018.600707	-25.312364
1018.946913	-25.247950
1019.293354	-25.345140
1019.640032	-25.364869
1019.986945	-25.196666
1020.334094	-25.069782
1020.681480	-25.143595
1021.029102	-25.235587
1021.376961	-25.126267
1021.725058	-24.962434
1022.073391	-24.986843
1022.421962	-25.115684
1022.770772	-25.074378
1023.119819	-24.891895
1023.469104	-24.850296
1023.818628	-24.982148
1024.168391	-25.015167
1024.518393	-24.849852
1024.868634	-24.745210
1025.219115	-24.845328
1025.569836	-24.938243
1025.920796	-24.829687
1026.271997	-24.699352
1026.623438	-24.753179
1026.975121	-24.857298
1027.327044	-24.783819
1027.679208	-24.644350
1028.031614	-24.671949
1028.384262	-24.787943
1028.737152	-24.734826
1029.090284	-24.567923
1029.443659	-24.560313
1029.797276	-24.703496
1030.151137	-24.709928
1030.505240	-24.535388
1030.859587	-24.465710
1031.214178	-24.588563
1031.569013	-24.642734
1031.924093	-24.491326
1032.279417	-24.377348
1032.634985	-24.453090
1032.990799	-24.516983
1033.346858	-24.392460
1033.703162	-24.271269
1034.059712	-24.325732
1034.416509	-24.391382
1034.773551	-24.276339
1035.130841	-24.144322
1035.488377	-24.192257
1035.846160	-24.270446
1036.204190	-24.158906
1036.562468	-23.995009
1036.920994	-24.015307
1037.279768	-24.108220
1037.638790	-24.023121
1037.998061	-23.852284
1038.357581	-23.845603
1038.717350	-23.942361
1039.077368	-23.883504
1039.437636	-23.719526
1039.798154	-23.693912
1040.158922	-23.779310
1040.519940	-23.726487
1040.881209	-23.563708
1041.242729	-23.532924
1041.604501	-23.617908
1041.966524	-23.577693
1042.328798	-23.415891
1042.691325	-23.383627
1043.054103	-23.474870
1043.417135	-23.454188
1043.780419	-23.301314
1044.143956	-23.260879
1044.507746	-23.344112
1044.871791	-23.321516
1045.236088	-23.179150
1045.600641	-23.142159
1045.965447	-23.229020
1046.330508	-23.204731
1046.695824	-23.070897
1047.061395	-23.046323
1047.427222	-23.142630
1047.793304	-23.119777
1048.159642	-22.980252
1048.526237	-22.955824
1048.893088	-23.045785
1049.260196	-23.021083
1049.627561	-22.884395
1049.995183	-22.870652
1050.363063	-22.957108
1050.731201	-22.924649
1051.099597	-22.794675
1051.468251	-22.797182
1051.837164	-22.884496
1052.206336	-22.830962
1052.575767	-22.694567
1052.945458	-22.701210
1053.315409	-22.784983
1053.685619	-22.715296
1054.056090	-22.582589
1054.426821	-22.602373
1054.797814	-22.683965
1055.169067	-22.603242
1055.540582	-22.475694
1055.912359	-22.504298
1056.284398	-22.568532
1056.656698	-22.468895
1057.029262	-22.347726
1057.402088	-22.384607
1057.775177	-22.427455
1058.148530	-22.313907
1058.522146	-22.212996
1058.896027	-22.266097
1059.270171	-22.288193
1059.644580	-22.157564
1060.019254	-22.072919
1060.394193	-22.130775
1060.769397	-22.125796
1061.144867	-21.985182
1061.520602	-21.925882
1061.896604	-21.991622
1062.272872	-21.966868
1062.649407	-21.832519
1063.026210	-21.804612
1063.403279	-21.868451
1063.780616	-21.814641
1064.158221	-21.687867
1064.536094	-21.687797
1064.914235	-21.740564
1065.292645	-21.660783
1065.671325	-21.555722
1066.050273	-21.589183
1066.429491	-21.629427
1066.808979	-21.531411
1067.188738	-21.452343
1067.568766	-21.504793
1067.949066	-21.516834
1068.329636	-21.407041
1068.710478	-21.363895
1069.091592	-21.430985
1069.472977	-21.415226
1069.854635	-21.311038
1070.236565	-21.310816
1070.618768	-21.380267
1071.001243	-21.330889
1071.383993	-21.235183
1071.767016	-21.262289
1072.150313	-21.310729
1072.533884	-21.235993
1072.917730	-21.168790
1073.301850	-21.215417
1073.686246	-21.228001
1074.070917	-21.140994
1074.455864	-21.112147
1074.841087	-21.155947
1075.226586	-21.114432
1075.612362	-21.025705
1075.998415	-21.038068
1076.384745	-21.068270
1076.771353	-20.987074
1077.158238	-20.920505
1077.545401	-20.963845
1077.932843	-20.962174
1078.320564	-20.857135
1078.708564	-20.820079
1079.096842	-20.860607
1079.485401	-20.809588
1079.874240	-20.710054
1080.263358	-20.715740
1080.652757	-20.732403
1081.042438	-20.634023
1081.432399	-20.559786
1081.822641	-20.593650
1082.213166	-20.565753
1082.603972	-20.437828
1082.995061	-20.397051
1083.386433	-20.435563
1083.778087	-20.373403
1084.170025	-20.265213
1084.562246	-20.262499
1084.954751	-20.273440
1085.347541	-20.189520
1085.740615	-20.130938
1086.133973	-20.147760
1086.527617	-20.110163
1086.921546	-20.032095
1087.315761	-20.037763
1087.710262	-20.052607
1088.105050	-19.974613
1088.500124	-19.927711
1088.895485	-19.969766
1089.291134	-19.945907
1089.687070	-19.851893
1090.083294	-19.851810
1090.479806	-19.892698
1090.876607	-19.826852
1091.273696	-19.762969
1091.671075	-19.805223
1092.068744	-19.805285
1092.466702	-19.716077
1092.864950	-19.707082
1093.263489	-19.758674
1093.662319	-19.709799
1094.061440	-19.646638
1094.460852	-19.695059
1094.860555	-19.719318
1095.260551	-19.645649
1095.660840	-19.636149
1096.061421	-19.695110
1096.462295	-19.665162
1096.863462	-19.609764
1097.264923	-19.648337
1097.666678	-19.664970
1098.068727	-19.599602
1098.471071	-19.592011
1098.873710	-19.624569
1099.276644	-19.565774
1099.679874	-19.505272
1100.083400	-19.530949
1100.487222	-19.505630
1100.891340	-19.409343
1101.295756	-19.393493
1101.700468	-19.404000
1102.105478	-19.314200
1102.510787	-19.243377
1102.916393	-19.259533
1103.322298	-19.214142
1103.728502	-19.117178
1104.135005	-19.112899
1104.541807	-19.117768
1104.948909	-19.031049
1105.356312	-18.989316
1105.764015	-19.020911
1106.172019	-18.974810
1106.580324	-18.902124
1106.988931	-18.925995
1107.397840	-18.929684
1107.807051	-18.852324
1108.216564	-18.840015
1108.626380	-18.870085
1109.036500	-18.808517
1109.446923	-18.752355
1109.857649	-18.777016
1110.268680	-18.743981
1110.680016	-18.659327
1111.091657	-18.657116
1111.503602	-18.652046
1111.915854	-18.560394
1112.328411	-18.517140
1112.741275	-18.527014
1113.154445	-18.456334
1113.567922	-18.383476
1113.981706	-18.395366
1114.395798	-18.364553
1114.810198	-18.284034
1115.224906	-18.284212
1115.639923	-18.291614
1116.055249	-18.222514
1116.470884	-18.206321
1116.886829	-18.247071
1117.303084	-18.211622
1117.719650	-18.178741
1118.136526	-18.230043
1118.553713	-18.232094
1118.971212	-18.185613
1119.389022	-18.222729
1119.807145	-18.255481
1120.225580	-18.207055
1120.644328	-18.214961
1121.063389	-18.261057
1121.482763	-18.213481
1121.902452	-18.175841
1122.322454	-18.209383
1122.742771	-18.170016
1123.163404	-18.094384
1123.584351	-18.100184
1124.005614	-18.070424
1124.427193	-17.967631
1124.849089	-17.933850
1125.271301	-17.910575
1125.693830	-17.802196
1126.116677	-17.737069
1126.539842	-17.723333
1126.963324	-17.631450
1127.387126	-17.545666
1127.811246	-17.535060
1128.235685	-17.471388
1128.660444	-17.381286
1129.085522	-17.375641
1129.510922	-17.351980
1129.936641	-17.274070
1130.362682	-17.267787
1130.789044	-17.277752
1131.215728	-17.220879
1131.642734	-17.212256
1132.070063	-17.249241
1132.497714	-17.220726
1132.925689	-17.210991
1133.353987	-17.262543
1133.782610	-17.256124
1134.211556	-17.238838
1134.640827	-17.291680
1135.070424	-17.303235
1135.500345	-17.278617
1135.930593	-17.322546
1136.361166	-17.341925
1136.792067	-17.301521
1137.223294	-17.321366
1137.654848	-17.339790
1138.086730	-17.286351
1138.518940	-17.279663
1138.951479	-17.292373
1139.384346	-17.227202
1139.817543	-17.188942
1140.251069	-17.188209
1140.684925	-17.117292
1141.119111	-17.058025
1141.553628	-17.049553
1141.988475	-16.980437
1142.423655	-16.906784
1142.859166	-16.890871
1143.295009	-16.826447
1143.731185	-16.746242
1144.167694	-16.731292
1144.604536	-16.682863
1145.041711	-16.604265
1145.479221	-16.588316
1145.917065	-16.553597
1146.355245	-16.482439
1146.793759	-16.472162
1147.232609	-16.456331
1147.671795	-16.397044
1148.111317	-16.392623
1148.551177	-16.391966
1148.991373	-16.340750
1149.431907	-16.338402
1149.872779	-16.353274
1150.313989	-16.315602
1150.755538	-16.315360
1151.197426	-16.336533
1151.639653	-16.304085
1152.082220	-16.301548
1152.525128	-16.326397
1152.968376	-16.299876
1153.411966	-16.295664
1153.855897	-16.318715
1154.300169	-16.289890
1154.744784	-16.276889
1155.189742	-16.294867
1155.635042	-16.266376
1156.080687	-16.248068
1156.526674	-16.258452
1156.973007	-16.223265
1157.419683	-16.194769
1157.866705	-16.195576
1158.314072	-16.156303
1158.761786	-16.122802
1159.209845	-16.117101
1159.658251	-16.072536
1160.107004	-16.030580
1160.556104	-16.016870
1161.005553	-15.972858
1161.455349	-15.932646
1161.905494	-15.916226
1162.355989	-15.870483
1162.806832	-15.827827
1163.258026	-15.809561
1163.709570	-15.767737
1164.161464	-15.728739
1164.613710	-15.712025
1165.066307	-15.672924
1165.519256	-15.634957
1165.972558	-15.619065
1166.426212	-15.585223
1166.880219	-15.554986
1167.334580	-15.543796
1167.789295	-15.512863
1168.244364	-15.485996
1168.699788	-15.475975
1169.155567	-15.450634
1169.611702	-15.431943
1170.068193	-15.422204
1170.525041	-15.400513
1170.982245	-15.385350
1171.439807	-15.372450
1171.897726	-15.357633
1172.356004	-15.347053
1172.814640	-15.333813
1173.273635	-15.325466
1173.732989	-15.310550
1174.192703	-15.297553
1174.652778	-15.297188
1175.113213	-15.277544
1175.574009	-15.269967
1176.035167	-15.269907
1176.496687	-15.242663
1176.958569	-15.243529
1177.420814	-15.237791
1177.883422	-15.213149
1178.346394	-15.223359
1178.809730	-15.202538
1179.273430	-15.187629
1179.737496	-15.198797
1180.201927	-15.165810
1180.666723	-15.170595
1181.131886	-15.167608
1181.597416	-15.129900
1182.063312	-15.150874
1182.529576	-15.121531
1182.996209	-15.099829
1183.463209	-15.125252
1183.930579	-15.067958
1184.398317	-15.076673
1184.866426	-15.080619
1185.334904	-15.013190
1185.803754	-15.058035
1186.272974	-15.016171
1186.742566	-14.967889
1187.212529	-15.024810
1187.682865	-14.930142
1188.153574	-14.936387
1188.624656	-14.963070
1189.096112	-14.843135
1189.567942	-14.912410
1190.040147	-14.861860
1190.512726	-14.775842
1190.985681	-14.875581
1191.459012	-14.739356
1191.932720	-14.740349
1192.406804	-14.794475
1192.881265	-14.622639
1193.356104	-14.719682
1193.831322	-14.665698
1194.306918	-14.545932
1194.782893	-14.676434
1195.259248	-14.516000
1195.735982	-14.514332
1196.213097	-14.584678
1196.690593	-14.395037
1197.168471	-14.499055
1197.646730	-14.447785
1198.125371	-14.325856
1198.604395	-14.456296
1199.083803	-14.307384
1199.563594	-14.299206
1200.043769	-14.365241
1200.524329	-14.201346
1201.005273	-14.280663
1201.486604	-14.248173
1201.968320	-14.144371
1202.450422	-14.239502
1202.932912	-14.136313
1203.415789	-14.116580
1203.899054	-14.169586
1204.382707	-14.052105
1204.866748	-14.092744
1205.351179	-14.082674
1205.836000	-13.996859
1206.321211	-14.060166
1206.806812	-13.999813
1207.292805	-13.965884
1207.779189	-14.013321
1208.265965	-13.930261
1208.753134	-13.947747
1209.240696	-13.953278
1209.728651	-13.882034
1210.217000	-13.927117
1210.705744	-13.885564
1211.194883	-13.857857
1211.684417	-13.895087
1212.174347	-13.830050
1212.664673	-13.848186
1213.155396	-13.846911
1213.646516	-13.798433
1214.138034	-13.834240
1214.629951	-13.795251
1215.122266	-13.783720
1215.614980	-13.799838
1216.108095	-13.757051
1216.601609	-13.770863
1217.095524	-13.755234
1217.589841	-13.735303
1218.084559	-13.742973
1218.579679	-13.716297
1219.075202	-13.715229
1219.571128	-13.700277
1220.067458	-13.683670
1220.564191	-13.677286
1221.061330	-13.655229
1221.558874	-13.648222
1222.056823	-13.625169
1222.555178	-13.614106
1223.053940	-13.597221
1223.553109	-13.572719
1224.052686	-13.568198
1224.552671	-13.531616
1225.053065	-13.521502
1225.553867	-13.502839
1226.055079	-13.465491
1226.556702	-13.465602
1227.058735	-13.424703
1227.561179	-13.407554
1228.064035	-13.396237
1228.567303	-13.352382
1229.070983	-13.351268
1229.575077	-13.314634
1230.079585	-13.290269
1230.584506	-13.282605
1231.089842	-13.237460
1231.595594	-13.233259
1232.101761	-13.203839
1232.608345	-13.176123
1233.115345	-13.172357
1233.622762	-13.131577
1234.130597	-13.124127
1234.638851	-13.101875
1235.147523	-13.072601
1235.656615	-13.068403
1236.166126	-13.033492
1236.676058	-13.023646
1237.186411	-13.007085
1237.697185	-12.981134
1238.208381	-12.977780
1238.719999	-12.949602
1239.232040	-12.940358
1239.744505	-12.927270
1240.257394	-12.903490
1240.770708	-12.900946
1241.284446	-12.878199
1241.798610	-12.869905
1242.313201	-12.861812
1242.828218	-12.842908
1243.343662	-12.842556
1243.859534	-12.825669
1244.375834	-12.818585
1244.892563	-12.813247
1245.409721	-12.797064
1245.927309	-12.797428
1246.445327	-12.785515
1246.963777	-12.780274
1247.482657	-12.778999
1248.001970	-12.767388
1248.521716	-12.769323
1249.041894	-12.761917
1249.562506	-12.757110
1250.083553	-12.757324
1250.605034	-12.748620
1251.126950	-12.751241
1251.649302	-12.747816
1252.172091	-12.744590
1252.695316	-12.747713
1253.218979	-12.741885
1253.743079	-12.744011
1254.267619	-12.741797
1254.792597	-12.737117
1255.318015	-12.740328
1255.843874	-12.734850
1256.370173	-12.735923
1256.896913	-12.734831
1257.424095	-12.730164
1257.951720	-12.732955
1258.479787	-12.724869
1259.008298	-12.723864
1259.537254	-12.720001
1260.066654	-12.712024
1260.596499	-12.713138
1261.126790	-12.702188
1261.657527	-12.700698
1262.188711	-12.694079
1262.720342	-12.683993
1263.252422	-12.681453
1263.784950	-12.665746
1264.317928	-12.662417
1264.851355	-12.649665
1265.385232	-12.639301
1265.919560	-12.633590
1266.454340	-12.615763
1266.989572	-12.612538
1267.525256	-12.593410
1268.061394	-12.583257
1268.597985	-12.571117
1269.135031	-12.551620
1269.672531	-12.546045
1270.210487	-12.523154
1270.748899	-12.516090
1271.287768	-12.497468
1271.827094	-12.481222
1272.366877	-12.470078
1272.907119	-12.444565
1273.447820	-12.438050
1273.988981	-12.412153
1274.530601	-12.401394
1275.072683	-12.383820
1275.615226	-12.362604
1276.158230	-12.353792
1276.701697	-12.324856
1277.245627	-12.317143
1277.790021	-12.290922
1278.334879	-12.276874
1278.880202	-12.260478
1279.425991	-12.237038
1279.972245	-12.229395
1280.518966	-12.200150
1281.066155	-12.193020
1281.613811	-12.166696
1282.161936	-12.152719
1282.710529	-12.136984
1283.259593	-12.113849
1283.809126	-12.108132
1284.359131	-12.079543
1284.909607	-12.075900
1285.460555	-12.050174
1286.011976	-12.039317
1286.563870	-12.024923
1287.116237	-12.004614
1287.669080	-12.001461
1288.222397	-11.975620
1288.776191	-11.976613
1289.330460	-11.952361
1289.885207	-11.947948
1290.440431	-11.933473
1290.996133	-11.919439
1291.552314	-11.917765
1292.108975	-11.895682
1292.666115	-11.901998
1293.223737	-11.878560
1293.781839	-11.881820
1294.340424	-11.866273
1294.899491	-11.860073
1295.459041	-11.857343
1296.019075	-11.841257
1296.579593	-11.849649
1297.140597	-11.828588
1297.702086	-11.838258
1298.264061	-11.820132
1298.826524	-11.823944
1299.389474	-11.815829
1299.952912	-11.809324
1300.516839	-11.814837
1301.081255	-11.799104
1301.646162	-11.811911
1302.211559	-11.792425
1302.777448	-11.805509
1303.343829	-11.790787
1303.910702	-11.796597
1304.478069	-11.794137
1305.045930	-11.789820
1305.614285	-11.798440
1306.183136	-11.784314
1306.752483	-11.800606
1307.322326	-11.782663
1307.892666	-11.799480
1308.463504	-11.786867
1309.034841	-11.797731
1309.606677	-11.794525
1310.179012	-11.794062
1310.751849	-11.802133
1311.325186	-11.790776
1311.899025	-11.807695
1312.473366	-11.791523
1313.048211	-11.811808
1313.623559	-11.796155
1314.199412	-11.811660
1314.775770	-11.802494
1315.352634	-11.807927
1315.930004	-11.809540
1316.507881	-11.804530
1317.086266	-11.816956
1317.665159	-11.802695
1318.244562	-11.820872
1318.824474	-11.801806
1319.404897	-11.820257
1319.985831	-11.803250
1320.567276	-11.817430
1321.149234	-11.807898
1321.731706	-11.812819
1322.314691	-11.812124
1322.898190	-11.805901
1323.482205	-11.814318
1324.066736	-11.799565
1324.651783	-11.815315
1325.237347	-11.795920
1325.823430	-11.813440
1326.410031	-11.792721
1326.997151	-11.806995
1327.584791	-11.789897
1328.172952	-11.798251
1328.761634	-11.788839
1329.350839	-11.788703
1329.940566	-11.787126
1330.530817	-11.776994
1331.121592	-11.782418
1331.712891	-11.764977
1332.304716	-11.776355
1332.897068	-11.754929
1333.489946	-11.768641
1334.083352	-11.745088
1334.677287	-11.757051
1335.271750	-11.734947
1335.866744	-11.743645
1336.462268	-11.726648
1337.058323	-11.729886
1337.654910	-11.718624
1338.252029	-11.713911
1338.849682	-11.708742
1339.447869	-11.697145
1340.046591	-11.698855
1340.645848	-11.681949
1341.245641	-11.688331
1341.845972	-11.666506
1342.446840	-11.674845
1343.048246	-11.650737
1343.650191	-11.660609
1344.252677	-11.637060
1344.855702	-11.646341
1345.459269	-11.623742
1346.063379	-11.629728
1346.668030	-11.609662
1347.273226	-11.612605
1347.878965	-11.597363
1348.485250	-11.596539
1349.092080	-11.585497
1349.699456	-11.579226
1350.307380	-11.572136
1350.915851	-11.562084
1351.524871	-11.559894
1352.134441	-11.546987
1352.744560	-11.547900
1353.355231	-11.531301
1353.966453	-11.534130
1354.578227	-11.515685
1355.190555	-11.521304
1355.803436	-11.502214
1356.416872	-11.508792
1357.030863	-11.488251
1357.645411	-11.494550
1358.260515	-11.474289
1358.876177	-11.481385
1359.492397	-11.462442
1360.109176	-11.468661
1360.726516	-11.449990
1361.344416	-11.454433
1361.962877	-11.437411
1362.581901	-11.441651
1363.201487	-11.426704
1363.821637	-11.429453
1364.442352	-11.415072
1365.063632	-11.415978
1365.685478	-11.403443
1366.307891	-11.404167
1366.930871	-11.393579
1367.554420	-11.392565
1368.178538	-11.382490
1368.803226	-11.379815
1369.428485	-11.371605
1370.054315	-11.368950
1370.680717	-11.362095
1371.307693	-11.357822
1371.935242	-11.350971
1372.563366	-11.345788
1373.192065	-11.340488
1373.821341	-11.335744
1374.451193	-11.330998
1375.081623	-11.324963
1375.712632	-11.319984
1376.344221	-11.313857
1376.976389	-11.310278
1377.609139	-11.304615
1378.242470	-11.300802
1378.876384	-11.293977
1379.510881	-11.289795
1380.145963	-11.283454
1380.781629	-11.280197
1381.417881	-11.274013
1382.054720	-11.269744
1382.692147	-11.262745
1383.330161	-11.258249
1383.968765	-11.252490
1384.607959	-11.248350
1385.247743	-11.242655
1385.888119	-11.237034
1386.529087	-11.231449
1387.170648	-11.226049
1387.812804	-11.222127
1388.455554	-11.216472
1389.098899	-11.212441
1389.742842	-11.205519
1390.387381	-11.202550
1391.032519	-11.196190
1391.678256	-11.194626
1392.324592	-11.187081
1392.971529	-11.185231
1393.619068	-11.176744
1394.267208	-11.176475
1394.915952	-11.168087
1395.565300	-11.168284
1396.215253	-11.158165
1396.865812	-11.158362
1397.516977	-11.148302
1398.168749	-11.150140
1398.821130	-11.139761
1399.474120	-11.141205
1400.127719	-11.129702
1400.781930	-11.131847
1401.436752	-11.121382
1402.092186	-11.124261
1402.748234	-11.113332
1403.404897	-11.115418
1404.062174	-11.105249
1404.720067	-11.108395
1405.378577	-11.099956
1406.037705	-11.102334
1406.697451	-11.094116
1407.357817	-11.095891
1408.018803	-11.090146
1408.680410	-11.091866
1409.342639	-11.087339
1410.005492	-11.086880
1410.668968	-11.084032
1411.333068	-11.083367
1411.997795	-11.083472
1412.663147	-11.081293
1413.329127	-11.082245
1413.995736	-11.078664
1414.662973	-11.082372
1415.330840	-11.078686
1415.999339	-11.083461
1416.668469	-11.077829
1417.338232	-11.083298
1418.008628	-11.078613
1418.679659	-11.085622
1419.351325	-11.081178
1420.023628	-11.087055
1420.696568	-11.083844
1421.370145	-11.090372
1422.044362	-11.090077
1422.719219	-11.094821
1423.394717	-11.095615
1424.070856	-11.098590
1424.747638	-11.103162
1425.425064	-11.105123
1426.103134	-11.111312
1426.781850	-11.110801
1427.461212	-11.119480
1428.141221	-11.120099
1428.821878	-11.131015
1429.503185	-11.131261
1430.185141	-11.141858
1430.867749	-11.144352
1431.551008	-11.155866
1432.234920	-11.160567
1432.919486	-11.168946
1433.604707	-11.175301
1434.290583	-11.182529
1434.977116	-11.192713
1435.664307	-11.197660
1436.352156	-11.208877
1437.040664	-11.213301
1437.729833	-11.228293
1438.419663	-11.234814
1439.110156	-11.249986
1439.801312	-11.257712
1440.493132	-11.273368
1441.185617	-11.285606
1441.878768	-11.299469
1442.572586	-11.312477
1443.267072	-11.322928
1443.962228	-11.338906
1444.658053	-11.348275
1445.354549	-11.364184
1446.051717	-11.371745
1446.749558	-11.388861
1447.448073	-11.400870
1448.147263	-11.419128
1448.847128	-11.434503
1449.547671	-11.453052
1450.248891	-11.475708
1450.950789	-11.496162
1451.653368	-11.521718
1452.356627	-11.540270
1453.060568	-11.566982
1453.765192	-11.586367
1454.470500	-11.609858
1455.176492	-11.626289
1455.883170	-11.644444
1456.590534	-11.662986
1457.298586	-11.678420
1458.007327	-11.697561
1458.716758	-11.711743
1459.426880	-11.736193
1460.137693	-11.756893
1460.849199	-11.784902
1461.561398	-11.811074
1462.274293	-11.842414
1462.987883	-11.877217
1463.702170	-11.908057
1464.417155	-11.941837
1465.132838	-11.967400
1465.849222	-11.996880
1466.566306	-12.015062
1467.284093	-12.029841
1468.002582	-12.037257
1468.721775	-12.039818
1469.441674	-12.041411
1470.162278	-12.033550
1470.883590	-12.030465
1471.605609	-12.024177
1472.328338	-12.026068
1473.051777	-12.028303
1473.775928	-12.035716
1474.500790	-12.052678
1475.226367	-12.072357
1475.952657	-12.101151
1476.679663	-12.126908
1477.407386	-12.160387
1478.135826	-12.191414
1478.864985	-12.219296
1479.594863	-12.242402
1480.325463	-12.255879
1481.056784	-12.267590
1481.788828	-12.264621
1482.521597	-12.256673
1483.255090	-12.240756
1483.989309	-12.223070
1484.724256	-12.206693
1485.459931	-12.189121
1486.196336	-12.185969
1486.933471	-12.193034
1487.671337	-12.220951
1488.409937	-12.267813
1489.149270	-12.340648
1489.889337	-12.446586
1490.630141	-12.578445
1491.371682	-12.745843
1492.113961	-12.942323
1492.856979	-13.174084
1493.600738	-13.433003
1494.345238	-13.712009
1495.090481	-14.014222
1495.836467	-14.322484
1496.583198	-14.635117
1497.330675	-14.934363
1498.078899	-15.217983
1498.827872	-15.482144
1499.577593	-15.712452
1500.328065	-15.921204
1501.079289	-16.106078
1501.831265	-16.282512
1502.583995	-16.457239
1503.337480	-16.637979
1504.091721	-16.851688
1504.846719	-17.097545
1505.602475	-17.394150
1506.358991	-17.749718
1507.116268	-18.175506
1507.874306	-18.686904
1508.633108	-19.272210
1509.392673	-19.947414
1510.153004	-20.695207
1510.914101	-21.476465
1511.675965	-22.228978
1512.438599	-22.824256
1513.202002	-23.141829
1513.966176	-23.069415
1514.731122	-22.610745
1515.496842	-21.904722
1516.263336	-21.076399
1517.030607	-20.237143
1517.798654	-19.445237
1518.567479	-18.724842
1519.337083	-18.095187
1520.107468	-17.535204
1520.878634	-17.042478
1521.650584	-16.603597
1522.423317	-16.195099
1523.196836	-15.804000
1523.971141	-15.406896
1524.746233	-14.995204
1525.522115	-14.548430
1526.298786	-14.058925
1527.076249	-13.528722
1527.854504	-12.950945
1528.633553	-12.336393
1529.413397	-11.691861
1530.194037	-11.028883
1530.975474	-10.358218
1531.757709	-9.689310
1532.540745	-9.036801
1533.324581	-8.405300
1534.109220	-7.804577
1534.894662	-7.242871
1535.680909	-6.723468
1536.467961	-6.252776
1537.255821	-5.833740
1538.044489	-5.470607
1538.833967	-5.165160
1539.624256	-4.918712
1540.415357	-4.734995
1541.207271	-4.612912
1542.000000	-4.553732
1542.793545	-4.558981
1543.587907	-4.627400
1544.383087	-4.759892
1545.179088	-4.955887
1545.975909	-5.216043
1546.773552	-5.540214
1547.572019	-5.927719
1548.371311	-6.381745
1549.171428	-6.901791
1549.972373	-7.489963
1550.774147	-8.151994
1551.576751	-8.890420
1552.380185	-9.713253
1553.184453	-10.630667
1553.989554	-11.655191
1554.795490	-12.806104
1555.602263	-14.105286
1556.409873	-15.588068
1557.218322	-17.293238
1558.027612	-19.250949
1558.837743	-21.449709
1559.648717	-23.609049
1560.460536	-24.805285
1561.273200	-24.179437
1562.086710	-22.447809
1562.901069	-20.594476
1563.716278	-18.967143
1564.532337	-17.606483
1565.349249	-16.477153
1566.167014	-15.542248
1566.985634	-14.766535
1567.805111	-14.126172
1568.625444	-13.603287
1569.446637	-13.178867
1570.268690	-12.844826
1571.091605	-12.592762
1571.915382	-12.410713
1572.740024	-12.296938
1573.565532	-12.246092
1574.391907	-12.249846
1575.219150	-12.308440
1576.047262	-12.417458
1576.876246	-12.570700
1577.706103	-12.768100
1578.536833	-13.005064
1579.368439	-13.276541
1580.200922	-13.580574
1581.034282	-13.912181
1581.868522	-14.266598
1582.703643	-14.639034
1583.539646	-15.023410
1584.376532	-15.414903
1585.214304	-15.805228
1586.052962	-16.189241
1586.892508	-16.562662
1587.732943	-16.916252
1588.574269	-17.247270
1589.416487	-17.553663
1590.259599	-17.826579
1591.103605	-18.067460
1591.948508	-18.276641
1592.794309	-18.446569
1593.641009	-18.581077
1594.488609	-18.681906
1595.337112	-18.742145
1596.186518	-18.767235
1597.036829	-18.760902
1597.888047	-18.718559
1598.740172	-18.647530
1599.593207	-18.554179
1600.447153	-18.436088
1601.302010	-18.300940
1602.157782	-18.155652
1603.014469	-17.997754
1603.872072	-17.833705
1604.730593	-17.669053
1605.590034	-17.501016
1606.450397	-17.334058
1607.311681	-17.172814
1608.173890	-17.013476
1609.037024	-16.859690
1609.901085	-16.714890
1610.766075	-16.574883
1611.631995	-16.442057
1612.498846	-16.318839
1613.366630	-16.199725
1614.235349	-16.085927
1615.105004	-15.978545
1615.975596	-15.870686
1616.847128	-15.763580
1617.719600	-15.657628
1618.593014	-15.546668
1619.467372	-15.433124
1620.342675	-15.318422
1621.218924	-15.198129
1622.096122	-15.076637
1622.974270	-14.956210
1623.853369	-14.833525
1624.733420	-14.713976
1625.614427	-14.598729
1626.496389	-14.484974
1627.379308	-14.377443
1628.263187	-14.275732
1629.148026	-14.177448
1630.033828	-14.086489
1630.920593	-14.000976
1631.808324	-13.919296
1632.697022	-13.844000
1633.586688	-13.772093
1634.477324	-13.702805
1635.368932	-13.637254
1636.261514	-13.571954
1637.155070	-13.507583
1638.049602	-13.443701
1638.945113	-13.378020
1639.841603	-13.312513
1640.739075	-13.245824
1641.637529	-13.177723
1642.536968	-13.110832
1643.437393	-13.043137
1644.338806	-12.976483
1645.241209	-12.912589
1646.144602	-12.849204
1647.048988	-12.789383
1647.954368	-12.732903
1648.860744	-12.677828
1649.768118	-12.627259
1650.676491	-12.579107
1651.585865	-12.532450
1652.496241	-12.489582
1653.407621	-12.447622
1654.320008	-12.407311
1655.233401	-12.369119
1656.147804	-12.331127
1657.063218	-12.295079
1657.979645	-12.259483
1658.897085	-12.224608
1659.815542	-12.191786
1660.735016	-12.158686
1661.655509	-12.127620
1662.577023	-12.098618
1663.499560	-12.070018
1664.423121	-12.044609
1665.347709	-12.020989
1666.273324	-11.998988
1667.199969	-11.979870
1668.127645	-11.961853
1669.056353	-11.946017
1669.986097	-11.931329
1670.916877	-11.917258
1671.848695	-11.905107
1672.781553	-11.892751
1673.715452	-11.881489
1674.650395	-11.871713
1675.586383	-11.861984
1676.523418	-11.854121
1677.461501	-11.847323
1678.400635	-11.841690
1679.340821	-11.837697
1680.282061	-11.834173
1681.224357	-11.832317
1682.167710	-11.830973
1683.112122	-11.829922
1684.057595	-11.830259
1685.004132	-11.830431
1685.951732	-11.831385
1686.900400	-11.833103
1687.850135	-11.835022
1688.800940	-11.838166
1689.752818	-11.841466
1690.705768	-11.845797
1691.659795	-11.850945
1692.614898	-11.856269
1693.571081	-11.862999
1694.528345	-11.869661
1695.486691	-11.877086
1696.446122	-11.885112
1697.406640	-11.893074
1698.368245	-11.902105
1699.330941	-11.910992
1700.294729	-11.921025
1701.259611	-11.931638
1702.225588	-11.942544
1703.192664	-11.954916
1704.160838	-11.967309
1705.130114	-11.980727
1706.100493	-11.994096
1707.071977	-12.007568
1708.044568	-12.021497
1709.018268	-12.034660
1709.993079	-12.048810
1710.969003	-12.062888
1711.946041	-12.077593
1712.924196	-12.092867
1713.903469	-12.108043
1714.883862	-12.124002
1715.865378	-12.139236
1716.848017	-12.155029
1717.831783	-12.170834
1718.816677	-12.186648
1719.802701	-12.202944
1720.789857	-12.218895
1721.778147	-12.235656
1722.767573	-12.252014
1723.758136	-12.268716
1724.749840	-12.285627
1725.742685	-12.302615
1726.736673	-12.320572
1727.731808	-12.338034
1728.728090	-12.356094
1729.725521	-12.373782
1730.724105	-12.391235
1731.723842	-12.408818
1732.724735	-12.426082
1733.726785	-12.443979
1734.729995	-12.461396
1735.734366	-12.479466
1736.739902	-12.497162
1737.746603	-12.514942
1738.754472	-12.532915
1739.763510	-12.550344
1740.773721	-12.568439
1741.785105	-12.585822
1742.797665	-12.603665
1743.811403	-12.620872
1744.826321	-12.638552
1745.842422	-12.656168
1746.859706	-12.673519
1747.878177	-12.691648
1748.897835	-12.709406
1749.918685	-12.728205
1750.940726	-12.746453
1751.963963	-12.765600
1752.988395	-12.784244
1754.014027	-12.803359
1755.040860	-12.822687
1756.068895	-12.841955
1757.098135	-12.861952
1758.128583	-12.881694
1759.160240	-12.902639
1760.193109	-12.922699
1761.227191	-12.943899
1762.262488	-12.964649
1763.299004	-12.985898
1764.336740	-13.006521
1765.375697	-13.027317
1766.415880	-13.048025
1767.457288	-13.068267
1768.499926	-13.089118
1769.543794	-13.109227
1770.588895	-13.129918
1771.635231	-13.149467
1772.682805	-13.169797
1773.731619	-13.189077
1774.781674	-13.208583
1775.832973	-13.226848
1776.885519	-13.245766
1777.939312	-13.264524
1778.994357	-13.283177
1780.050654	-13.301477
1781.108207	-13.319554
1782.167017	-13.337736
1783.227087	-13.354975
1784.288418	-13.372366
1785.351013	-13.389205
1786.414875	-13.406802
1787.480006	-13.423590
1788.546407	-13.441135
1789.614082	-13.458490
1790.683032	-13.476715
1791.753259	-13.494202
1792.824767	-13.512041
1793.897557	-13.529815
1794.971632	-13.548311
1796.046994	-13.566409
1797.123645	-13.584136
1798.201588	-13.601924
1799.280824	-13.620615
1800.361357	-13.640122
1801.443188	-13.659582
1802.526320	-13.678883
1803.610756	-13.697802
1804.696497	-13.716480
1805.783546	-13.734071
1806.871906	-13.751275
1807.961578	-13.768213
1809.052565	-13.786213
1810.144870	-13.804646
1811.238494	-13.823354
1812.333441	-13.841001
1813.429713	-13.858277
1814.527311	-13.874561
1815.626239	-13.890179
1816.726499	-13.904641
1817.828094	-13.919209
1818.931025	-13.934195
1820.035295	-13.950377
1821.140906	-13.966491
1822.247862	-13.981904
1823.356165	-13.995918
1824.465816	-14.009856
1825.576819	-14.024128
1826.689175	-14.039139
1827.802888	-14.053810
1828.917960	-14.068010
1830.034394	-14.081400
1831.152191	-14.094940
1832.271354	-14.108820
1833.391887	-14.123263
1834.513790	-14.137130
1835.637068	-14.150176
1836.761722	-14.162181
1837.887755	-14.173788
1839.015169	-14.185023
1840.143968	-14.196258
1841.274153	-14.207350
1842.405727	-14.218193
1843.538693	-14.228548
1844.673053	-14.238561
1845.808810	-14.248353
1846.945966	-14.257526
1848.084525	-14.265568
1849.224488	-14.272454
1850.365858	-14.278969
1851.508638	-14.285740
1852.652831	-14.292972
1853.798438	-14.300358
1854.945463	-14.307430
1856.093909	-14.313802
1857.243777	-14.319142
1858.395071	-14.323614
1859.547794	-14.327549
1860.701947	-14.331761
1861.857533	-14.336518
1863.014556	-14.341722
1864.173018	-14.346772
1865.332922	-14.351485
1866.494270	-14.355949
1867.657065	-14.360277
1868.821309	-14.364567
1869.987006	-14.368595
1871.154158	-14.372597
1872.322768	-14.376333
1873.492839	-14.380088
1874.664373	-14.383206
1875.837373	-14.386153
1877.011841	-14.388197
1878.187782	-14.390229
1879.365197	-14.391336
1880.544089	-14.392513
1881.724460	-14.392627
1882.906315	-14.392928
1884.089655	-14.392403
1885.274483	-14.392186
1886.460803	-14.391032
1887.648616	-14.389470
1888.837927	-14.386533
1890.028736	-14.382718
1891.221049	-14.377888
1892.414866	-14.372298
1893.610192	-14.366573
1894.807028	-14.360527
1896.005379	-14.354952
1897.205246	-14.348778
1898.406633	-14.342507
1899.609542	-14.335030
1900.813977	-14.327182
1902.019940	-14.318759
1903.227434	-14.310578
1904.436462	-14.302487
1905.647028	-14.294446
1906.859133	-14.286347
1908.072781	-14.278098
1909.287976	-14.269933
1910.504719	-14.261620
1911.723013	-14.253305
1912.942863	-14.244843
1914.164270	-14.236572
1915.387238	-14.228513
1916.611770	-14.220491
1917.837868	-14.212152
1919.065536	-14.203133
1920.294777	-14.193615
1921.525594	-14.183807
1922.757989	-14.174165
1923.991967	-14.164970
1925.227529	-14.156163
1926.464679	-14.147646
1927.703420	-14.138797
1928.943755	-14.129525
1930.185688	-14.119637
1931.429221	-14.109529
1932.674356	-14.099489
1933.921099	-14.089394
1935.169451	-14.079160
1936.419415	-14.068126
1937.670996	-14.056420
1938.924195	-14.044254
1940.179017	-14.031767
1941.435463	-14.019281
1942.693538	-14.006259
1943.953245	-13.992586
1945.214586	-13.978395
1946.477566	-13.964161
1947.742186	-13.950407
1949.008451	-13.936901
1950.276363	-13.923113
1951.545926	-13.908534
1952.817143	-13.893223
1954.090017	-13.878093
1955.364551	-13.863908
1956.640749	-13.850864
1957.918615	-13.838352
1959.198150	-13.825254
1960.479359	-13.810998
1961.762244	-13.796185
1963.046810	-13.781822
1964.333059	-13.768244
1965.620995	-13.754971
1966.910621	-13.741490
1968.201940	-13.727728
1969.494956	-13.713885
1970.789672	-13.700598
1972.086091	-13.688161
1973.384217	-13.676417
1974.684053	-13.664843
1975.985602	-13.653318
1977.288869	-13.642093
1978.593855	-13.631531
1979.900566	-13.621720
1981.209003	-13.612634
1982.519171	-13.603890
1983.831073	-13.595392
1985.144712	-13.587239
1986.460093	-13.579482
1987.777217	-13.572072
1989.096089	-13.564218
1990.416713	-13.555442
1991.739092	-13.545976
1993.063228	-13.536434
1994.389127	-13.527178
1995.716791	-13.518030
1997.046223	-13.508473
1998.377428	-13.498125
1999.710409	-13.487134
2001.045169	-13.476215
2002.381713	-13.465528
2003.720043	-13.454711
2005.060163	-13.443381
2006.402077	-13.431526
2007.745788	-13.419442
2009.091301	-13.407030
2010.438618	-13.394332
2011.787743	-13.382054
2013.138680	-13.370771
2014.491433	-13.360483
2015.846005	-13.350548
2017.202399	-13.340593
2018.560621	-13.331403
2019.920673	-13.323114
2021.282558	-13.315391
2022.646281	-13.307839
2024.011846	-13.300275
2025.379256	-13.293513
2026.748515	-13.287899
2028.119626	-13.282882
2029.492594	-13.278018
2030.867422	-13.273243
2032.244114	-13.268759
2033.622673	-13.265055
2035.003104	-13.261929
2036.385411	-13.258720
2037.769597	-13.254976
2039.155665	-13.251041
2040.543621	-13.247795
2041.933467	-13.245307
2043.325208	-13.242658
2044.718847	-13.238906
2046.114389	-13.234140
2047.511837	-13.229659
2048.911195	-13.225968
2050.312467	-13.222211
2051.715657	-13.217332
2053.120769	-13.211162
2054.527807	-13.204935
2055.936775	-13.199564
2057.347677	-13.194849
2058.760516	-13.189739
2060.175297	-13.183564
2061.592025	-13.177429
2063.010701	-13.172393
2064.431332	-13.168179
2065.853921	-13.164247
2067.278472	-13.160692
2068.704988	-13.158033
2070.133475	-13.156465
2071.563936	-13.155790
2072.996375	-13.155329
2074.430796	-13.155233
2075.867204	-13.156455
2077.305603	-13.158857
2078.745996	-13.162123
2080.188389	-13.166370
2081.632784	-13.171093
2083.079187	-13.175590
2084.527601	-13.180333
2085.978030	-13.186428
2087.430480	-13.194001
2088.884954	-13.201670
2090.341455	-13.208214
2091.799990	-13.214166
2093.260561	-13.220039
2094.723173	-13.225801
2096.187831	-13.232016
2097.654538	-13.239897
2099.123300	-13.249898
2100.594119	-13.260776
2102.067001	-13.271364
2103.541950	-13.281815
2105.018971	-13.292162
2106.498067	-13.301856
2107.979243	-13.310598
2109.462503	-13.318030
2110.947853	-13.323502
2112.435295	-13.327351
2113.924836	-13.330507
2115.416478	-13.333709
2116.910227	-13.337829
2118.406087	-13.343996
2119.904063	-13.353207
2121.404158	-13.366123
2122.906378	-13.383108
2124.410727	-13.402972
2125.917210	-13.422723
2127.425831	-13.439475
2128.936594	-13.450701
2130.449505	-13.453992
2131.964567	-13.448351
2133.481786	-13.434017
2135.001166	-13.412898
2136.522711	-13.388499
2138.046427	-13.364570
2139.572317	-13.344461
2141.100388	-13.331433
2142.630642	-13.328247
2144.163085	-13.336384
2145.697722	-13.355418
2147.234558	-13.383613
2148.773596	-13.420449
2150.314842	-13.466481
2151.858301	-13.519800
2153.403977	-13.576184
2154.951875	-13.632681
2156.502000	-13.689005
2158.054357	-13.745650
2159.608950	-13.800314
2161.165785	-13.850038
2162.724866	-13.895639
2164.286198	-13.938587
2165.849786	-13.978253
2167.415635	-14.013354
2168.983749	-14.043965
2170.554134	-14.071580
2172.126795	-14.095814
2173.701737	-14.115123
2175.278964	-14.130041
2176.858481	-14.141725
2178.440294	-14.150641
2180.024408	-14.155459
2181.610827	-14.155162
2183.199557	-14.152206
2184.790602	-14.149501
2186.383968	-14.146983
2187.979660	-14.143510
2189.577683	-14.141519
2191.178041	-14.145791
2192.780741	-14.157734
2194.385787	-14.175549
2195.993185	-14.200275
2197.602939	-14.235670
2199.215054	-14.281417
2200.829537	-14.334125
2202.446392	-14.391949
2204.065624	-14.453885
2205.687239	-14.516849
2207.311242	-14.575976
2208.937638	-14.629093
2210.566433	-14.676661
2212.197631	-14.716685
2213.831239	-14.746800
2215.467261	-14.769357
2217.105703	-14.788676
2218.746570	-14.807264
2220.389867	-14.826787
2222.035601	-14.850974
2223.683776	-14.883212
2225.334398	-14.923068
2226.987472	-14.968674
2228.643004	-15.019178
2230.300999	-15.073132
2231.961463	-15.127430
2233.624402	-15.179180
2235.289820	-15.227218
2236.957723	-15.271767
2238.628118	-15.313026
2240.301009	-15.351074
2241.976402	-15.388464
2243.654303	-15.429865
2245.334717	-15.475740
2247.017650	-15.523271
2248.703108	-15.572845
2250.391096	-15.626099
2252.081620	-15.680830
2253.774686	-15.734386
2255.470300	-15.787135
2257.168467	-15.840424
2258.869193	-15.895280
2260.572484	-15.952943
2262.278345	-16.013554
2263.986783	-16.075903
2265.697804	-16.138000
2267.411412	-16.199770
2269.127615	-16.261928
2270.846417	-16.323953
2272.567826	-16.384638
2274.291846	-16.446112
2276.018484	-16.509867
2277.747745	-16.572263
2279.479637	-16.632226
2281.214164	-16.693357
2282.951333	-16.755646
2284.691149	-16.815565
2286.433619	-16.873777
2288.178750	-16.932682
2289.926546	-16.991835
2291.677014	-17.050152
2293.430161	-17.108601
2295.185992	-17.167779
2296.944513	-17.226971
2298.705732	-17.286895
2300.469653	-17.350005
2302.236283	-17.415210
2304.005629	-17.481126
2305.777696	-17.549890
2307.552492	-17.623058
2309.330022	-17.698610
2311.110292	-17.774978
2312.893310	-17.855108
2314.679080	-17.938708
2316.467611	-18.023147
2318.258907	-18.109657
2320.052976	-18.199734
2321.849824	-18.291837
2323.649457	-18.382368
2325.451883	-18.470797
2327.257106	-18.560675
2329.065135	-18.653173
2330.875975	-18.745016
2332.689633	-18.833115
2334.506116	-18.919540
2336.325430	-19.008444
2338.147581	-19.096879
2339.972578	-19.180702
2341.800425	-19.264657
2343.631130	-19.351906
2345.464700	-19.436119
2347.301141	-19.517270
2349.140461	-19.599092
2350.982665	-19.680189
2352.827760	-19.759276
2354.675754	-19.838281
2356.526653	-19.917486
2358.380464	-19.996039
2360.237195	-20.078706
2362.096851	-20.162928
2363.959440	-20.245483
2365.824968	-20.335206
2367.693444	-20.433414
2369.564873	-20.531152
2371.439263	-20.631382
2373.316620	-20.741531
2375.196953	-20.853574
2377.080267	-20.963077
2378.966570	-21.080229
2380.855869	-21.205111
2382.748171	-21.325593
2384.643484	-21.443870
2386.541815	-21.564858
2388.443170	-21.684905
2390.347557	-21.805914
2392.254984	-21.926748
2394.165457	-22.043780
2396.078984	-22.160249
2397.995572	-22.277401
2399.915229	-22.389503
2401.837961	-22.500295
2403.763777	-22.615817
2405.692684	-22.724076
2407.624689	-22.824976
2409.559800	-22.930166
2411.498023	-23.032625
2413.439368	-23.134063
2415.383840	-23.237041
2417.331449	-23.334679
2419.282201	-23.431887
2421.236104	-23.532269
2423.193165	-23.633656
2425.153393	-23.737074
2427.116795	-23.841482
2429.083378	-23.950864
2431.053151	-24.064898
2433.026121	-24.185329
2435.002297	-24.314730
2436.981685	-24.451189
2438.964293	-24.593842
2440.950131	-24.735812
2442.939204	-24.887179
2444.931522	-25.049275
2446.927092	-25.206248
2448.925923	-25.361370
2450.928022	-25.518071
2452.933397	-25.675560
2454.942056	-25.830167
2456.954008	-25.979871
2458.969260	-26.128900
2460.987821	-26.274291
2463.009699	-26.413164
2465.034902	-26.545849
2467.063437	-26.681769
2469.095315	-26.812700
2471.130542	-26.931911
2473.169127	-27.051148
2475.211078	-27.168336
2477.256404	-27.288926
2479.305112	-27.407055
2481.357212	-27.516836
2483.412713	-27.625600
2485.471621	-27.739195
2487.533946	-27.846378
2489.599696	-27.948778
2491.668880	-28.060517
2493.741507	-28.173131
2495.817585	-28.289019
2497.897122	-28.429916
2499.980127	-28.585256
2502.066609	-28.742673
2504.156578	-28.910493
2506.250040	-29.102099
2508.347006	-29.309869
2510.447483	-29.502439
2512.551482	-29.694754
2514.659010	-29.908802
2516.770076	-30.116561
2518.884690	-30.302552
2521.002861	-30.489674
2523.124597	-30.673778
2525.249907	-30.856777
2527.378801	-31.042401
2529.511287	-31.209863
2531.647375	-31.362213
2533.787074	-31.521777
2535.930393	-31.691699
2538.077340	-31.833782
2540.227927	-31.939383
2542.382160	-32.059914
2544.540051	-32.200379
2546.701608	-32.321537
2548.866840	-32.417001
2551.035757	-32.492581
2553.208369	-32.596215
2555.384684	-32.701671
2557.564713	-32.778498
2559.748465	-32.866536
2561.935948	-32.970336
2564.127174	-33.112016
2566.322152	-33.263497
2568.520890	-33.400337
2570.723399	-33.592889
2572.929689	-33.812074
2575.139769	-34.056994
2577.353649	-34.303814
2579.571340	-34.527655
2581.792849	-34.812451
2584.018189	-35.106550
2586.247368	-35.343538
2588.480396	-35.599414
2590.717284	-35.833200
2592.958041	-36.087830
2595.202678	-36.335303
2597.451204	-36.542933
2599.703630	-36.795787
2601.959966	-37.013279
2604.220222	-37.235113
2606.484408	-37.426550
2608.752535	-37.587480
2611.024612	-37.787009
2613.300651	-37.880643
2615.580661	-37.960293
2617.864653	-38.064843
2620.152638	-38.104743
2622.444625	-38.095299
2624.740626	-38.104243
2627.040651	-38.185354
2629.344710	-38.183887
2631.652814	-38.180608
2633.964974	-38.308865
2636.281200	-38.390187
2638.601504	-38.502095
2640.925896	-38.649146
2643.254386	-38.809316
2645.586987	-39.094536
2647.923707	-39.343890
2650.264559	-39.586712
2652.609554	-39.961773
2654.958702	-40.277968
2657.312015	-40.499063
2659.669503	-40.882049
2662.031178	-41.200678
2664.397051	-41.443729
2666.767132	-41.880005
2669.141434	-42.263652
2671.519968	-42.635411
2673.902745	-43.133234
2676.289776	-43.511065
2678.681072	-43.970178
2681.076646	-44.237341
2683.476508	-44.519462
2685.880671	-44.891966
2688.289145	-44.864477
2690.701942	-45.002412
2693.119075	-45.144751
2695.540554	-44.920843
2697.966391	-44.808022
2700.396599	-44.734046
2702.831189	-44.568167
2705.270172	-44.433066
2707.713561	-44.304501
2710.161368	-44.243643
2712.613605	-44.247222
2715.070283	-44.296326
2717.531416	-44.422417
2719.997014	-44.536011
2722.467090	-44.743909
2724.941657	-44.953974
2727.420726	-45.092588
2729.904310	-45.326469
2732.392421	-45.604168
2734.885072	-45.779940
2737.382275	-45.974665
2739.884042	-46.356064
2742.390387	-46.749926
2744.901321	-47.181140
2747.416857	-47.727104
2749.937008	-48.361223
2752.461787	-49.046476
2754.991206	-49.767621
2757.525279	-50.536569
2760.064017	-51.406594
2762.607434	-52.181143
2765.155544	-52.893187
2767.708358	-53.541519
2770.265890	-54.009624
2772.828153	-54.086579
2775.395160	-53.912461
2777.966924	-53.600751
2780.543459	-53.064584
2783.124778	-52.531806
2785.710894	-52.325326
2788.301821	-52.105296
2790.897572	-51.921586
2793.498160	-51.866463
2796.103599	-51.866144
2798.713903	-51.775736
2801.329085	-51.701323
2803.949159	-51.637285
2806.574139	-51.473537
2809.204038	-51.383329
2811.838871	-51.178981
2814.478650	-51.077755
2817.123391	-51.146446
2819.773107	-51.101529
2822.427812	-51.356699
2825.087521	-51.802976
2827.752247	-52.026725
2830.422005	-52.489704
2833.096808	-53.152395
2835.776672	-53.537791
2838.461611	-54.555150
2841.151638	-55.157900
2843.846769	-56.331609
2846.547019	-57.765624
2849.252401	-58.672162
2851.962930	-60.727627
2854.678621	-61.705982
2857.399489	-61.900847
2860.125549	-62.844878
2862.856815	-62.066899
2865.593302	-63.014038
2868.335026	-62.212440
2871.082002	-63.364950
2873.834244	-63.495885
2876.591767	-63.623922
2879.354588	-64.616727
2882.122721	-63.403225
2884.896181	-63.335642
2887.674984	-61.942532
2890.459146	-60.942238
2893.248681	-59.910602
2896.043606	-59.042953
2898.843937	-58.710166
2901.649687	-58.109333
2904.460875	-57.909008
2907.277515	-57.849388
2910.099623	-57.572545
2912.927215	-57.676404
2915.760308	-57.791488
2918.598916	-57.931611
2921.443057	-58.281127
2924.292747	-58.977418
2927.148002	-60.161982
2930.008837	-61.198630
2932.875270	-62.399594
2935.747318	-63.445958
2938.624995	-64.100430
2941.508320	-64.912955
2944.397308	-64.977798
2947.291977	-64.961565
2950.192343	-64.954728
2953.098423	-65.201748
2956.010234	-65.280432
2958.927792	-65.712682
2961.851116	-66.714928
2964.780221	-68.335366
2967.715126	-70.063635
2970.655847	-73.427594
2973.602402	-76.494621
2976.554808	-85.127193
2979.513083	-84.945713
2982.477243	-79.246822
2985.447308	-74.826005
2988.423293	-72.022342
2991.405218	-68.953552
2994.393099	-67.937118
2997.386955	-66.167837
