# 2022-03-22_00.56.28
# shape = sech2
# FWHM_ps = 0.1
# carrier_nm = 1542
# frep_MHz = 12126
# pow_mW = 8000
# GDD = 0.0
# propa_len = 0.14622222222222223
# untap_len = 0.01
# taper_len = 0.08622222222222223
# waist_len = 0.02
# uptap_len = 0.02
# untap_scale = 1.0
# waist_scale = 0.17894736842105266
# workingDir = NL_20110305_12 (Spirou)
# axis = slow
# window_ps = 10.0
# steps = 200
# points = 21700
# 
# wavelength [nm]	 power spectral density [dB]
600.043425	-89.794905
600.163550	-88.790013
600.283723	-88.373431
600.403943	-89.111298
600.524212	-90.778944
600.644529	-93.631314
600.764895	-97.120069
600.885308	-97.033113
601.005770	-96.170359
601.126280	-95.652663
601.246839	-94.277668
601.367446	-92.059518
601.488101	-90.626826
601.608804	-90.938831
601.729557	-93.122267
601.850357	-97.702482
601.971206	-101.804368
602.092104	-93.868960
602.213050	-89.072730
602.334045	-87.090905
602.455089	-87.132312
602.576181	-88.565110
602.697322	-90.865806
602.818511	-94.341091
602.939749	-103.941387
603.061036	-101.044174
603.182372	-92.983183
603.303757	-90.092819
603.425191	-89.119164
603.546673	-88.848473
603.668204	-89.146571
603.789785	-90.574988
603.911414	-93.891767
604.033092	-99.882727
604.154820	-102.959607
604.276596	-97.081772
604.398422	-91.544320
604.520297	-88.263798
604.642220	-86.820423
604.764193	-86.807241
604.886216	-88.086311
605.008287	-91.425539
605.130408	-95.592456
605.252578	-95.941368
605.374798	-91.856423
605.497066	-88.760717
605.619385	-87.943915
605.741752	-89.111503
605.864169	-91.418232
605.986636	-94.320731
606.109152	-93.094624
606.231718	-90.493644
606.354333	-89.757437
606.476998	-89.696539
606.599712	-89.834273
606.722476	-90.472423
606.845290	-91.611471
606.968154	-92.709723
607.091067	-92.353262
607.214030	-90.129930
607.337043	-88.919526
607.460106	-89.179877
607.583219	-89.245001
607.706381	-88.967180
607.829594	-89.974844
607.952856	-91.832477
608.076169	-93.159453
608.199531	-95.982245
608.322944	-104.612037
608.446407	-104.509478
608.569920	-94.439845
608.693483	-91.075606
608.817096	-91.100985
608.940759	-93.395997
609.064473	-94.662528
609.188237	-93.830172
609.312051	-93.375465
609.435916	-92.846742
609.559831	-92.438452
609.683796	-95.859541
609.807812	-109.822104
609.931878	-94.978498
610.055995	-92.139025
610.180162	-92.298856
610.304380	-94.027497
610.428648	-100.776477
610.552967	-98.890587
610.677337	-91.308781
610.801757	-88.525290
610.926228	-88.244175
611.050750	-89.821017
611.175323	-92.789401
611.299946	-96.340970
611.424620	-98.218043
611.549345	-99.130306
611.674121	-101.650612
611.798948	-98.745714
611.923826	-92.851572
612.048755	-89.447383
612.173734	-88.399389
612.298765	-89.524948
612.423847	-92.756457
612.548980	-96.492075
612.674165	-95.227127
612.799400	-92.701201
612.924687	-92.210383
613.050025	-93.446194
613.175414	-91.332338
613.300854	-87.457471
613.426346	-85.015467
613.551889	-83.830331
613.677484	-83.773307
613.803130	-85.078813
613.928827	-87.830616
614.054576	-91.066049
614.180377	-90.760809
614.306229	-87.914138
614.432132	-85.868919
614.558087	-84.622890
614.684094	-83.705658
614.810153	-83.334138
614.936263	-83.927115
615.062425	-85.064778
615.188639	-84.813956
615.314904	-82.580734
615.441222	-80.455227
615.567591	-79.184635
615.694012	-79.181955
615.820486	-80.752865
615.947011	-83.134201
616.073588	-84.652088
616.200217	-83.564634
616.326898	-81.890652
616.453632	-82.169945
616.580417	-85.283919
616.707255	-91.268821
616.834144	-88.573409
616.961086	-83.797518
617.088081	-82.328851
617.215127	-83.211448
617.342226	-86.400663
617.469378	-93.189963
617.596581	-92.677320
617.723837	-89.058361
617.851146	-89.873283
617.978507	-91.651515
618.105920	-86.187901
618.233386	-81.749800
618.360905	-79.791367
618.488476	-79.710787
618.616100	-81.406003
618.743777	-83.950672
618.871506	-85.191079
618.999288	-85.125907
619.127123	-85.709778
619.255011	-88.377120
619.382951	-94.999043
619.510945	-92.469583
619.638991	-87.313411
619.767090	-85.106042
619.895243	-85.609658
620.023448	-88.460795
620.151706	-91.180190
620.280017	-89.176313
620.408382	-86.648023
620.536799	-86.122502
620.665270	-86.892955
620.793794	-88.111072
620.922371	-88.309741
621.051002	-86.490593
621.179686	-84.396267
621.308423	-83.331905
621.437213	-83.640282
621.566057	-84.706151
621.694954	-86.065230
621.823905	-85.385666
621.952909	-83.085442
622.081967	-81.420171
622.211079	-81.343031
622.340244	-82.970155
622.469462	-86.247961
622.598735	-90.882367
622.728061	-97.424910
622.857441	-97.992644
622.986874	-89.293552
623.116361	-84.354413
623.245903	-81.993865
623.375498	-81.464979
623.505147	-83.167847
623.634850	-88.595671
623.764606	-102.350708
623.894417	-89.572514
624.024282	-85.653610
624.154201	-84.783934
624.284174	-85.642934
624.414202	-86.502383
624.544283	-87.994017
624.674419	-91.639216
624.804609	-90.498020
624.934853	-84.368169
625.065151	-80.850931
625.195504	-79.775440
625.325911	-80.190246
625.456373	-81.879570
625.586889	-84.936549
625.717460	-85.174374
625.848085	-84.174380
625.978764	-83.934407
626.109498	-85.712326
626.240287	-88.845621
626.371131	-88.006491
626.502029	-85.978287
626.632982	-86.397736
626.763989	-88.322265
626.895052	-90.659075
627.026169	-87.182678
627.157341	-84.524462
627.288568	-83.116130
627.419850	-82.728692
627.551187	-83.171887
627.682579	-83.398362
627.814026	-84.830915
627.945528	-87.802477
628.077085	-94.111378
628.208697	-102.621191
628.340364	-101.257146
628.472087	-100.748808
628.603865	-96.570561
628.735698	-88.608030
628.867586	-86.599784
628.999530	-85.858397
629.131529	-86.844301
629.263584	-89.210189
629.395694	-89.422128
629.527859	-88.422383
629.660080	-88.657311
629.792357	-90.301447
629.924689	-90.130560
630.057077	-87.708439
630.189520	-85.952679
630.322019	-85.323042
630.454574	-86.020596
630.587184	-87.568128
630.719851	-89.458801
630.852573	-87.847653
630.985351	-83.338639
631.118185	-80.080933
631.251075	-78.575985
631.384021	-78.393692
631.517023	-79.013258
631.650081	-79.601054
631.783195	-78.767049
631.916365	-77.212139
632.049592	-76.641310
632.182874	-77.838503
632.316213	-80.501738
632.449608	-83.825043
632.583059	-82.554356
632.716567	-79.938731
632.850131	-79.773807
632.983751	-81.565202
633.117428	-86.924768
633.251161	-105.922495
633.384951	-86.936446
633.518797	-83.957217
633.652700	-84.161439
633.786660	-86.078108
633.920676	-87.478548
634.054749	-83.946269
634.188879	-80.402935
634.323065	-78.797330
634.457308	-78.449689
634.591608	-79.049566
634.725965	-80.625382
634.860379	-80.551284
634.994850	-77.989080
635.129377	-76.176750
635.263962	-75.808382
635.398604	-76.636491
635.533303	-78.934367
635.668058	-82.724076
635.802872	-85.908424
635.937742	-85.863775
636.072669	-83.698307
636.207654	-81.122558
636.342696	-79.358079
636.477796	-79.468446
636.612953	-80.746144
636.748167	-80.924704
636.883439	-79.412516
637.018768	-77.985501
637.154155	-77.778340
637.289599	-79.469812
637.425101	-83.557806
637.560660	-85.058650
637.696277	-81.422464
637.831952	-79.059907
637.967685	-78.532167
638.103475	-79.569798
638.239324	-80.421496
638.375230	-78.932701
638.511194	-77.097195
638.647215	-76.483731
638.783295	-77.574915
638.919433	-81.662690
639.055629	-90.119465
639.191883	-85.139611
639.328195	-81.940595
639.464565	-83.555477
639.600994	-91.769567
639.737481	-85.082444
639.874025	-80.016167
640.010629	-79.691658
640.147290	-84.174514
640.284010	-93.039045
640.420789	-80.594107
640.557625	-77.199242
640.694521	-77.672470
640.831474	-81.459485
640.968487	-84.254896
641.105558	-78.213144
641.242687	-75.138491
641.379876	-75.235579
641.517123	-77.979492
641.654429	-84.372594
641.791793	-91.875246
641.929216	-84.839872
642.066699	-82.400980
642.204240	-81.547729
642.341840	-81.588228
642.479499	-83.897125
642.617217	-95.024004
642.754994	-86.662837
642.892830	-79.639730
643.030726	-77.845060
643.168680	-79.356000
643.306694	-85.193589
643.444767	-85.324194
643.582899	-78.607822
643.721091	-76.421037
643.859342	-77.379093
643.997652	-82.126854
644.136022	-100.709168
644.274451	-84.506555
644.412940	-80.721291
644.551488	-81.350044
644.690096	-84.756811
644.828763	-84.804688
644.967490	-80.526753
645.106277	-77.424072
645.245124	-76.282616
645.384030	-77.133456
645.522997	-79.332728
645.662023	-79.466695
645.801109	-76.809218
645.940255	-75.057330
646.079460	-75.220754
646.218726	-76.811410
646.358052	-78.047939
646.497438	-77.376075
646.636884	-76.723515
646.776391	-77.947442
646.915957	-81.950481
647.055584	-85.943269
647.195271	-83.433236
647.335019	-82.788371
647.474826	-82.139864
647.614695	-79.408227
647.754623	-77.801871
647.894612	-78.745511
648.034662	-82.802789
648.174772	-84.938718
648.314943	-80.204352
648.455174	-77.987680
648.595466	-78.446445
648.735819	-81.039560
648.876233	-85.999351
649.016707	-91.020503
649.157242	-83.001541
649.297838	-77.988448
649.438495	-75.735791
649.579213	-75.888051
649.719992	-78.995674
649.860832	-83.487526
650.001733	-78.097442
650.142695	-75.101164
650.283718	-75.740523
650.424803	-80.062481
650.565949	-85.817967
650.707156	-79.453016
650.848424	-76.916369
650.989754	-77.920495
651.131145	-81.881691
651.272597	-87.188074
651.414111	-82.717468
651.555687	-77.598981
651.697324	-74.273473
651.839022	-72.514203
651.980782	-72.561984
652.122604	-74.289361
652.264488	-76.758122
652.406433	-76.653624
652.548441	-75.651187
652.690510	-76.989373
652.832640	-81.191852
652.974833	-85.470285
653.117088	-85.162074
653.259405	-87.386886
653.401784	-82.659554
653.544224	-77.257482
653.686727	-75.484898
653.829293	-76.663956
653.971920	-81.475508
654.114609	-99.507554
654.257361	-89.898052
654.400175	-94.986519
654.543052	-86.229427
654.685991	-78.900236
654.828992	-76.857260
654.972056	-79.574451
655.115183	-91.007965
655.258372	-79.262042
655.401623	-75.480513
655.544937	-76.584295
655.688314	-85.036362
655.831754	-82.953650
655.975256	-76.592021
656.118822	-76.678841
656.262450	-83.595362
656.406141	-85.995972
656.549894	-76.991290
656.693711	-76.250286
656.837591	-82.355740
656.981534	-84.944677
657.125540	-75.082237
657.269610	-73.088798
657.413742	-75.306850
657.557938	-85.817449
657.702196	-81.052272
657.846519	-74.673824
657.990904	-73.472934
658.135353	-74.654401
658.279866	-78.052116
658.424441	-85.916776
658.569081	-79.084343
658.713784	-73.037273
658.858550	-71.040933
659.003381	-72.050732
659.148274	-76.222120
659.293232	-75.851656
659.438253	-71.327998
659.583339	-69.857241
659.728488	-71.168710
659.873701	-75.491662
660.018978	-78.037671
660.164318	-74.063595
660.309723	-71.800471
660.455192	-71.447753
660.600725	-73.214946
660.746323	-77.253855
660.891984	-74.889806
661.037710	-70.353440
661.183500	-69.113722
661.329354	-71.077509
661.475272	-76.364528
661.621255	-74.818254
661.767303	-71.443976
661.913415	-71.836402
662.059591	-76.814104
662.205833	-94.825370
662.352138	-78.281972
662.498509	-75.539274
662.644944	-74.759476
662.791443	-73.908642
662.938008	-74.958303
663.084638	-81.697273
663.231332	-82.877834
663.378091	-74.466223
663.524915	-73.647094
663.671804	-79.015543
663.818759	-85.019650
663.965778	-74.950881
664.112863	-74.507112
664.260012	-83.356629
664.407227	-78.125070
664.554507	-71.806401
664.701853	-71.823057
664.849264	-78.320423
664.996740	-79.435772
665.144282	-71.528246
665.291889	-70.566191
665.439561	-74.552541
665.587300	-97.925793
665.735103	-77.767910
665.882973	-76.458635
666.030908	-83.433781
666.178909	-78.179453
666.326976	-73.443693
666.475109	-74.458605
666.623307	-77.856816
666.771571	-72.442677
666.919902	-69.532466
667.068298	-70.528522
667.216761	-75.811621
667.365289	-76.471898
667.513884	-72.246675
667.662545	-72.141219
667.811272	-74.918257
667.960065	-77.551396
668.108925	-79.728155
668.257851	-90.557222
668.406843	-77.438942
668.555902	-72.979284
668.705027	-73.740062
668.854219	-79.609541
669.003478	-75.767370
669.152803	-71.439870
669.302195	-71.786090
669.451653	-77.894259
669.601179	-81.326513
669.750771	-74.047703
669.900430	-72.879716
670.050156	-72.359332
670.199949	-70.309445
670.349808	-69.664770
670.499735	-71.455262
670.649729	-71.639869
670.799790	-68.598174
670.949918	-68.022391
671.100114	-71.150344
671.250377	-78.440748
671.400707	-73.895433
671.551104	-72.220776
671.701569	-76.421413
671.852101	-79.821308
672.002700	-73.465242
672.153368	-73.410337
672.304102	-80.240876
672.454905	-78.173677
672.605775	-73.570507
672.756713	-74.979946
672.907718	-75.377566
673.058791	-70.434101
673.209933	-69.095349
673.361142	-72.224868
673.512419	-79.073652
673.663764	-71.916973
673.815177	-69.980054
673.966658	-73.054522
674.118207	-86.289225
674.269825	-80.203259
674.421510	-79.063234
674.573264	-81.404765
674.725086	-75.283053
674.876977	-74.373775
675.028936	-79.847077
675.180963	-75.358334
675.333059	-70.555907
675.485224	-71.178200
675.637457	-79.621760
675.789758	-78.541199
675.942129	-72.240388
676.094568	-74.763050
676.247075	-87.592308
676.399652	-72.168778
676.552298	-69.799384
676.705012	-73.870672
676.857795	-81.586926
677.010648	-72.059088
677.163569	-71.787325
677.316560	-81.805527
677.469619	-74.842244
677.622748	-69.661727
677.775946	-71.338748
677.929214	-80.645929
678.082551	-72.130134
678.235957	-69.048569
678.389432	-71.434333
678.542977	-79.578228
678.696592	-74.871731
678.850276	-73.265631
679.004030	-77.795616
679.157853	-76.795233
679.311746	-74.107429
679.465709	-77.661775
679.619742	-75.142683
679.773844	-69.692721
679.928017	-69.224993
680.082259	-73.402509
680.236571	-75.311168
680.390954	-71.578191
680.545406	-73.487777
680.699929	-93.903179
680.854522	-74.469344
681.009185	-71.667087
681.163918	-75.441143
681.318722	-81.786246
681.473596	-75.120774
681.628540	-76.992089
681.783555	-91.116500
681.938641	-73.410571
682.093797	-71.080562
682.249023	-75.179223
682.404321	-83.444784
682.559689	-73.486027
682.715128	-72.876475
682.870637	-79.333823
683.026218	-75.939651
683.181869	-71.409425
683.337591	-72.959799
683.493385	-83.949253
683.649249	-80.688272
683.805185	-78.071488
683.961191	-102.526246
684.117269	-74.836147
684.273418	-70.590793
684.429639	-71.765788
684.585930	-78.216891
684.742294	-77.787439
684.898728	-76.022189
685.055234	-79.940181
685.211812	-74.716645
685.368461	-71.684009
685.525182	-73.549517
685.681975	-72.953756
685.838839	-69.117986
685.995775	-68.941548
686.152783	-73.208361
686.309863	-73.532281
686.467014	-70.145242
686.624238	-72.121001
686.781534	-83.919421
686.938902	-73.587964
687.096342	-70.968326
687.253854	-75.477961
687.411438	-77.736994
687.569095	-72.049826
687.726824	-72.795049
687.884626	-78.039284
688.042499	-74.827073
688.200446	-75.270534
688.358465	-82.445808
688.516556	-71.157189
688.674720	-68.042457
688.832957	-70.435570
688.991266	-82.284850
689.149649	-74.499219
689.308104	-72.416265
689.466632	-78.322767
689.625233	-78.126478
689.783906	-74.469985
689.942653	-79.561579
690.101473	-76.438850
690.260367	-71.841856
690.419333	-74.619009
690.578372	-79.747044
690.737485	-70.893226
690.896672	-69.718163
691.055931	-75.072432
691.215264	-81.665608
691.374671	-75.202677
691.534151	-81.256440
691.693704	-76.524387
691.853332	-70.313337
692.013033	-71.391403
692.172807	-85.162790
692.332656	-73.890354
692.492578	-71.070241
692.652575	-76.811110
692.812645	-78.599790
692.972789	-71.287317
693.133007	-72.864122
693.293300	-86.870588
693.453666	-73.562035
693.614107	-71.205194
693.774622	-74.588761
693.935211	-82.411515
694.095875	-82.912332
694.256613	-80.486095
694.417426	-72.561676
694.578313	-70.372531
694.739274	-73.501117
694.900311	-75.661613
695.061421	-70.056860
695.222607	-69.496403
695.383868	-75.136377
695.545203	-85.546164
695.706613	-74.034423
695.868098	-75.307609
696.029658	-82.175936
696.191293	-75.583584
696.353003	-73.836151
696.514789	-75.880790
696.676649	-76.441758
696.838585	-78.615788
697.000596	-88.275833
697.162682	-76.137428
697.324844	-74.635039
697.487081	-80.465199
697.649394	-75.809011
697.811782	-70.824022
697.974246	-71.107070
698.136786	-76.331446
698.299401	-80.791810
698.462092	-75.509275
698.624859	-71.997107
698.787702	-70.370625
698.950621	-71.751094
699.113616	-73.135040
699.276686	-68.715170
699.439833	-67.063594
699.603056	-70.022938
699.766355	-79.804021
699.929731	-73.555062
700.093183	-73.124194
700.256711	-85.045080
700.420315	-78.311866
700.583996	-75.393642
700.747754	-78.274704
700.911588	-74.195822
701.075499	-74.345543
701.239486	-85.130905
701.403550	-72.497657
701.567691	-69.986715
701.731909	-73.483928
701.896203	-71.597251
702.060575	-67.563870
702.225024	-68.778651
702.389549	-76.095351
702.554152	-73.901012
702.718832	-73.726789
702.883589	-92.427944
703.048424	-73.487792
703.213335	-71.690692
703.378324	-76.031698
703.543391	-72.076201
703.708535	-69.388442
703.873757	-73.203256
704.039056	-83.488464
704.204433	-76.341193
704.369887	-82.353260
704.535420	-74.540656
704.701030	-70.210997
704.866718	-73.948579
705.032484	-79.593518
705.198328	-70.684306
705.364250	-71.814205
705.530250	-77.272595
705.696328	-70.722947
705.862485	-70.669968
706.028720	-74.352263
706.195033	-69.468498
706.361424	-68.475828
706.527894	-71.441845
706.694442	-68.814810
706.861069	-66.364936
707.027775	-67.243885
707.194559	-68.047870
707.361422	-67.596749
707.528363	-70.427278
707.695384	-79.421449
707.862483	-76.575108
708.029661	-78.338852
708.196918	-75.661305
708.364254	-69.839096
708.531670	-69.016504
708.699164	-68.601416
708.866738	-66.548483
709.034391	-67.172686
709.202123	-70.120824
709.369935	-67.357182
709.537826	-65.418321
709.705796	-66.380893
709.873847	-67.365217
710.041976	-68.180038
710.210186	-73.531855
710.378475	-77.881824
710.546844	-70.040125
710.715292	-70.057900
710.883821	-69.480655
711.052429	-66.639628
711.221118	-66.794334
711.389887	-67.787091
711.558735	-66.799437
711.727664	-68.653175
711.896673	-73.646512
712.065763	-69.270405
712.234932	-67.716026
712.404183	-67.272664
712.573513	-65.452774
712.742924	-65.533338
712.912416	-67.082504
713.081988	-65.564745
713.251641	-65.252081
713.421375	-68.165301
713.591190	-66.862376
713.761085	-65.928847
713.931061	-68.275792
714.101119	-67.405968
714.271257	-67.221472
714.441476	-72.374642
714.611777	-67.567829
714.782159	-64.874236
714.952622	-66.208199
715.123166	-65.180888
715.293792	-64.143312
715.464499	-66.361021
715.635288	-65.500960
715.806158	-63.768463
715.977110	-65.849340
716.148143	-67.405563
716.319259	-66.040612
716.490456	-67.470783
716.661735	-65.727778
716.833096	-63.864840
717.004538	-65.061299
717.176063	-65.234628
717.347670	-64.321952
717.519359	-66.352742
717.691130	-67.704533
717.862984	-66.371554
718.034920	-67.753327
718.206938	-65.664202
718.379039	-63.270000
718.551222	-64.058383
718.723488	-64.104161
718.895836	-63.086362
719.068267	-64.657684
719.240781	-66.950449
719.413377	-66.832454
719.586057	-68.437193
719.758819	-67.207696
719.931664	-64.033672
720.104593	-63.874538
720.277604	-64.080470
720.450699	-62.818530
720.623876	-62.624220
720.797137	-62.715689
720.970482	-62.077344
721.143910	-62.613171
721.317421	-64.001545
721.491016	-63.751474
721.664694	-64.407653
721.838456	-66.421398
722.012302	-66.089330
722.186231	-65.947076
722.360244	-64.305433
722.534342	-61.765801
722.708523	-61.409532
722.882788	-62.342582
723.057137	-62.539295
723.231570	-63.549047
723.406088	-66.410584
723.580689	-66.313595
723.755375	-66.090797
723.930146	-65.701252
724.105000	-62.287371
724.279940	-61.472690
724.454963	-62.355485
724.630072	-62.033825
724.805265	-63.057809
724.980543	-65.171775
725.155905	-63.288825
725.331353	-63.030625
725.506885	-63.218037
725.682503	-61.635482
725.858205	-62.332372
726.033993	-63.662904
726.209865	-63.222797
726.385823	-64.402595
726.561866	-63.059181
726.737995	-60.642580
726.914209	-60.965156
727.090508	-62.077710
727.266893	-62.700240
727.443364	-64.460236
727.619920	-63.430223
727.796562	-61.598694
727.973290	-62.815304
728.150103	-65.112534
728.327003	-64.956212
728.503988	-64.101117
728.681060	-61.499633
728.858218	-60.218395
729.035461	-61.109228
729.212791	-62.057301
729.390208	-62.243164
729.567710	-63.199636
729.745299	-62.487751
729.922975	-61.321601
730.100737	-62.119974
730.278586	-62.981497
730.456521	-64.397147
730.634543	-69.232630
730.812652	-65.971889
730.990848	-62.408628
731.169130	-60.774456
731.347500	-59.304785
731.525957	-59.640909
731.704500	-61.949985
731.883131	-62.596969
732.061850	-63.024508
732.240655	-63.662616
732.419548	-61.636010
732.598528	-61.366287
732.777596	-61.084717
732.956751	-59.674172
733.135994	-61.142452
733.315325	-64.312430
733.494744	-64.606952
733.674250	-65.370114
733.853844	-62.753093
734.033526	-61.091403
734.213296	-62.494289
734.393154	-61.578711
734.573101	-60.328527
734.753135	-61.295990
734.933258	-61.076606
735.113469	-61.752275
735.293769	-63.494135
735.474157	-61.800838
735.654633	-62.426380
735.835198	-64.881567
736.015852	-64.247726
736.196594	-64.280345
736.377426	-61.344229
736.558346	-59.416835
736.739355	-59.922861
736.920453	-59.293312
737.101640	-58.708978
737.282916	-59.975877
737.464282	-60.300596
737.645736	-61.062254
737.827280	-63.614201
738.008914	-62.918210
738.190637	-63.571737
738.372449	-65.331978
738.554351	-63.553748
738.736342	-63.244121
738.918424	-62.743808
739.100595	-62.300308
739.282855	-63.874349
739.465206	-62.319833
739.647647	-60.358960
739.830178	-60.233990
740.012799	-60.366339
740.195510	-61.886246
740.378311	-65.366190
740.561203	-64.761730
740.744185	-64.473822
740.927258	-63.411009
741.110421	-60.912974
741.293674	-60.457139
741.477018	-60.163460
741.660453	-60.388115
741.843979	-62.982530
742.027596	-63.320378
742.211303	-62.293129
742.395102	-62.739119
742.578991	-61.614078
742.762972	-61.707392
742.947044	-61.667209
743.131207	-60.709551
743.315461	-62.004065
743.499807	-61.979431
743.684244	-60.652992
743.868773	-60.934103
744.053394	-61.116406
744.238106	-62.713736
744.422910	-64.988981
744.607805	-62.880412
744.792793	-63.077906
744.977872	-64.294270
745.163044	-63.954363
745.348307	-63.367850
745.533663	-60.920639
745.719111	-60.898167
745.904651	-63.724726
746.090283	-63.477144
746.276008	-62.637969
746.461826	-60.851133
746.647735	-59.790664
746.833738	-61.048757
747.019833	-61.186717
747.206021	-61.504681
747.392302	-64.985097
747.578676	-67.840013
747.765143	-67.015103
747.951703	-61.621151
748.138356	-59.717451
748.325102	-60.876232
748.511941	-61.945209
748.698874	-62.936555
748.885900	-63.177754
749.073019	-62.469623
749.260232	-65.137756
749.447539	-64.180471
749.634939	-61.966618
749.822433	-62.796437
750.010021	-63.612569
750.197703	-67.453880
750.385479	-64.503003
750.573348	-61.172678
750.761312	-61.979345
750.949370	-62.306688
751.137523	-62.778231
751.325769	-62.039154
751.514110	-60.758014
751.702545	-62.961593
751.891075	-63.729734
752.079700	-62.205486
752.268419	-62.501505
752.457233	-63.075838
752.646142	-67.151464
752.835145	-66.629381
753.024244	-62.756894
753.213437	-63.875596
753.402726	-64.456565
753.592110	-64.592403
753.781589	-61.931388
753.971163	-59.832686
754.160833	-61.699780
754.350598	-64.096017
754.540459	-64.107146
754.730415	-63.640867
754.920467	-61.519857
755.110615	-62.404267
755.300858	-62.981346
755.491198	-62.713070
755.681633	-66.382369
755.872164	-64.887910
756.062792	-61.966423
756.253515	-59.368165
756.444335	-57.899292
756.635252	-60.187599
756.826264	-64.398860
757.017373	-67.231278
757.208579	-69.143496
757.399881	-64.532355
757.591280	-64.907497
757.782776	-61.479923
757.974368	-60.007636
758.166058	-62.087944
758.357844	-62.094980
758.549728	-63.478818
758.741708	-61.269403
758.933786	-59.927231
759.125961	-62.359527
759.318233	-61.455871
759.510603	-61.677610
759.703071	-62.014333
759.895635	-61.569824
760.088298	-65.116666
760.281058	-61.793049
760.473916	-61.359965
760.666872	-61.988507
760.859926	-60.496118
761.053078	-61.447553
761.246328	-59.138037
761.439676	-59.523740
761.633122	-60.527260
761.826667	-58.218663
762.020310	-59.289432
762.214052	-60.201119
762.407892	-63.397319
762.601831	-64.034737
762.795868	-58.575896
762.990004	-58.400092
763.184239	-57.666745
763.378573	-58.512062
763.573006	-60.893101
763.767538	-60.284436
763.962169	-63.636979
764.156900	-58.877871
764.351729	-56.840002
764.546658	-56.711200
764.741687	-57.089403
764.936815	-62.306218
765.132042	-61.439528
765.327370	-59.650221
765.522797	-58.602487
765.718324	-57.061949
765.913950	-57.235459
766.109677	-55.542118
766.305504	-56.026024
766.501431	-57.634943
766.697458	-56.880701
766.893586	-57.913504
767.089814	-57.555825
767.286142	-59.322364
767.482571	-59.681896
767.679100	-57.381790
767.875730	-58.160195
768.072461	-57.227577
768.269293	-56.705305
768.466225	-55.178114
768.663259	-54.433513
768.860393	-56.885919
769.057629	-57.701368
769.254966	-57.259801
769.452404	-55.727083
769.649944	-55.026541
769.847585	-56.535486
770.045328	-55.437824
770.243172	-55.853975
770.441118	-56.545339
770.639166	-56.407750
770.837315	-56.236518
771.035567	-53.471282
771.233920	-53.806307
771.432376	-54.184478
771.630934	-54.879649
771.829594	-57.314664
772.028356	-56.162281
772.227220	-56.806896
772.426188	-53.852030
772.625257	-53.397461
772.824430	-54.070324
773.023705	-53.858698
773.223083	-55.198021
773.422563	-53.125822
773.622147	-53.651595
773.821834	-53.750693
774.021624	-53.397498
774.221517	-54.743529
774.421513	-54.026918
774.621613	-56.273526
774.821816	-54.674721
775.022122	-53.760366
775.222532	-53.247703
775.423046	-52.274771
775.623664	-53.468183
775.824385	-52.427974
776.025211	-53.034701
776.226140	-52.475046
776.427173	-51.671497
776.628311	-52.727076
776.829553	-52.794995
777.030899	-54.957007
777.232350	-54.133122
777.433905	-53.485277
777.635564	-53.264958
777.837328	-51.802291
778.039197	-51.984502
778.241171	-51.075732
778.443250	-52.342482
778.645433	-53.202041
778.847722	-51.962259
779.050116	-51.675294
779.252615	-50.380088
779.455219	-51.685438
779.657929	-52.115569
779.860744	-52.774922
780.063665	-53.275454
780.266691	-51.112810
780.469823	-51.292287
780.673061	-50.114990
780.876405	-51.948213
781.079855	-52.217460
781.283410	-51.419061
781.487072	-51.369269
781.690840	-50.177448
781.894715	-51.685738
782.098695	-50.376054
782.302783	-51.374082
782.506976	-51.675731
782.711277	-51.581535
782.915684	-52.013024
783.120198	-50.259534
783.324818	-51.533539
783.529546	-50.116875
783.734381	-50.945424
783.939322	-50.864232
784.144372	-50.928808
784.349528	-51.221648
784.554792	-49.416132
784.760163	-50.399585
784.965642	-49.644260
785.171228	-50.903817
785.376922	-50.549160
785.582724	-50.303697
785.788634	-50.669245
785.994651	-49.579053
786.200777	-50.794724
786.407011	-50.253019
786.613353	-51.159157
786.819804	-49.982585
787.026363	-49.191608
787.233030	-49.599065
787.439806	-49.172241
787.646691	-51.171267
787.853684	-50.766509
788.060786	-51.512523
788.267997	-49.479661
788.475317	-48.627833
788.682746	-48.914527
788.890285	-48.704234
789.097932	-50.630085
789.305689	-49.732089
789.513555	-51.147993
789.721531	-49.568631
789.929617	-49.319740
790.137812	-48.913023
790.346117	-48.815558
790.554531	-50.378558
790.763056	-49.284140
790.971691	-50.887137
791.180436	-49.220636
791.389291	-49.572555
791.598256	-47.994577
791.807332	-48.540046
792.016518	-49.746373
792.225815	-49.188458
792.435222	-49.398867
792.644740	-48.185826
792.854369	-50.409832
793.064109	-49.703239
793.273960	-50.464173
793.483922	-48.610364
793.693995	-48.125436
793.904180	-47.600961
794.114475	-47.504497
794.324882	-50.182392
794.535401	-50.527363
794.746031	-51.313335
794.956774	-48.523589
795.167627	-48.756784
795.378593	-47.646883
795.589671	-48.024187
795.800861	-48.801549
796.012162	-49.116648
796.223577	-49.485764
796.435103	-47.926012
796.646742	-49.229578
796.858493	-48.646283
797.070357	-49.555575
797.282334	-48.019303
797.494423	-48.611730
797.706626	-48.331251
797.918941	-47.900098
798.131369	-48.252664
798.343911	-48.245686
798.556566	-50.549065
798.769334	-49.170657
798.982215	-49.471703
799.195210	-47.087308
799.408319	-47.677509
799.621541	-47.435148
799.834877	-49.520984
800.048327	-49.604378
800.261890	-48.513426
800.475568	-47.679446
800.689360	-47.264813
800.903266	-48.665644
801.117287	-47.924558
801.331422	-49.637580
801.545671	-48.233509
801.760036	-48.889216
801.974514	-47.158122
802.189108	-48.416879
802.403816	-48.096761
802.618640	-48.535783
802.833578	-47.634751
803.048632	-47.276365
803.263800	-47.327575
803.479085	-47.146946
803.694484	-49.214898
803.909999	-48.710021
804.125630	-48.581875
804.341376	-46.463192
804.557239	-47.314099
804.773217	-46.837122
804.989311	-48.129764
805.205521	-48.331462
805.421847	-49.466351
805.638290	-47.826892
805.854849	-46.747478
806.071524	-46.792331
806.288316	-47.287760
806.505225	-48.735275
806.722250	-47.981232
806.939393	-48.226302
807.156652	-46.113129
807.374028	-46.315952
807.591521	-46.255968
807.809132	-49.102869
808.026859	-48.367325
808.244705	-47.755724
808.462667	-46.329466
808.680748	-46.810344
808.898946	-46.720860
809.117261	-47.087614
809.335695	-47.653214
809.554246	-46.948688
809.772916	-46.595819
809.991704	-46.037119
810.210610	-47.735620
810.429634	-47.387136
810.648777	-48.441197
810.868039	-46.624492
811.087419	-46.451442
811.306918	-44.829917
811.526535	-46.415727
811.746272	-47.239223
811.966127	-48.995551
812.186102	-46.594574
812.406196	-46.189935
812.626409	-44.920510
812.846742	-45.434127
813.067194	-46.380404
813.287766	-47.837453
813.508457	-46.948026
813.729269	-45.534472
813.950200	-45.429612
814.171251	-46.020994
814.392422	-47.567679
814.613714	-46.804103
814.835126	-45.926999
815.056658	-44.321868
815.278311	-44.956457
815.500084	-45.408262
815.721978	-47.646261
815.943993	-46.610175
816.166128	-46.739093
816.388385	-44.891771
816.610762	-44.839161
816.833261	-44.226666
817.055881	-46.205440
817.278623	-46.374885
817.501486	-46.165315
817.724471	-44.329320
817.947577	-44.588903
818.170805	-44.682747
818.394155	-46.253695
818.617627	-46.398811
818.841221	-45.457011
819.064937	-43.724768
819.288775	-43.979311
819.512736	-45.182957
819.736819	-46.120997
819.961025	-45.924915
820.185354	-45.228597
820.409805	-44.181346
820.634379	-43.543784
820.859076	-44.333309
821.083897	-45.135701
821.308840	-45.379176
821.533907	-44.421374
821.759097	-44.604297
821.984411	-44.159155
822.209848	-44.336897
822.435409	-44.038284
822.661093	-44.841079
822.886902	-44.098482
823.112834	-44.345706
823.338891	-43.943337
823.565072	-44.623749
823.791377	-44.227558
824.017807	-45.206240
824.244361	-44.139964
824.471039	-43.391007
824.697843	-42.576898
824.924771	-44.101247
825.151824	-44.468736
825.379002	-44.788943
825.606306	-43.545683
825.833734	-43.606001
826.061288	-42.980761
826.288967	-43.682910
826.516772	-43.413997
826.744703	-43.880553
826.972759	-43.435209
827.200941	-44.091425
827.429249	-43.318894
827.657683	-43.400650
827.886243	-43.268496
828.114930	-44.210101
828.343743	-43.481107
828.572682	-43.068274
828.801748	-42.207982
829.030941	-42.543254
829.260260	-43.024867
829.489706	-44.812239
829.719280	-44.140194
829.948980	-42.830555
830.178808	-41.737030
830.408763	-42.146977
830.638845	-42.605157
830.869055	-43.776536
831.099393	-43.510862
831.329858	-42.991011
831.560451	-42.469756
831.791173	-43.146140
832.022022	-42.971839
832.252999	-42.740015
832.484105	-42.436457
832.715339	-42.383621
832.946702	-41.922145
833.178193	-42.502740
833.409813	-43.574837
833.641561	-43.744802
833.873439	-42.539251
834.105445	-41.689123
834.337581	-41.499116
834.569846	-41.944477
834.802241	-43.162367
835.034764	-43.516758
835.267418	-42.886926
835.500201	-42.049393
835.733114	-42.248397
835.966157	-41.638234
836.199329	-41.909845
836.432632	-42.265260
836.666065	-42.876477
836.899629	-41.853885
837.133323	-42.186180
837.367147	-42.154239
837.601102	-42.493340
837.835188	-41.824272
838.069405	-42.193226
838.303752	-41.748139
838.538231	-41.996402
838.772841	-42.040377
839.007582	-42.539303
839.242455	-42.272976
839.477459	-41.983637
839.712595	-41.296491
839.947863	-40.871589
840.183263	-41.469707
840.418794	-42.375662
840.654458	-42.787600
840.890254	-42.118365
841.126182	-41.896001
841.362242	-40.893852
841.598435	-40.913751
841.834761	-41.310845
842.071220	-42.753973
842.307811	-42.403145
842.544536	-41.773897
842.781393	-40.717536
843.018384	-40.981489
843.255508	-41.439000
843.492765	-41.940876
843.730156	-41.419908
843.967681	-41.275424
844.205339	-41.437336
844.443132	-41.550617
844.681058	-41.768816
844.919118	-41.506966
845.157313	-41.284286
845.395642	-40.881275
845.634105	-41.199384
845.872703	-40.840710
846.111436	-41.202970
846.350303	-41.433221
846.589306	-41.441547
846.828443	-40.668705
847.067716	-40.955523
847.307124	-41.415403
847.546667	-41.288414
847.786345	-41.069402
848.026160	-40.777865
848.266110	-40.544128
848.506195	-40.392826
848.746417	-40.920063
848.986775	-40.888117
849.227269	-41.182980
849.467899	-41.331192
849.708666	-40.814351
849.949569	-39.887602
850.190609	-40.045990
850.431785	-40.814153
850.673099	-41.301528
850.914549	-41.090019
851.156137	-40.160716
851.397861	-39.576203
851.639723	-40.021286
851.881723	-40.906171
852.123860	-40.568558
852.366135	-40.326379
852.608547	-40.455381
852.851098	-40.212397
853.093786	-39.591907
853.336613	-39.773567
853.579578	-40.164555
853.822681	-40.320067
854.065923	-40.289274
854.309304	-40.092534
854.552823	-39.800161
854.796481	-39.600710
855.040278	-39.708038
855.284215	-39.723362
855.528290	-39.932615
855.772505	-39.799220
856.016859	-39.647381
856.261353	-39.564252
856.505987	-39.416228
856.750760	-39.267921
856.995673	-39.510339
857.240727	-39.747946
857.485920	-39.351831
857.731254	-39.133038
857.976729	-39.163113
858.222343	-39.304263
858.468099	-39.030049
858.713995	-38.886500
858.960032	-39.069735
859.206211	-39.602186
859.452530	-39.249773
859.698991	-38.396639
859.945593	-38.423599
860.192336	-38.826593
860.439222	-39.008753
860.686248	-38.792281
860.933417	-38.858022
861.180728	-38.431472
861.428181	-38.277479
861.675776	-38.359106
861.923514	-38.204740
862.171394	-38.383929
862.419417	-38.628053
862.667582	-38.577767
862.915890	-38.150218
863.164342	-38.022456
863.412936	-37.581223
863.661674	-37.659284
863.910555	-38.482912
864.159579	-38.417607
864.408747	-37.739067
864.658059	-37.510374
864.907515	-37.607548
865.157114	-37.324320
865.406858	-37.581617
865.656746	-37.840023
865.906778	-37.642343
866.156955	-37.507729
866.407277	-37.179643
866.657743	-36.990022
866.908354	-37.054467
867.159110	-37.443373
867.410011	-37.351487
867.661057	-37.282720
867.912249	-37.010570
868.163586	-36.466033
868.415069	-36.719194
868.666697	-37.106062
868.918472	-37.056644
869.170392	-36.742083
869.422458	-36.602382
869.674671	-36.351055
869.927030	-36.258234
870.179536	-36.688009
870.432188	-36.711577
870.684987	-36.442777
870.937933	-36.204484
871.191026	-36.139494
871.444266	-36.093191
871.697653	-35.949345
871.951188	-36.137827
872.204870	-36.312871
872.458700	-36.046413
872.712677	-35.559218
872.966803	-35.568326
873.221076	-35.794180
873.475498	-35.751581
873.730068	-35.831479
873.984787	-35.657280
874.239654	-35.456760
874.494669	-35.363855
874.749834	-35.275893
875.005147	-35.497568
875.260610	-35.489894
875.516222	-35.172867
875.771983	-35.088893
876.027894	-35.229779
876.283954	-34.979140
876.540164	-34.717364
876.796524	-35.169858
877.053033	-35.140212
877.309693	-34.748643
877.566503	-34.796423
877.823464	-34.596744
878.080575	-34.584810
878.337837	-34.792737
878.595249	-34.673887
878.852813	-34.562893
879.110528	-34.532476
879.368393	-34.288859
879.626410	-34.152442
879.884579	-34.473597
880.142899	-34.385830
880.401371	-34.170255
880.659994	-34.367963
880.918770	-34.058252
881.177698	-33.887156
881.436778	-34.134515
881.696010	-34.050469
881.955395	-33.964180
882.214933	-33.949942
882.474623	-33.721297
882.734467	-33.532555
882.994463	-33.814804
883.254613	-33.983049
883.514916	-33.753047
883.775372	-33.640881
884.035982	-33.328180
884.296746	-33.367351
884.557664	-33.723201
884.818735	-33.450897
885.079961	-33.329368
885.341341	-33.470750
885.602876	-33.371547
885.864565	-33.106503
886.126409	-32.951222
886.388407	-33.350749
886.650561	-33.514526
886.912870	-32.981310
887.175334	-32.711784
887.437953	-32.934433
887.700728	-33.177718
887.963658	-32.920679
888.226745	-32.757568
888.489987	-32.990945
888.753385	-32.951671
889.016940	-32.605046
889.280651	-32.483259
889.544518	-32.839125
889.808543	-32.942149
890.072723	-32.552927
890.337061	-32.528147
890.601556	-32.547730
890.866208	-32.538699
891.131017	-32.606983
891.395984	-32.312737
891.661109	-32.513982
891.926391	-32.808120
892.191831	-32.154431
892.457429	-32.041118
892.723186	-32.557553
892.989100	-32.471900
893.255173	-32.207608
893.521405	-32.210518
893.787796	-32.249788
894.054345	-32.248784
894.321053	-32.106337
894.587921	-32.029121
894.854948	-32.289695
895.122134	-32.323273
895.389480	-31.869075
895.656986	-31.832608
895.924651	-32.092201
896.192477	-32.078647
896.460463	-32.095223
896.728609	-31.847390
896.996915	-31.721471
897.265382	-32.069363
897.534010	-31.755807
897.802799	-31.564759
898.071749	-32.147927
898.340860	-31.890096
898.610132	-31.415228
898.879566	-31.680426
899.149162	-31.778437
899.418919	-31.690529
899.688838	-31.664596
899.958919	-31.590007
900.229162	-31.606344
900.499568	-31.490487
900.770136	-31.466739
901.040867	-31.613915
901.311761	-31.497085
901.582817	-31.380462
901.854037	-31.354584
902.125420	-31.374313
902.396966	-31.544593
902.668676	-31.411578
902.940550	-31.158706
903.212587	-31.233914
903.484788	-31.349071
903.757153	-31.350544
904.029683	-31.257501
904.302377	-31.270643
904.575236	-31.311413
904.848259	-30.959297
905.121447	-30.988979
905.394800	-31.508594
905.668319	-31.254218
905.942002	-30.923127
906.215852	-31.053361
906.489866	-30.922445
906.764047	-31.040378
907.038393	-31.225705
907.312906	-30.907546
907.587584	-30.922770
907.862429	-30.927441
908.137441	-30.788023
908.412619	-31.057917
908.687964	-30.917375
908.963476	-30.792204
909.239155	-31.015349
909.515002	-30.610258
909.791015	-30.745395
910.067197	-31.299933
910.343546	-30.609468
910.620063	-30.443796
910.896748	-31.013501
911.173601	-30.756696
911.450623	-30.655450
911.727813	-30.892205
912.005171	-30.747365
912.282699	-30.583741
912.560395	-30.510856
912.838261	-30.877627
913.116296	-31.002099
913.394500	-30.350805
913.672874	-30.513419
913.951418	-30.940726
914.230131	-30.524262
914.509015	-30.633630
914.788068	-30.800650
915.067292	-30.402271
915.346687	-30.590035
915.626252	-30.824025
915.905988	-30.594662
916.185895	-30.685713
916.465973	-30.696679
916.746223	-30.363785
917.026644	-30.478150
917.307236	-30.931623
917.588000	-30.768849
917.868937	-30.318084
918.150045	-30.372175
918.431325	-30.662492
918.712778	-30.678797
918.994404	-30.406277
919.276202	-30.424830
919.558173	-30.701400
919.840317	-30.344178
920.122634	-30.320852
920.405125	-30.908907
920.687789	-30.422358
920.970627	-30.051853
921.253639	-30.497883
921.536824	-30.506662
921.820184	-30.518920
922.103718	-30.514018
922.387427	-30.283490
922.671310	-30.406678
922.955368	-30.377405
923.239601	-30.567619
923.524009	-30.579218
923.808592	-29.992895
924.093351	-30.393165
924.378285	-30.622390
924.663396	-30.123984
924.948682	-30.616525
925.234144	-30.427616
925.519782	-29.908079
925.805597	-30.508577
926.091589	-30.527572
926.377757	-30.216810
926.664102	-30.272959
926.950624	-30.188774
927.237323	-30.390888
927.524200	-30.333786
927.811255	-30.274869
928.098487	-30.433315
928.385897	-30.059869
928.673485	-30.190077
928.961251	-30.591774
929.249196	-30.252362
929.537319	-30.112377
929.825621	-30.189261
930.114102	-30.232400
930.402762	-30.343049
930.691601	-30.174196
930.980620	-30.013177
931.269818	-30.128071
931.559196	-30.168084
931.848753	-30.082917
932.138491	-30.133641
932.428409	-29.984308
932.718508	-29.851326
933.008787	-30.079865
933.299246	-29.997830
933.589887	-29.992295
933.880709	-29.956952
934.171712	-29.629806
934.462896	-30.104261
934.754262	-30.110819
935.045810	-29.640070
935.337539	-29.994435
935.629451	-29.761059
935.921545	-29.834391
936.213822	-30.210301
936.506281	-29.612376
936.798922	-29.809307
937.091747	-29.955183
937.384755	-29.750257
937.677946	-30.011128
937.971321	-29.661711
938.264879	-29.811132
938.558621	-29.823578
938.852547	-29.528768
939.146657	-30.152621
939.440952	-29.629739
939.735431	-29.327437
940.030095	-30.069327
940.324943	-29.721096
940.619977	-29.571905
940.915196	-29.705821
941.210600	-29.597697
941.506189	-29.765356
941.801965	-29.660846
942.097926	-29.725612
942.394074	-29.646946
942.690407	-29.475288
942.986927	-29.851914
943.283634	-29.773982
943.580527	-29.523106
943.877608	-29.640750
944.174875	-29.624509
944.472330	-29.686651
944.769972	-29.727297
945.067802	-29.443235
945.365820	-29.564368
945.664026	-29.711737
945.962420	-29.322779
946.261002	-29.677175
946.559773	-29.581446
946.858733	-29.016315
947.157881	-29.807365
947.457219	-29.520200
947.756746	-28.977412
948.056462	-29.625560
948.356368	-29.250964
948.656464	-29.256351
948.956749	-29.478867
949.257225	-29.107587
949.557891	-29.235980
949.858748	-29.198049
950.159796	-29.371521
950.461034	-29.103128
950.762463	-29.001443
951.064084	-29.404721
951.365896	-28.846046
951.667900	-29.220246
951.970095	-29.214928
952.272483	-28.618570
952.575063	-29.317665
952.877835	-28.975383
953.180799	-28.776652
953.483956	-29.053821
953.787307	-28.645425
954.090850	-28.977056
954.394586	-28.828042
954.698516	-28.571680
955.002640	-28.870715
955.306957	-28.590973
955.611469	-28.584138
955.916174	-28.788730
956.221074	-28.474272
956.526169	-28.399988
956.831458	-28.700141
957.136942	-28.507099
957.442622	-28.325942
957.748496	-28.409623
958.054567	-28.454910
958.360833	-28.490091
958.667294	-28.092904
958.973952	-28.351734
959.280806	-28.500990
959.587857	-27.964100
959.895104	-28.323317
960.202548	-28.301100
960.510189	-28.016713
960.818027	-28.059885
961.126062	-28.287051
961.434295	-28.235478
961.742726	-27.560803
962.051355	-28.263494
962.360182	-28.288954
962.669207	-27.554239
962.978431	-28.102938
963.287854	-27.913474
963.597475	-27.959742
963.907296	-27.826722
964.217315	-27.645509
964.527535	-28.152815
964.837954	-27.521953
965.148573	-27.692736
965.459392	-28.067400
965.770411	-27.440063
966.081630	-27.570297
966.393051	-27.922377
966.704672	-27.606201
967.016494	-27.307238
967.328517	-27.714096
967.640742	-27.645594
967.953169	-27.328778
968.265797	-27.514949
968.578627	-27.414201
968.891660	-27.322519
969.204895	-27.485324
969.518332	-27.316316
969.831972	-27.002132
970.145816	-27.534032
970.459862	-27.226834
970.774112	-26.820625
971.088565	-27.473638
971.403223	-26.936828
971.718084	-26.957528
972.033149	-27.150839
972.348419	-26.844936
972.663893	-26.934875
972.979572	-26.761967
973.295456	-27.092977
973.611546	-26.532900
973.927840	-26.589546
974.244340	-27.086464
974.561046	-26.328859
974.877958	-26.609314
975.195076	-26.599951
975.512401	-26.432649
975.829932	-26.503340
976.147670	-26.301205
976.465615	-26.371445
976.783767	-26.242539
977.102126	-26.357781
977.420693	-26.098144
977.739468	-26.055252
978.058451	-26.284883
978.377642	-25.940398
978.697041	-25.957930
979.016649	-26.030975
979.336466	-25.841713
979.656492	-25.912031
979.976727	-25.849336
980.297171	-25.620903
980.617825	-25.853019
980.938689	-25.667616
981.259763	-25.597479
981.581048	-25.598543
981.902542	-25.474375
982.224248	-25.725732
982.546164	-25.231980
982.868291	-25.511399
983.190630	-25.451972
983.513180	-25.163814
983.835942	-25.557360
984.158916	-24.978717
984.482101	-25.351505
984.805500	-25.333432
985.129110	-24.936819
985.452934	-25.166798
985.776970	-25.092456
986.101220	-25.129066
986.425683	-24.858019
986.750359	-25.080662
987.075250	-24.911155
987.400354	-24.849051
987.725673	-25.064248
988.051206	-24.614122
988.376954	-24.904253
988.702916	-24.946587
989.029094	-24.518008
989.355487	-24.784511
989.682095	-24.856128
990.008919	-24.492671
990.335959	-24.737826
990.663216	-24.584473
990.990688	-24.528849
991.318377	-24.704648
991.646283	-24.360262
991.974406	-24.538670
992.302746	-24.524576
992.631304	-24.431274
992.960079	-24.282677
993.289072	-24.456299
993.618283	-24.370659
993.947713	-24.224869
994.277361	-24.384380
994.607227	-24.042993
994.937313	-24.457902
995.267618	-24.016454
995.598142	-24.043395
995.928886	-24.362491
996.259849	-23.840496
996.591033	-24.159428
996.922437	-23.932916
997.254061	-23.952934
997.585906	-23.992592
997.917972	-23.799781
998.250260	-23.873399
998.582768	-23.810418
998.915498	-23.842220
999.248450	-23.641292
999.581624	-23.639594
999.915020	-23.847448
1000.248639	-23.471335
1000.582480	-23.539335
1000.916545	-23.710041
1001.250832	-23.311843
1001.585343	-23.616168
1001.920077	-23.297217
1002.255035	-23.403432
1002.590218	-23.479211
1002.925624	-23.094455
1003.261255	-23.405183
1003.597111	-23.198691
1003.933192	-23.231531
1004.269497	-23.062032
1004.606029	-23.198076
1004.942785	-23.113422
1005.279768	-23.007350
1005.616977	-23.047245
1005.954412	-22.933706
1006.292074	-23.118568
1006.629962	-22.749391
1006.968077	-22.978966
1007.306420	-22.961045
1007.644990	-22.754220
1007.983787	-22.860649
1008.322813	-22.788752
1008.662067	-22.803072
1009.001549	-22.758754
1009.341259	-22.649273
1009.681199	-22.831406
1010.021367	-22.658251
1010.361765	-22.583105
1010.702392	-22.730220
1011.043250	-22.540685
1011.384337	-22.698580
1011.725654	-22.445542
1012.067202	-22.645555
1012.408980	-22.531939
1012.750989	-22.438237
1013.093230	-22.489153
1013.435702	-22.474531
1013.778405	-22.454387
1014.121341	-22.274029
1014.464508	-22.570665
1014.807908	-22.213437
1015.151540	-22.417072
1015.495405	-22.243074
1015.839503	-22.262490
1016.183835	-22.381863
1016.528400	-22.031543
1016.873198	-22.360667
1017.218231	-22.166900
1017.563498	-22.073996
1017.908999	-22.242330
1018.254735	-22.031333
1018.600707	-22.180026
1018.946913	-21.996491
1019.293354	-22.026490
1019.640032	-22.152005
1019.986945	-21.803053
1020.334094	-22.143910
1020.681480	-21.848581
1021.029102	-22.005344
1021.376961	-21.849825
1021.725058	-21.836576
1022.073391	-21.972692
1022.421962	-21.657446
1022.770772	-21.905782
1023.119819	-21.735068
1023.469104	-21.735547
1023.818628	-21.681261
1024.168391	-21.711144
1024.518393	-21.619828
1024.868634	-21.620670
1025.219115	-21.566225
1025.569836	-21.570244
1025.920796	-21.539259
1026.271997	-21.417143
1026.623438	-21.545890
1026.975121	-21.448196
1027.327044	-21.285183
1027.679208	-21.526459
1028.031614	-21.258519
1028.384262	-21.350585
1028.737152	-21.323249
1029.090284	-21.217857
1029.443659	-21.384999
1029.797276	-21.061621
1030.151137	-21.361986
1030.505240	-21.114251
1030.859587	-21.168691
1031.214178	-21.180965
1031.569013	-21.130815
1031.924093	-21.114181
1032.279417	-21.074914
1032.634985	-21.101290
1032.990799	-21.082657
1033.346858	-21.005611
1033.703162	-21.064596
1034.059712	-21.075126
1034.416509	-20.883904
1034.773551	-21.091244
1035.130841	-20.958661
1035.488377	-20.943499
1035.846160	-21.013325
1036.204190	-20.881381
1036.562468	-21.009193
1036.920994	-20.848590
1037.279768	-20.930199
1037.638790	-20.993961
1037.998061	-20.726171
1038.357581	-21.078559
1038.717350	-20.729924
1039.077368	-20.946969
1039.437636	-20.805252
1039.798154	-20.889267
1040.158922	-20.849505
1040.519940	-20.725613
1040.881209	-20.954106
1041.242729	-20.669396
1041.604501	-20.871890
1041.966524	-20.723425
1042.328798	-20.796378
1042.691325	-20.717153
1043.054103	-20.659094
1043.417135	-20.834317
1043.780419	-20.532917
1044.143956	-20.781126
1044.507746	-20.595724
1044.871791	-20.595134
1045.236088	-20.644473
1045.600641	-20.501830
1045.965447	-20.678274
1046.330508	-20.359024
1046.695824	-20.683157
1047.061395	-20.360534
1047.427222	-20.495718
1047.793304	-20.454358
1048.159642	-20.403605
1048.526237	-20.402399
1048.893088	-20.318375
1049.260196	-20.427196
1049.627561	-20.255535
1049.995183	-20.340207
1050.363063	-20.311256
1050.731201	-20.200384
1051.099597	-20.296510
1051.468251	-20.181234
1051.837164	-20.261234
1052.206336	-20.102105
1052.575767	-20.250859
1052.945458	-20.095383
1053.315409	-20.119285
1053.685619	-20.154487
1054.056090	-20.085673
1054.426821	-20.073395
1054.797814	-20.093602
1055.169067	-20.058562
1055.540582	-20.020016
1055.912359	-20.082405
1056.284398	-20.027106
1056.656698	-20.016131
1057.029262	-20.000962
1057.402088	-20.051045
1057.775177	-19.953823
1058.148530	-20.020331
1058.522146	-20.005030
1058.896027	-19.936494
1059.270171	-20.006481
1059.644580	-19.961493
1060.019254	-19.967242
1060.394193	-19.941416
1060.769397	-19.971465
1061.144867	-19.910577
1061.520602	-19.918718
1061.896604	-19.975994
1062.272872	-19.858074
1062.649407	-19.918666
1063.026210	-19.875148
1063.403279	-19.881963
1063.780616	-19.817797
1064.158221	-19.903213
1064.536094	-19.758159
1064.914235	-19.825899
1065.292645	-19.784463
1065.671325	-19.764763
1066.050273	-19.738859
1066.429491	-19.730324
1066.808979	-19.696774
1067.188738	-19.642704
1067.568766	-19.705145
1067.949066	-19.592272
1068.329636	-19.609995
1068.710478	-19.577926
1069.091592	-19.520406
1069.472977	-19.525063
1069.854635	-19.490834
1070.236565	-19.477540
1070.618768	-19.373221
1071.001243	-19.454419
1071.383993	-19.325503
1071.767016	-19.370534
1072.150313	-19.321537
1072.533884	-19.271198
1072.917730	-19.260935
1073.301850	-19.260491
1073.686246	-19.213054
1074.070917	-19.175826
1074.455864	-19.198249
1074.841087	-19.106854
1075.226586	-19.162858
1075.612362	-19.085530
1075.998415	-19.095410
1076.384745	-19.037358
1076.771353	-19.069420
1077.158238	-18.997747
1077.545401	-19.021278
1077.932843	-18.997081
1078.320564	-18.964101
1078.708564	-18.954331
1079.096842	-18.978287
1079.485401	-18.908766
1079.874240	-18.965081
1080.263358	-18.898575
1080.652757	-18.921682
1081.042438	-18.900490
1081.432399	-18.919885
1081.822641	-18.858805
1082.213166	-18.899460
1082.603972	-18.853406
1082.995061	-18.862133
1083.386433	-18.836604
1083.778087	-18.842166
1084.170025	-18.773284
1084.562246	-18.839761
1084.954751	-18.739402
1085.347541	-18.795145
1085.740615	-18.727841
1086.133973	-18.735346
1086.527617	-18.692798
1086.921546	-18.722171
1087.315761	-18.662198
1087.710262	-18.658969
1088.105050	-18.645662
1088.500124	-18.599178
1088.895485	-18.621249
1089.291134	-18.560357
1089.687070	-18.543823
1090.083294	-18.505107
1090.479806	-18.509223
1090.876607	-18.422851
1091.273696	-18.459286
1091.671075	-18.335224
1092.068744	-18.378421
1092.466702	-18.287940
1092.864950	-18.306183
1093.263489	-18.207651
1093.662319	-18.243165
1094.061440	-18.137195
1094.460852	-18.188133
1094.860555	-18.108624
1095.260551	-18.105379
1095.660840	-18.073704
1096.061421	-18.061516
1096.462295	-18.043654
1096.863462	-18.022708
1097.264923	-18.010368
1097.666678	-17.959935
1098.068727	-18.008210
1098.471071	-17.908515
1098.873710	-17.959355
1099.276644	-17.874339
1099.679874	-17.901965
1100.083400	-17.839601
1100.487222	-17.857133
1100.891340	-17.773895
1101.295756	-17.814747
1101.700468	-17.739074
1102.105478	-17.760509
1102.510787	-17.722504
1102.916393	-17.698036
1103.322298	-17.709124
1103.728502	-17.690454
1104.135005	-17.688739
1104.541807	-17.665733
1104.948909	-17.692991
1105.356312	-17.654487
1105.764015	-17.715192
1106.172019	-17.637207
1106.580324	-17.694403
1106.988931	-17.645528
1107.397840	-17.673376
1107.807051	-17.636222
1108.216564	-17.630266
1108.626380	-17.589372
1109.036500	-17.591243
1109.446923	-17.547687
1109.857649	-17.503099
1110.268680	-17.490821
1110.680016	-17.412839
1111.091657	-17.428244
1111.503602	-17.336610
1111.915854	-17.327413
1112.328411	-17.271993
1112.741275	-17.254181
1113.154445	-17.214579
1113.567922	-17.184744
1113.981706	-17.155509
1114.395798	-17.136103
1114.810198	-17.139811
1115.224906	-17.083381
1115.639923	-17.115144
1116.055249	-17.055071
1116.470884	-17.096052
1116.886829	-17.047873
1117.303084	-17.049514
1117.719650	-17.033840
1118.136526	-17.021117
1118.553713	-17.003741
1118.971212	-16.973233
1119.389022	-16.955613
1119.807145	-16.917780
1120.225580	-16.913828
1120.644328	-16.835256
1121.063389	-16.846928
1121.482763	-16.764874
1121.902452	-16.777889
1122.322454	-16.700480
1122.742771	-16.687668
1123.163404	-16.644130
1123.584351	-16.634205
1124.005614	-16.590325
1124.427193	-16.575563
1124.849089	-16.553906
1125.271301	-16.553222
1125.693830	-16.544352
1126.116677	-16.518043
1126.539842	-16.542935
1126.963324	-16.529751
1127.387126	-16.548607
1127.811246	-16.541423
1128.235685	-16.539905
1128.660444	-16.575979
1129.085522	-16.548610
1129.510922	-16.577070
1129.936641	-16.544781
1130.362682	-16.570233
1130.789044	-16.549027
1131.215728	-16.532402
1131.642734	-16.515555
1132.070063	-16.487123
1132.497714	-16.479122
1132.925689	-16.413437
1133.353987	-16.410328
1133.782610	-16.331474
1134.211556	-16.344778
1134.640827	-16.235988
1135.070424	-16.244559
1135.500345	-16.158158
1135.930593	-16.149123
1136.361166	-16.083798
1136.792067	-16.038852
1137.223294	-16.020005
1137.654848	-15.967410
1138.086730	-15.947627
1138.518940	-15.900648
1138.951479	-15.889748
1139.384346	-15.871879
1139.817543	-15.836063
1140.251069	-15.831470
1140.684925	-15.811573
1141.119111	-15.818311
1141.553628	-15.788144
1141.988475	-15.792285
1142.423655	-15.781802
1142.859166	-15.792166
1143.295009	-15.767264
1143.731185	-15.768785
1144.167694	-15.766400
1144.604536	-15.764574
1145.041711	-15.746179
1145.479221	-15.734935
1145.917065	-15.733174
1146.355245	-15.724429
1146.793759	-15.689553
1147.232609	-15.690088
1147.671795	-15.660222
1148.111317	-15.662629
1148.551177	-15.612651
1148.991373	-15.604160
1149.431907	-15.590503
1149.872779	-15.550308
1150.313989	-15.545328
1150.755538	-15.487726
1151.197426	-15.515093
1151.639653	-15.443615
1152.082220	-15.448089
1152.525128	-15.409845
1152.968376	-15.401447
1153.411966	-15.377113
1153.855897	-15.335438
1154.300169	-15.346660
1154.744784	-15.308313
1155.189742	-15.295582
1155.635042	-15.268737
1156.080687	-15.259920
1156.526674	-15.252761
1156.973007	-15.208638
1157.419683	-15.211978
1157.866705	-15.193678
1158.314072	-15.176575
1158.761786	-15.158475
1159.209845	-15.132509
1159.658251	-15.148822
1160.107004	-15.096491
1160.556104	-15.098029
1161.005553	-15.074731
1161.455349	-15.066816
1161.905494	-15.045476
1162.355989	-15.009641
1162.806832	-15.027131
1163.258026	-14.980622
1163.709570	-14.974284
1164.161464	-14.946110
1164.613710	-14.938847
1165.066307	-14.919670
1165.519256	-14.878480
1165.972558	-14.889717
1166.426212	-14.850707
1166.880219	-14.840566
1167.334580	-14.812644
1167.789295	-14.800429
1168.244364	-14.793034
1168.699788	-14.742713
1169.155567	-14.758489
1169.611702	-14.719862
1170.068193	-14.711466
1170.525041	-14.688069
1170.982245	-14.668575
1171.439807	-14.672246
1171.897726	-14.618968
1172.356004	-14.629259
1172.814640	-14.605074
1173.273635	-14.579015
1173.732989	-14.571848
1174.192703	-14.535909
1174.652778	-14.545528
1175.113213	-14.496766
1175.574009	-14.489852
1176.035167	-14.480374
1176.496687	-14.440371
1176.958569	-14.437962
1177.420814	-14.404373
1177.883422	-14.400047
1178.346394	-14.368773
1178.809730	-14.348233
1179.273430	-14.347089
1179.737496	-14.308188
1180.201927	-14.305792
1180.666723	-14.286862
1181.131886	-14.268061
1181.597416	-14.264383
1182.063312	-14.235798
1182.529576	-14.247041
1182.996209	-14.218291
1183.463209	-14.213295
1183.930579	-14.221770
1184.398317	-14.188373
1184.866426	-14.206638
1185.334904	-14.191774
1185.803754	-14.186575
1186.272974	-14.195119
1186.742566	-14.167504
1187.212529	-14.200625
1187.682865	-14.165435
1188.153574	-14.169253
1188.624656	-14.186941
1189.096112	-14.145758
1189.567942	-14.169434
1190.040147	-14.145300
1190.512726	-14.141493
1190.985681	-14.137486
1191.459012	-14.104886
1191.932720	-14.122176
1192.406804	-14.081350
1192.881265	-14.067227
1193.356104	-14.071694
1193.831322	-14.019941
1194.306918	-14.020310
1194.782893	-13.992654
1195.259248	-13.967208
1195.735982	-13.947279
1196.213097	-13.910434
1196.690593	-13.911174
1197.168471	-13.855265
1197.646730	-13.842910
1198.125371	-13.832414
1198.604395	-13.774849
1199.083803	-13.776387
1199.563594	-13.739576
1200.043769	-13.717119
1200.524329	-13.695724
1201.005273	-13.656981
1201.486604	-13.666034
1201.968320	-13.608955
1202.450422	-13.595782
1202.932912	-13.602848
1203.415789	-13.534900
1203.899054	-13.547673
1204.382707	-13.526969
1204.866748	-13.488815
1205.351179	-13.490386
1205.836000	-13.462216
1206.321211	-13.458212
1206.806812	-13.421651
1207.292805	-13.425896
1207.779189	-13.419285
1208.265965	-13.364789
1208.753134	-13.407185
1209.240696	-13.366409
1209.728651	-13.336052
1210.217000	-13.385068
1210.705744	-13.311734
1211.194883	-13.336082
1211.684417	-13.340915
1212.174347	-13.277311
1212.664673	-13.343229
1213.155396	-13.279793
1213.646516	-13.271773
1214.138034	-13.329533
1214.629951	-13.228783
1215.122266	-13.276332
1215.614980	-13.292940
1216.108095	-13.198969
1216.601609	-13.272767
1217.095524	-13.243781
1217.589841	-13.190649
1218.084559	-13.243834
1218.579679	-13.203453
1219.075202	-13.186253
1219.571128	-13.194558
1220.067458	-13.180352
1220.564191	-13.165831
1221.061330	-13.143591
1221.558874	-13.165984
1222.056823	-13.125189
1222.555178	-13.100973
1223.053940	-13.145742
1223.553109	-13.074391
1224.052686	-13.065929
1224.552671	-13.110696
1225.053065	-13.023393
1225.553867	-13.029972
1226.055079	-13.064238
1226.556702	-12.972667
1227.058735	-12.988404
1227.561179	-13.008068
1228.064035	-12.924461
1228.567303	-12.936978
1229.070983	-12.950710
1229.575077	-12.871752
1230.079585	-12.881754
1230.584506	-12.893420
1231.089842	-12.813598
1231.595594	-12.828538
1232.101761	-12.833436
1232.608345	-12.757217
1233.115345	-12.777002
1233.622762	-12.775144
1234.130597	-12.703613
1234.638851	-12.730671
1235.147523	-12.718701
1235.656615	-12.658390
1236.166126	-12.686452
1236.676058	-12.669190
1237.186411	-12.619890
1237.697185	-12.648431
1238.208381	-12.624917
1238.719999	-12.589980
1239.232040	-12.612342
1239.744505	-12.590486
1240.257394	-12.563764
1240.770708	-12.582423
1241.284446	-12.559546
1241.798610	-12.543692
1242.313201	-12.554021
1242.828218	-12.535409
1243.343662	-12.522938
1243.859534	-12.530596
1244.375834	-12.511557
1244.892563	-12.505893
1245.409721	-12.507510
1245.927309	-12.491657
1246.445327	-12.487659
1246.963777	-12.487444
1247.482657	-12.471799
1248.001970	-12.470955
1248.521716	-12.466487
1249.041894	-12.454793
1249.562506	-12.452917
1250.083553	-12.448495
1250.605034	-12.437764
1251.126950	-12.437503
1251.649302	-12.429514
1252.172091	-12.424776
1252.695316	-12.419733
1253.218979	-12.414247
1253.743079	-12.410709
1254.267619	-12.403700
1254.792597	-12.398037
1255.318015	-12.398280
1255.843874	-12.385896
1256.370173	-12.383946
1256.896913	-12.384083
1257.424095	-12.368374
1257.951720	-12.369286
1258.479787	-12.369421
1259.008298	-12.348065
1259.537254	-12.355393
1260.066654	-12.350433
1260.596499	-12.327564
1261.126790	-12.338694
1261.657527	-12.329652
1262.188711	-12.304483
1262.720342	-12.321730
1263.252422	-12.304278
1263.784950	-12.281849
1264.317928	-12.300927
1264.851355	-12.276667
1265.385232	-12.257650
1265.919560	-12.278918
1266.454340	-12.246288
1266.989572	-12.235434
1267.525256	-12.252065
1268.061394	-12.217699
1268.597985	-12.210815
1269.135031	-12.225698
1269.672531	-12.186897
1270.210487	-12.188956
1270.748899	-12.196093
1271.287768	-12.159462
1271.827094	-12.165463
1272.366877	-12.166812
1272.907119	-12.134014
1273.447820	-12.141554
1273.988981	-12.138080
1274.530601	-12.110924
1275.072683	-12.117028
1275.615226	-12.110668
1276.158230	-12.090018
1276.701697	-12.089868
1277.245627	-12.087476
1277.790021	-12.067821
1278.334879	-12.064977
1278.880202	-12.065909
1279.425991	-12.045860
1279.972245	-12.040449
1280.518966	-12.046327
1281.066155	-12.022828
1281.613811	-12.018130
1282.161936	-12.028253
1282.710529	-11.998595
1283.259593	-11.999251
1283.809126	-12.008888
1284.359131	-11.975082
1284.909607	-11.983681
1285.460555	-11.987755
1286.011976	-11.954605
1286.563870	-11.969168
1287.116237	-11.965318
1287.669080	-11.937671
1288.222397	-11.954112
1288.776191	-11.942565
1289.330460	-11.925340
1289.885207	-11.934985
1290.440431	-11.923357
1290.996133	-11.914046
1291.552314	-11.913701
1292.108975	-11.909417
1292.666115	-11.901088
1293.223737	-11.894157
1293.781839	-11.898658
1294.340424	-11.885686
1294.899491	-11.876935
1295.459041	-11.890418
1296.019075	-11.866971
1296.579593	-11.866981
1297.140597	-11.878624
1297.702086	-11.850472
1298.264061	-11.860700
1298.826524	-11.862292
1299.389474	-11.840773
1299.952912	-11.852905
1300.516839	-11.846032
1301.081255	-11.837148
1301.646162	-11.841033
1302.211559	-11.834384
1302.777448	-11.835810
1303.343829	-11.825499
1303.910702	-11.831784
1304.478069	-11.830168
1305.045930	-11.814249
1305.614285	-11.833446
1306.183136	-11.820567
1306.752483	-11.811555
1307.322326	-11.832706
1307.892666	-11.812524
1308.463504	-11.816799
1309.034841	-11.826842
1309.606677	-11.813738
1310.179012	-11.822153
1310.751849	-11.820280
1311.325186	-11.824855
1311.899025	-11.821975
1312.473366	-11.822585
1313.048211	-11.837347
1313.623559	-11.820984
1314.199412	-11.834493
1314.775770	-11.843799
1315.352634	-11.827572
1315.930004	-11.847714
1316.507881	-11.845804
1317.086266	-11.844883
1317.665159	-11.853229
1318.244562	-11.853927
1318.824474	-11.864145
1319.404897	-11.853465
1319.985831	-11.871669
1320.567276	-11.874467
1321.149234	-11.860803
1321.731706	-11.888951
1322.314691	-11.879030
1322.898190	-11.880513
1323.482205	-11.895150
1324.066736	-11.891684
1324.651783	-11.901016
1325.237347	-11.896480
1325.823430	-11.915309
1326.410031	-11.913469
1326.997151	-11.908754
1327.584791	-11.937521
1328.172952	-11.924990
1328.761634	-11.934476
1329.350839	-11.948288
1329.940566	-11.949777
1330.530817	-11.958677
1331.121592	-11.958807
1331.712891	-11.983619
1332.304716	-11.975462
1332.897068	-11.982570
1333.489946	-12.009030
1334.083352	-11.996502
1334.677287	-12.013517
1335.271750	-12.020116
1335.866744	-12.031724
1336.462268	-12.033283
1337.058323	-12.036033
1337.654910	-12.064454
1338.252029	-12.047639
1338.849682	-12.063661
1339.447869	-12.078213
1340.046591	-12.074971
1340.645848	-12.085365
1341.245641	-12.086747
1341.845972	-12.108354
1342.446840	-12.094934
1343.048246	-12.106886
1343.650191	-12.124806
1344.252677	-12.113529
1344.855702	-12.126967
1345.459269	-12.129144
1346.063379	-12.144143
1346.668030	-12.133468
1347.273226	-12.143186
1347.878965	-12.161777
1348.485250	-12.145794
1349.092080	-12.161388
1349.699456	-12.162964
1350.307380	-12.174584
1350.915851	-12.165956
1351.524871	-12.173615
1352.134441	-12.193715
1352.744560	-12.175708
1353.355231	-12.192870
1353.966453	-12.195217
1354.578227	-12.206042
1355.190555	-12.199847
1355.803436	-12.206971
1356.416872	-12.228842
1357.030863	-12.212109
1357.645411	-12.229185
1358.260515	-12.233061
1358.876177	-12.246156
1359.492397	-12.239328
1360.109176	-12.249036
1360.726516	-12.270074
1361.344416	-12.257866
1361.962877	-12.273626
1362.581901	-12.276363
1363.201487	-12.296438
1363.821637	-12.284892
1364.442352	-12.297684
1365.063632	-12.316939
1365.685478	-12.310003
1366.307891	-12.322364
1366.930871	-12.323362
1367.554420	-12.350162
1368.178538	-12.334530
1368.803226	-12.349891
1369.428485	-12.363953
1370.054315	-12.367229
1370.680717	-12.372818
1371.307693	-12.373437
1371.935242	-12.403878
1372.563366	-12.388871
1373.192065	-12.404458
1373.821341	-12.410544
1374.451193	-12.428768
1375.081623	-12.424573
1375.712632	-12.429984
1376.344221	-12.455308
1376.976389	-12.451344
1377.609139	-12.464516
1378.242470	-12.462627
1378.876384	-12.495395
1379.510881	-12.484991
1380.145963	-12.498788
1380.781629	-12.509923
1381.417881	-12.526735
1382.054720	-12.532406
1382.692147	-12.531617
1383.330161	-12.565879
1383.968765	-12.561801
1384.607959	-12.582943
1385.247743	-12.579893
1385.888119	-12.617395
1386.529087	-12.616639
1387.170648	-12.630543
1387.812804	-12.648012
1388.455554	-12.667384
1389.098899	-12.684836
1389.742842	-12.684125
1390.387381	-12.721167
1391.032519	-12.726873
1391.678256	-12.752503
1392.324592	-12.751938
1392.971529	-12.792014
1393.619068	-12.799169
1394.267208	-12.821153
1394.915952	-12.831767
1395.565300	-12.864108
1396.215253	-12.881830
1396.865812	-12.892262
1397.516977	-12.921678
1398.168749	-12.939026
1398.821130	-12.971842
1399.474120	-12.970152
1400.127719	-13.013777
1400.781930	-13.021644
1401.436752	-13.057893
1402.092186	-13.055857
1402.748234	-13.096548
1403.404897	-13.109468
1404.062174	-13.134265
1404.720067	-13.145213
1405.378577	-13.172608
1406.037705	-13.198103
1406.697451	-13.208742
1407.357817	-13.231953
1408.018803	-13.248381
1408.680410	-13.280909
1409.342639	-13.282603
1410.005492	-13.312741
1410.668968	-13.323129
1411.333068	-13.359418
1411.997795	-13.357109
1412.663147	-13.392092
1413.329127	-13.397488
1413.995736	-13.435334
1414.662973	-13.430468
1415.330840	-13.462614
1415.999339	-13.468844
1416.668469	-13.499458
1417.338232	-13.499872
1418.008628	-13.523118
1418.679659	-13.538760
1419.351325	-13.557570
1420.023628	-13.569503
1420.696568	-13.581449
1421.370145	-13.604197
1422.044362	-13.613653
1422.719219	-13.629740
1423.394717	-13.634588
1424.070856	-13.659507
1424.747638	-13.666707
1425.425064	-13.685869
1426.103134	-13.690311
1426.781850	-13.720347
1427.461212	-13.725594
1428.141221	-13.750728
1428.821878	-13.749008
1429.503185	-13.782533
1430.185141	-13.778710
1430.867749	-13.807999
1431.551008	-13.797105
1432.234920	-13.833577
1432.919486	-13.828667
1433.604707	-13.861593
1434.290583	-13.855060
1434.977116	-13.893435
1435.664307	-13.894388
1436.352156	-13.926267
1437.040664	-13.921300
1437.729833	-13.950722
1438.419663	-13.948643
1439.110156	-13.972250
1439.801312	-13.960564
1440.493132	-13.986931
1441.185617	-13.980825
1441.878768	-14.012755
1442.572586	-14.003074
1443.267072	-14.041518
1443.962228	-14.039805
1444.658053	-14.082383
1445.354549	-14.073151
1446.051717	-14.109478
1446.749558	-14.100426
1447.448073	-14.129470
1448.147263	-14.110732
1448.847128	-14.127923
1449.547671	-14.113542
1450.248891	-14.132310
1450.950789	-14.121966
1451.653368	-14.142509
1452.356627	-14.145262
1453.060568	-14.178452
1453.765192	-14.186385
1454.470500	-14.219598
1455.176492	-14.225676
1455.883170	-14.255200
1456.590534	-14.250692
1457.298586	-14.261758
1458.007327	-14.241099
1458.716758	-14.240304
1459.426880	-14.215666
1460.137693	-14.206409
1460.849199	-14.186302
1461.561398	-14.182989
1462.274293	-14.187222
1462.987883	-14.194463
1463.702170	-14.216810
1464.417155	-14.232991
1465.132838	-14.270636
1465.849222	-14.284227
1466.566306	-14.312502
1467.284093	-14.302688
1468.002582	-14.309074
1468.721775	-14.269558
1469.441674	-14.242938
1470.162278	-14.171704
1470.883590	-14.121639
1471.605609	-14.042432
1472.328338	-13.989914
1473.051777	-13.918283
1473.775928	-13.881166
1474.500790	-13.838555
1475.226367	-13.829032
1475.952657	-13.814001
1476.679663	-13.820274
1477.407386	-13.822713
1478.135826	-13.827028
1478.864985	-13.821435
1479.594863	-13.791510
1480.325463	-13.751206
1481.056784	-13.672399
1481.788828	-13.589247
1482.521597	-13.460160
1483.255090	-13.341231
1483.989309	-13.188701
1484.724256	-13.065283
1485.459931	-12.925208
1486.196336	-12.823837
1486.933471	-12.729776
1487.671337	-12.679055
1488.409937	-12.657308
1489.149270	-12.668646
1489.889337	-12.724351
1490.630141	-12.800781
1491.371682	-12.928771
1492.113961	-13.055687
1492.856979	-13.222672
1493.600738	-13.364902
1494.345238	-13.524584
1495.090481	-13.635504
1495.836467	-13.727806
1496.583198	-13.756306
1497.330675	-13.742320
1498.078899	-13.676256
1498.827872	-13.563473
1499.577593	-13.427908
1500.328065	-13.259364
1501.079289	-13.107449
1501.831265	-12.942859
1502.583995	-12.820811
1503.337480	-12.699554
1504.091721	-12.630289
1504.846719	-12.575772
1505.602475	-12.565046
1506.358991	-12.575481
1507.116268	-12.604870
1507.874306	-12.656658
1508.633108	-12.694788
1509.392673	-12.743029
1510.153004	-12.736360
1510.914101	-12.710701
1511.675965	-12.597417
1512.438599	-12.432734
1513.202002	-12.170739
1513.966176	-11.838214
1514.731122	-11.434000
1515.496842	-10.969186
1516.263336	-10.481963
1517.030607	-9.960484
1517.798654	-9.459398
1518.567479	-8.955484
1519.337083	-8.496518
1520.107468	-8.066151
1520.878634	-7.685609
1521.650584	-7.359389
1522.423317	-7.080625
1523.196836	-6.874389
1523.971141	-6.716483
1524.746233	-6.635989
1525.522115	-6.613365
1526.298786	-6.663797
1527.076249	-6.790315
1527.854504	-6.983577
1528.633553	-7.269444
1529.413397	-7.625789
1530.194037	-8.084892
1530.975474	-8.635597
1531.757709	-9.289409
1532.540745	-10.067875
1533.324581	-10.950084
1534.109220	-11.980637
1534.894662	-13.116201
1535.680909	-14.344053
1536.467961	-15.588787
1537.255821	-16.618538
1538.044489	-17.230476
1538.833967	-17.178516
1539.624256	-16.538680
1540.415357	-15.626178
1541.207271	-14.604625
1542.000000	-13.650360
1542.793545	-12.805710
1543.587907	-12.061563
1544.383087	-11.460205
1545.179088	-10.948708
1545.975909	-10.547650
1546.773552	-10.243317
1547.572019	-10.010231
1548.371311	-9.875219
1549.171428	-9.794688
1549.972373	-9.790543
1550.774147	-9.849871
1551.576751	-9.954248
1552.380185	-10.129032
1553.184453	-10.332503
1553.989554	-10.588726
1554.795490	-10.883485
1555.602263	-11.197596
1556.409873	-11.559916
1557.218322	-11.924597
1558.027612	-12.320901
1558.837743	-12.735920
1559.648717	-13.148668
1560.460536	-13.598897
1561.273200	-14.034138
1562.086710	-14.493234
1562.901069	-14.963535
1563.716278	-15.418742
1564.532337	-15.908371
1565.349249	-16.362570
1566.167014	-16.827593
1566.985634	-17.274160
1567.805111	-17.664777
1568.625444	-18.044843
1569.446637	-18.313806
1570.268690	-18.528581
1571.091605	-18.632366
1571.915382	-18.611195
1572.740024	-18.514691
1573.565532	-18.271689
1574.391907	-17.982046
1575.219150	-17.606260
1576.047262	-17.185856
1576.876246	-16.761926
1577.706103	-16.296156
1578.536833	-15.865745
1579.368439	-15.429393
1580.200922	-15.016022
1581.034282	-14.643177
1581.868522	-14.274567
1582.703643	-13.959690
1583.539646	-13.662718
1584.376532	-13.397522
1585.214304	-13.178434
1586.052962	-12.971065
1586.892508	-12.811655
1587.732943	-12.674088
1588.574269	-12.560289
1589.416487	-12.488016
1590.259599	-12.424113
1591.103605	-12.395633
1591.948508	-12.386482
1592.794309	-12.388667
1593.641009	-12.423781
1594.488609	-12.461042
1595.337112	-12.518305
1596.186518	-12.590116
1597.036829	-12.658801
1597.888047	-12.748252
1598.740172	-12.832664
1599.593207	-12.918892
1600.447153	-13.014021
1601.302010	-13.093572
1602.157782	-13.181188
1603.014469	-13.261687
1603.872072	-13.330168
1604.730593	-13.405662
1605.590034	-13.462873
1606.450397	-13.519523
1607.311681	-13.576466
1608.173890	-13.617285
1609.037024	-13.667987
1609.901085	-13.710437
1610.766075	-13.749329
1611.631995	-13.801465
1612.498846	-13.843554
1613.366630	-13.897088
1614.235349	-13.958554
1615.105004	-14.015256
1615.975596	-14.092074
1616.847128	-14.169395
1617.719600	-14.251559
1618.593014	-14.351687
1619.467372	-14.445277
1620.342675	-14.551529
1621.218924	-14.665959
1622.096122	-14.772717
1622.974270	-14.893801
1623.853369	-15.008432
1624.733420	-15.116449
1625.614427	-15.232329
1626.496389	-15.329987
1627.379308	-15.424021
1628.263187	-15.513805
1629.148026	-15.580742
1630.033828	-15.647293
1630.920593	-15.700416
1631.808324	-15.736490
1632.697022	-15.774588
1633.586688	-15.794845
1634.477324	-15.808217
1635.368932	-15.823725
1636.261514	-15.824371
1637.155070	-15.828699
1638.049602	-15.832922
1638.945113	-15.826728
1639.841603	-15.829288
1640.739075	-15.827228
1641.637529	-15.819583
1642.536968	-15.819736
1643.437393	-15.809215
1644.338806	-15.795348
1645.241209	-15.784314
1646.144602	-15.759042
1647.048988	-15.733210
1647.954368	-15.704849
1648.860744	-15.661296
1649.768118	-15.619680
1650.676491	-15.572633
1651.585865	-15.514794
1652.496241	-15.462635
1653.407621	-15.404760
1654.320008	-15.342335
1655.233401	-15.288738
1656.147804	-15.231071
1657.063218	-15.174387
1657.979645	-15.126483
1658.897085	-15.073769
1659.815542	-15.023870
1660.735016	-14.979909
1661.655509	-14.929414
1662.577023	-14.881380
1663.499560	-14.835727
1664.423121	-14.782202
1665.347709	-14.731455
1666.273324	-14.681457
1667.199969	-14.625145
1668.127645	-14.573822
1669.056353	-14.523459
1669.986097	-14.469018
1670.916877	-14.421597
1671.848695	-14.374985
1672.781553	-14.325571
1673.715452	-14.283058
1674.650395	-14.239718
1675.586383	-14.193240
1676.523418	-14.152687
1677.461501	-14.110151
1678.400635	-14.064205
1679.340821	-14.023743
1680.282061	-13.981187
1681.224357	-13.936065
1682.167710	-13.897228
1683.112122	-13.857139
1684.057595	-13.814861
1685.004132	-13.778771
1685.951732	-13.741392
1686.900400	-13.701888
1687.850135	-13.668445
1688.800940	-13.633928
1689.752818	-13.597027
1690.705768	-13.565505
1691.659795	-13.533165
1692.614898	-13.498585
1693.571081	-13.469400
1694.528345	-13.439936
1695.486691	-13.408214
1696.446122	-13.381437
1697.406640	-13.354815
1698.368245	-13.325906
1699.330941	-13.301439
1700.294729	-13.277630
1701.259611	-13.251270
1702.225588	-13.228933
1703.192664	-13.207933
1704.160838	-13.184436
1705.130114	-13.164383
1706.100493	-13.146132
1707.071977	-13.124938
1708.044568	-13.106428
1709.018268	-13.090318
1709.993079	-13.071388
1710.969003	-13.054297
1711.946041	-13.040084
1712.924196	-13.023054
1713.903469	-13.006934
1714.883862	-12.993833
1715.865378	-12.978245
1716.848017	-12.962485
1717.831783	-12.950193
1718.816677	-12.936343
1719.802701	-12.921727
1720.789857	-12.910414
1721.778147	-12.898175
1722.767573	-12.884137
1723.758136	-12.873129
1724.749840	-12.862684
1725.742685	-12.850421
1726.736673	-12.840974
1727.731808	-12.833308
1728.728090	-12.823500
1729.725521	-12.815308
1730.724105	-12.809716
1731.723842	-12.802128
1732.724735	-12.794875
1733.726785	-12.790998
1734.729995	-12.785969
1735.734366	-12.779919
1736.739902	-12.777255
1737.746603	-12.774865
1738.754472	-12.770562
1739.763510	-12.768920
1740.773721	-12.769197
1741.785105	-12.767344
1742.797665	-12.766342
1743.811403	-12.767777
1744.826321	-12.767577
1745.842422	-12.766582
1746.859706	-12.768315
1747.878177	-12.770068
1748.897835	-12.770102
1749.918685	-12.771972
1750.940726	-12.775167
1751.963963	-12.776530
1752.988395	-12.778415
1754.014027	-12.782676
1755.040860	-12.786237
1756.068895	-12.789319
1757.098135	-12.794952
1758.128583	-12.801230
1759.160240	-12.806270
1760.193109	-12.812718
1761.227191	-12.820745
1762.262488	-12.827652
1763.299004	-12.834990
1764.336740	-12.844575
1765.375697	-12.854177
1766.415880	-12.862968
1767.457288	-12.873175
1768.499926	-12.884185
1769.543794	-12.894113
1770.588895	-12.904482
1771.635231	-12.916364
1772.682805	-12.927744
1773.731619	-12.938351
1774.781674	-12.950071
1775.832973	-12.961998
1776.885519	-12.972800
1777.939312	-12.984182
1778.994357	-12.996869
1780.050654	-13.008957
1781.108207	-13.020622
1782.167017	-13.033519
1783.227087	-13.046412
1784.288418	-13.058287
1785.351013	-13.070952
1786.414875	-13.084975
1787.480006	-13.098576
1788.546407	-13.112017
1789.614082	-13.126730
1790.683032	-13.141729
1791.753259	-13.156098
1792.824767	-13.171540
1793.897557	-13.188677
1794.971632	-13.205709
1796.046994	-13.222304
1797.123645	-13.240037
1798.201588	-13.258492
1799.280824	-13.276235
1800.361357	-13.294402
1801.443188	-13.314289
1802.526320	-13.334485
1803.610756	-13.354021
1804.696497	-13.374349
1805.783546	-13.395588
1806.871906	-13.416282
1807.961578	-13.436942
1809.052565	-13.459014
1810.144870	-13.481615
1811.238494	-13.503468
1812.333441	-13.525522
1813.429713	-13.548498
1814.527311	-13.571198
1815.626239	-13.593116
1816.726499	-13.615423
1817.828094	-13.638126
1818.931025	-13.659984
1820.035295	-13.681199
1821.140906	-13.703133
1822.247862	-13.725268
1823.356165	-13.746636
1824.465816	-13.767797
1825.576819	-13.789484
1826.689175	-13.810588
1827.802888	-13.830771
1828.917960	-13.851189
1830.034394	-13.872080
1831.152191	-13.892264
1832.271354	-13.912023
1833.391887	-13.932483
1834.513790	-13.953196
1835.637068	-13.973011
1836.761722	-13.992453
1837.887755	-14.012335
1839.015169	-14.032175
1840.143968	-14.051651
1841.274153	-14.071721
1842.405727	-14.092587
1843.538693	-14.112997
1844.673053	-14.132476
1845.808810	-14.152037
1846.945966	-14.171988
1848.084525	-14.191281
1849.224488	-14.210078
1850.365858	-14.229598
1851.508638	-14.249401
1852.652831	-14.268062
1853.798438	-14.286087
1854.945463	-14.304563
1856.093909	-14.322654
1857.243777	-14.339458
1858.395071	-14.356022
1859.547794	-14.373350
1860.701947	-14.390545
1861.857533	-14.406871
1863.014556	-14.423003
1864.173018	-14.439320
1865.332922	-14.454904
1866.494270	-14.469353
1867.657065	-14.483803
1868.821309	-14.498704
1869.987006	-14.512813
1871.154158	-14.525197
1872.322768	-14.536603
1873.492839	-14.547685
1874.664373	-14.557702
1875.837373	-14.566217
1877.011841	-14.574279
1878.187782	-14.582584
1879.365197	-14.590139
1880.544089	-14.596068
1881.724460	-14.601110
1882.906315	-14.605549
1884.089655	-14.608820
1885.274483	-14.610641
1886.460803	-14.611731
1887.648616	-14.612691
1888.837927	-14.613012
1890.028736	-14.611940
1891.221049	-14.609917
1892.414866	-14.607475
1893.610192	-14.603959
1894.807028	-14.598630
1896.005379	-14.592418
1897.205246	-14.586545
1898.406633	-14.580133
1899.609542	-14.571877
1900.813977	-14.562708
1902.019940	-14.553904
1903.227434	-14.544474
1904.436462	-14.533700
1905.647028	-14.522809
1906.859133	-14.512323
1908.072781	-14.500924
1909.287976	-14.488035
1910.504719	-14.475034
1911.723013	-14.462385
1912.942863	-14.448961
1914.164270	-14.434893
1915.387238	-14.421243
1916.611770	-14.407749
1917.837868	-14.393304
1919.065536	-14.377843
1920.294777	-14.362119
1921.525594	-14.345962
1922.757989	-14.329008
1923.991967	-14.311952
1925.227529	-14.295147
1926.464679	-14.277723
1927.703420	-14.258789
1928.943755	-14.238584
1930.185688	-14.217651
1931.429221	-14.196067
1932.674356	-14.174134
1933.921099	-14.151977
1935.169451	-14.128634
1936.419415	-14.103884
1937.670996	-14.078501
1938.924195	-14.052776
1940.179017	-14.025950
1941.435463	-13.997605
1942.693538	-13.968644
1943.953245	-13.939813
1945.214586	-13.910888
1946.477566	-13.881239
1947.742186	-13.851024
1949.008451	-13.820636
1950.276363	-13.790189
1951.545926	-13.759845
1952.817143	-13.729698
1954.090017	-13.699636
1955.364551	-13.669492
1956.640749	-13.639181
1957.918615	-13.609394
1959.198150	-13.580551
1960.479359	-13.552522
1961.762244	-13.524752
1963.046810	-13.496886
1964.333059	-13.468972
1965.620995	-13.441215
1966.910621	-13.413626
1968.201940	-13.385914
1969.494956	-13.358177
1970.789672	-13.330943
1972.086091	-13.304547
1973.384217	-13.278923
1974.684053	-13.253858
1975.985602	-13.229294
1977.288869	-13.205088
1978.593855	-13.180961
1979.900566	-13.156466
1981.209003	-13.131346
1982.519171	-13.105660
1983.831073	-13.079486
1985.144712	-13.053106
1986.460093	-13.026663
1987.777217	-12.999987
1989.096089	-12.972982
1990.416713	-12.945953
1991.739092	-12.919421
1993.063228	-12.893808
1994.389127	-12.868698
1995.716791	-12.843236
1997.046223	-12.817122
1998.377428	-12.790536
1999.710409	-12.763749
2001.045169	-12.736676
2002.381713	-12.709360
2003.720043	-12.681895
2005.060163	-12.654755
2006.402077	-12.628253
2007.745788	-12.602698
2009.091301	-12.578270
2010.438618	-12.555234
2011.787743	-12.533388
2013.138680	-12.512144
2014.491433	-12.491150
2015.846005	-12.470541
2017.202399	-12.450390
2018.560621	-12.430371
2019.920673	-12.409679
2021.282558	-12.388108
2022.646281	-12.366056
2024.011846	-12.343961
2025.379256	-12.322214
2026.748515	-12.301103
2028.119626	-12.281300
2029.492594	-12.263543
2030.867422	-12.248267
2032.244114	-12.235500
2033.622673	-12.225022
2035.003104	-12.216875
2036.385411	-12.211069
2037.769597	-12.207094
2039.155665	-12.204420
2040.543621	-12.202383
2041.933467	-12.200062
2043.325208	-12.196450
2044.718847	-12.190939
2046.114389	-12.183552
2047.511837	-12.174392
2048.911195	-12.163276
2050.312467	-12.149816
2051.715657	-12.133751
2053.120769	-12.115593
2054.527807	-12.096356
2055.936775	-12.076674
2057.347677	-12.056162
2058.760516	-12.034499
2060.175297	-12.012851
2061.592025	-11.992632
2063.010701	-11.974029
2064.431332	-11.956710
2065.853921	-11.940793
2067.278472	-11.926771
2068.704988	-11.915203
2070.133475	-11.906124
2071.563936	-11.899281
2072.996375	-11.894395
2074.430796	-11.891489
2075.867204	-11.891047
2077.305603	-11.893476
2078.745996	-11.898913
2080.188389	-11.907209
2081.632784	-11.917704
2083.079187	-11.929702
2084.527601	-11.943208
2085.978030	-11.958184
2087.430480	-11.973709
2088.884954	-11.988062
2090.341455	-12.000225
2091.799990	-12.010071
2093.260561	-12.017538
2094.723173	-12.021823
2096.187831	-12.022101
2097.654538	-12.018771
2099.123300	-12.013160
2100.594119	-12.006237
2102.067001	-11.997887
2103.541950	-11.988388
2105.018971	-11.979142
2106.498067	-11.971091
2107.979243	-11.964156
2109.462503	-11.958733
2110.947853	-11.955575
2112.435295	-11.954770
2113.924836	-11.955802
2115.416478	-11.958734
2116.910227	-11.963729
2118.406087	-11.970606
2119.904063	-11.979358
2121.404158	-11.990087
2122.906378	-12.002805
2124.410727	-12.017609
2125.917210	-12.034392
2127.425831	-12.052830
2128.936594	-12.073026
2130.449505	-12.095028
2131.964567	-12.118067
2133.481786	-12.141184
2135.001166	-12.164216
2136.522711	-12.187298
2138.046427	-12.210613
2139.572317	-12.234496
2141.100388	-12.258601
2142.630642	-12.281910
2144.163085	-12.303889
2145.697722	-12.325251
2147.234558	-12.346587
2148.773596	-12.367845
2150.314842	-12.388258
2151.858301	-12.407836
2153.403977	-12.427447
2154.951875	-12.447016
2156.502000	-12.465598
2158.054357	-12.483147
2159.608950	-12.500894
2161.165785	-12.519514
2162.724866	-12.538723
2164.286198	-12.558136
2165.849786	-12.578027
2167.415635	-12.599008
2168.983749	-12.621665
2170.554134	-12.646242
2172.126795	-12.672577
2173.701737	-12.700521
2175.278964	-12.730379
2176.858481	-12.762492
2178.440294	-12.796825
2180.024408	-12.833062
2181.610827	-12.871050
2183.199557	-12.910875
2184.790602	-12.951968
2186.383968	-12.993753
2187.979660	-13.036269
2189.577683	-13.079650
2191.178041	-13.123579
2192.780741	-13.167835
2194.385787	-13.212233
2195.993185	-13.257078
2197.602939	-13.301949
2199.215054	-13.345987
2200.829537	-13.389571
2202.446392	-13.433210
2204.065624	-13.476848
2205.687239	-13.519854
2207.311242	-13.561786
2208.937638	-13.603363
2210.566433	-13.645926
2212.197631	-13.689054
2213.831239	-13.731202
2215.467261	-13.772621
2217.105703	-13.814831
2218.746570	-13.858276
2220.389867	-13.902534
2222.035601	-13.947608
2223.683776	-13.994690
2225.334398	-14.044954
2226.987472	-14.098247
2228.643004	-14.154206
2230.300999	-14.212134
2231.961463	-14.273021
2233.624402	-14.337306
2235.289820	-14.403671
2236.957723	-14.470767
2238.628118	-14.539952
2240.301009	-14.611741
2241.976402	-14.683744
2243.654303	-14.754286
2245.334717	-14.825556
2247.017650	-14.898800
2248.703108	-14.972043
2250.391096	-15.044617
2252.081620	-15.116901
2253.774686	-15.188951
2255.470300	-15.260944
2257.168467	-15.331814
2258.869193	-15.400590
2260.572484	-15.469665
2262.278345	-15.539878
2263.986783	-15.608968
2265.697804	-15.676160
2267.411412	-15.743865
2269.127615	-15.813336
2270.846417	-15.881543
2272.567826	-15.948698
2274.291846	-16.018619
2276.018484	-16.089645
2277.747745	-16.161003
2279.479637	-16.235623
2281.214164	-16.313315
2282.951333	-16.395040
2284.691149	-16.481337
2286.433619	-16.570095
2288.178750	-16.662939
2289.926546	-16.761230
2291.677014	-16.862371
2293.430161	-16.964346
2295.185992	-17.068452
2296.944513	-17.174938
2298.705732	-17.280452
2300.469653	-17.385355
2302.236283	-17.490512
2304.005629	-17.594127
2305.777696	-17.697847
2307.552492	-17.801578
2309.330022	-17.903433
2311.110292	-18.003792
2312.893310	-18.102475
2314.679080	-18.199391
2316.467611	-18.295428
2318.258907	-18.390969
2320.052976	-18.484404
2321.849824	-18.576647
2323.649457	-18.669288
2325.451883	-18.760641
2327.257106	-18.851501
2329.065135	-18.944669
2330.875975	-19.037837
2332.689633	-19.132218
2334.506116	-19.228523
2336.325430	-19.326196
2338.147581	-19.428740
2339.972578	-19.536156
2341.800425	-19.648923
2343.631130	-19.767764
2345.464700	-19.889854
2347.301141	-20.017343
2349.140461	-20.152498
2350.982665	-20.290841
2352.827760	-20.428945
2354.675754	-20.568864
2356.526653	-20.708720
2358.380464	-20.843635
2360.237195	-20.975334
2362.096851	-21.106058
2363.959440	-21.235828
2365.824968	-21.361643
2367.693444	-21.482569
2369.564873	-21.602750
2371.439263	-21.725164
2373.316620	-21.842352
2375.196953	-21.953139
2377.080267	-22.064938
2378.966570	-22.175516
2380.855869	-22.281272
2382.748171	-22.384767
2384.643484	-22.488900
2386.541815	-22.594155
2388.443170	-22.697249
2390.347557	-22.803299
2392.254984	-22.914189
2394.165457	-23.023821
2396.078984	-23.138517
2397.995572	-23.264019
2399.915229	-23.395054
2401.837961	-23.528933
2403.763777	-23.675173
2405.692684	-23.834480
2407.624689	-23.996143
2409.559800	-24.158757
2411.498023	-24.330627
2413.439368	-24.505528
2415.383840	-24.673173
2417.331449	-24.838393
2419.282201	-24.996743
2421.236104	-25.142956
2423.193165	-25.288130
2425.153393	-25.427024
2427.116795	-25.553863
2429.083378	-25.683681
2431.053151	-25.814700
2433.026121	-25.929319
2435.002297	-26.040171
2436.981685	-26.163225
2438.964293	-26.277070
2440.950131	-26.366031
2442.939204	-26.461495
2444.931522	-26.575651
2446.927092	-26.677045
2448.925923	-26.765420
2450.928022	-26.870875
2452.933397	-26.989663
2454.942056	-27.100955
2456.954008	-27.213989
2458.969260	-27.350257
2460.987821	-27.505021
2463.009699	-27.656374
2465.034902	-27.823626
2467.063437	-28.025861
2469.095315	-28.234400
2471.130542	-28.429071
2473.169127	-28.633022
2475.211078	-28.850383
2477.256404	-29.045674
2479.305112	-29.223563
2481.357212	-29.402830
2483.412713	-29.570398
2485.471621	-29.702708
2487.533946	-29.831943
2489.599696	-29.969276
2491.668880	-30.089914
2493.741507	-30.194736
2495.817585	-30.310823
2497.897122	-30.419727
2499.980127	-30.509545
2502.066609	-30.585318
2504.156578	-30.671326
2506.250040	-30.744782
2508.347006	-30.804980
2510.447483	-30.886620
2512.551482	-30.979983
2514.659010	-31.061999
2516.770076	-31.154765
2518.884690	-31.279197
2521.002861	-31.412184
2523.124597	-31.550956
2525.249907	-31.723675
2527.378801	-31.924302
2529.511287	-32.153488
2531.647375	-32.396939
2533.787074	-32.653378
2535.930393	-32.914058
2538.077340	-33.176154
2540.227927	-33.447356
2542.382160	-33.673863
2544.540051	-33.865524
2546.701608	-34.075138
2548.866840	-34.243445
2551.035757	-34.376132
2553.208369	-34.519330
2555.384684	-34.639664
2557.564713	-34.739385
2559.748465	-34.868450
2561.935948	-34.957420
2564.127174	-34.994836
2566.322152	-35.077537
2568.520890	-35.093779
2570.723399	-35.079960
2572.929689	-35.116024
2575.139769	-35.128944
2577.353649	-35.141567
2579.571340	-35.210031
2581.792849	-35.227973
2584.018189	-35.294759
2586.247368	-35.427869
2588.480396	-35.520872
2590.717284	-35.691072
2592.958041	-35.925324
2595.202678	-36.153793
2597.451204	-36.450329
2599.703630	-36.781100
2601.959966	-37.093758
2604.220222	-37.440030
2606.484408	-37.770379
2608.752535	-38.070607
2611.024612	-38.347341
2613.300651	-38.606055
2615.580661	-38.888931
2617.864653	-39.094929
2620.152638	-39.280321
2622.444625	-39.552613
2624.740626	-39.749273
2627.040651	-39.881548
2629.344710	-40.037708
2631.652814	-40.105267
2633.964974	-40.090017
2636.281200	-40.060693
2638.601504	-39.953675
2640.925896	-39.864962
2643.254386	-39.820517
2645.586987	-39.686344
2647.923707	-39.610723
2650.264559	-39.602634
2652.609554	-39.512540
2654.958702	-39.495851
2657.312015	-39.602504
2659.669503	-39.693369
2662.031178	-39.839898
2664.397051	-40.089637
2666.767132	-40.356710
2669.141434	-40.617368
2671.519968	-40.938491
2673.902745	-41.277214
2676.289776	-41.577807
2678.681072	-41.878083
2681.076646	-42.161378
2683.476508	-42.501720
2685.880671	-42.847994
2688.289145	-43.188923
2690.701942	-43.665016
2693.119075	-44.119977
2695.540554	-44.543161
2697.966391	-45.062846
2700.396599	-45.441286
2702.831189	-45.643126
2705.270172	-45.788827
2707.713561	-45.859401
2710.161368	-45.790135
2712.613605	-45.637611
2715.070283	-45.602840
2717.531416	-45.306197
2719.997014	-44.980910
2722.467090	-44.846667
2724.941657	-44.621799
2727.420726	-44.396382
2729.904310	-44.479354
2732.392421	-44.523367
2734.885072	-44.455349
2737.382275	-44.709190
2739.884042	-44.890260
2742.390387	-44.869514
2744.901321	-45.107409
2747.416857	-45.242425
2749.937008	-45.205437
2752.461787	-45.368434
2754.991206	-45.523431
2757.525279	-45.598763
2760.064017	-45.964270
2762.607434	-46.282881
2765.155544	-46.667563
2767.708358	-47.282248
2770.265890	-47.779311
2772.828153	-48.480602
2775.395160	-49.141054
2777.966924	-49.563880
2780.543459	-50.229589
2783.124778	-50.867888
2785.710894	-51.215251
2788.301821	-51.605754
2790.897572	-51.615842
2793.498160	-51.399378
2796.103599	-51.241840
2798.713903	-50.908160
2801.329085	-50.845823
2803.949159	-50.811114
2806.574139	-50.907066
2809.204038	-50.983716
2811.838871	-51.090300
2814.478650	-51.274231
2817.123391	-51.251753
2819.773107	-51.152745
2822.427812	-50.955869
2825.087521	-50.667789
2827.752247	-50.357226
2830.422005	-50.069275
2833.096808	-49.942269
2835.776672	-49.896697
2838.461611	-49.925557
2841.151638	-50.059499
2843.846769	-50.352915
2846.547019	-50.656582
2849.252401	-50.984093
2851.962930	-51.367160
2854.678621	-51.721687
2857.399489	-52.456450
2860.125549	-53.195721
2862.856815	-53.835494
2865.593302	-54.692269
2868.335026	-54.819158
2871.082002	-55.162430
2873.834244	-55.233445
2876.591767	-54.349747
2879.354588	-55.952260
2882.122721	-54.449667
2884.896181	-55.426342
2887.674984	-56.659771
2890.459146	-55.742652
2893.248681	-57.718582
2896.043606	-58.200440
2898.843937	-59.592172
2901.649687	-58.367284
2904.460875	-59.626907
2907.277515	-58.900366
2910.099623	-58.920866
2912.927215	-57.425906
2915.760308	-57.136672
2918.598916	-57.082392
2921.443057	-56.700195
2924.292747	-56.680181
2927.148002	-55.454489
2930.008837	-55.775287
2932.875270	-55.417281
2935.747318	-55.988725
2938.624995	-56.667403
2941.508320	-56.891509
2944.397308	-58.073469
2947.291977	-57.980735
2950.192343	-59.091250
2953.098423	-59.095066
2956.010234	-58.968997
2958.927792	-59.270391
2961.851116	-58.217687
2964.780221	-58.958806
2967.715126	-57.903476
2970.655847	-57.918129
2973.602402	-58.727674
2976.554808	-58.427686
2979.513083	-59.588702
2982.477243	-60.262165
2985.447308	-60.228348
2988.423293	-62.269809
2991.405218	-61.800105
2994.393099	-63.034093
2997.386955	-64.901702
