# 2022-03-21_13.57.02
# shape = sech2
# FWHM_ps = 0.1
# carrier_nm = 1542
# frep_MHz = 12126
# pow_mW = 8000
# GDD = 0.0
# propa_len = 0.10555555555555557
# untap_len = 0.01
# taper_len = 0.04555555555555556
# waist_len = 0.02
# uptap_len = 0.02
# untap_scale = 1.0
# waist_scale = 0.13333333333333336
# workingDir = NL_20110305_12 (Spirou)
# axis = slow
# window_ps = 10.0
# steps = 200
# points = 13000
# 
# wavelength [nm]	 power spectral density [dB]
1000.248639	-24.193156
1000.582480	-24.167882
1000.916545	-24.184502
1001.250832	-24.199471
1001.585343	-24.165090
1001.920077	-24.110388
1002.255035	-24.070363
1002.590218	-24.083740
1002.925624	-24.106732
1003.261255	-24.096841
1003.597111	-24.048836
1003.933192	-24.000943
1004.269497	-23.997525
1004.606029	-24.014276
1004.942785	-24.013309
1005.279768	-23.970833
1005.616977	-23.922327
1005.954412	-23.913622
1006.292074	-23.931334
1006.629962	-23.940214
1006.968077	-23.901849
1007.306420	-23.847250
1007.644990	-23.815341
1007.983787	-23.821798
1008.322813	-23.841266
1008.662067	-23.824616
1009.001549	-23.776801
1009.341259	-23.726114
1009.681199	-23.713181
1010.021367	-23.724129
1010.361765	-23.718604
1010.702392	-23.680463
1011.043250	-23.621068
1011.384337	-23.588573
1011.725654	-23.588371
1012.067202	-23.599339
1012.408980	-23.574937
1012.750989	-23.509104
1013.093230	-23.450040
1013.435702	-23.427142
1013.778405	-23.441240
1014.121341	-23.433107
1014.464508	-23.388112
1014.807908	-23.319626
1015.151540	-23.273441
1015.495405	-23.266612
1015.839503	-23.266155
1016.183835	-23.243597
1016.528400	-23.179980
1016.873198	-23.121022
1017.218231	-23.089555
1017.563498	-23.091690
1017.908999	-23.090227
1018.254735	-23.051611
1018.600707	-22.988519
1018.946913	-22.929754
1019.293354	-22.915289
1019.640032	-22.918044
1019.986945	-22.913192
1020.334094	-22.869384
1020.681480	-22.810268
1021.029102	-22.769985
1021.376961	-22.761866
1021.725058	-22.770965
1022.073391	-22.751670
1022.421962	-22.706847
1022.770772	-22.650842
1023.119819	-22.624591
1023.469104	-22.624830
1023.818628	-22.633005
1024.168391	-22.616575
1024.518393	-22.567344
1024.868634	-22.520377
1025.219115	-22.494637
1025.569836	-22.499718
1025.920796	-22.499017
1026.271997	-22.479554
1026.623438	-22.434934
1026.975121	-22.394845
1027.327044	-22.379010
1027.679208	-22.379050
1028.031614	-22.379053
1028.384262	-22.348982
1028.737152	-22.306771
1029.090284	-22.263675
1029.443659	-22.253248
1029.797276	-22.254372
1030.151137	-22.253574
1030.505240	-22.226519
1030.859587	-22.183783
1031.214178	-22.148510
1031.569013	-22.131724
1031.924093	-22.135209
1032.279417	-22.127095
1032.634985	-22.106610
1032.990799	-22.064478
1033.346858	-22.036364
1033.703162	-22.022345
1034.059712	-22.028118
1034.416509	-22.025944
1034.773551	-22.006648
1035.130841	-21.972072
1035.488377	-21.939848
1035.846160	-21.930181
1036.204190	-21.930713
1036.562468	-21.938008
1036.920994	-21.924108
1037.279768	-21.902862
1037.638790	-21.874668
1037.998061	-21.865865
1038.357581	-21.864946
1038.717350	-21.869340
1039.077368	-21.860040
1039.437636	-21.838029
1039.798154	-21.816395
1040.158922	-21.802326
1040.519940	-21.805213
1040.881209	-21.804877
1041.242729	-21.800785
1041.604501	-21.772978
1041.966524	-21.746556
1042.328798	-21.718408
1042.691325	-21.708499
1043.054103	-21.698962
1043.417135	-21.687532
1043.780419	-21.659430
1044.143956	-21.623309
1044.507746	-21.587414
1044.871791	-21.557126
1045.236088	-21.535301
1045.600641	-21.504540
1045.965447	-21.469275
1046.330508	-21.417316
1046.695824	-21.373781
1047.061395	-21.329231
1047.427222	-21.301980
1047.793304	-21.266419
1048.159642	-21.228466
1048.526237	-21.171978
1048.893088	-21.117646
1049.260196	-21.064007
1049.627561	-21.027071
1049.995183	-20.994173
1050.363063	-20.961480
1050.731201	-20.920740
1051.099597	-20.873232
1051.468251	-20.829722
1051.837164	-20.790636
1052.206336	-20.765188
1052.575767	-20.736067
1052.945458	-20.710750
1053.315409	-20.673880
1053.685619	-20.647054
1054.056090	-20.619743
1054.426821	-20.610556
1054.797814	-20.597402
1055.169067	-20.590410
1055.540582	-20.568435
1055.912359	-20.551384
1056.284398	-20.531503
1056.656698	-20.529023
1057.029262	-20.528961
1057.402088	-20.536853
1057.775177	-20.535131
1058.148530	-20.531481
1058.522146	-20.522878
1058.896027	-20.520056
1059.270171	-20.523275
1059.644580	-20.529929
1060.019254	-20.535759
1060.394193	-20.533749
1060.769397	-20.531428
1061.144867	-20.525654
1061.520602	-20.529929
1061.896604	-20.531585
1062.272872	-20.538508
1062.649407	-20.529537
1063.026210	-20.521136
1063.403279	-20.500313
1063.780616	-20.493019
1064.158221	-20.480673
1064.536094	-20.481741
1064.914235	-20.467975
1065.292645	-20.456267
1065.671325	-20.424597
1066.050273	-20.401551
1066.429491	-20.371009
1066.808979	-20.356206
1067.188738	-20.331817
1067.568766	-20.313747
1067.949066	-20.278382
1068.329636	-20.247526
1068.710478	-20.207845
1069.091592	-20.181984
1069.472977	-20.151004
1069.854635	-20.126873
1070.236565	-20.089864
1070.618768	-20.055417
1071.001243	-20.012461
1071.383993	-19.981040
1071.767016	-19.949327
1072.150313	-19.928098
1072.533884	-19.897308
1072.917730	-19.866934
1073.301850	-19.824150
1073.686246	-19.789471
1074.070917	-19.753750
1074.455864	-19.734163
1074.841087	-19.709723
1075.226586	-19.691099
1075.612362	-19.655773
1075.998415	-19.624776
1076.384745	-19.584874
1076.771353	-19.562683
1077.158238	-19.536708
1077.545401	-19.524111
1077.932843	-19.496049
1078.320564	-19.472118
1078.708564	-19.432190
1079.096842	-19.405823
1079.485401	-19.374674
1079.874240	-19.360564
1080.263358	-19.336634
1080.652757	-19.317918
1081.042438	-19.281790
1081.432399	-19.252875
1081.822641	-19.218711
1082.213166	-19.200419
1082.603972	-19.177573
1082.995061	-19.160758
1083.386433	-19.129771
1083.778087	-19.100907
1084.170025	-19.065704
1084.562246	-19.043073
1084.954751	-19.020857
1085.347541	-19.006606
1085.740615	-18.983437
1086.133973	-18.959639
1086.527617	-18.927478
1086.921546	-18.902296
1087.315761	-18.879698
1087.710262	-18.866717
1088.105050	-18.850562
1088.500124	-18.832539
1088.895485	-18.806858
1089.291134	-18.781748
1089.687070	-18.759235
1090.083294	-18.743541
1090.479806	-18.732104
1090.876607	-18.717694
1091.273696	-18.700025
1091.671075	-18.674340
1092.068744	-18.653454
1092.466702	-18.631504
1092.864950	-18.621452
1093.263489	-18.605398
1093.662319	-18.594599
1094.061440	-18.568905
1094.460852	-18.549595
1094.860555	-18.521341
1095.260551	-18.506870
1095.660840	-18.486097
1096.061421	-18.474139
1096.462295	-18.451451
1096.863462	-18.431972
1097.264923	-18.406057
1097.666678	-18.384933
1098.068727	-18.364052
1098.471071	-18.344726
1098.873710	-18.325684
1099.276644	-18.302343
1099.679874	-18.281523
1100.083400	-18.256323
1100.487222	-18.237930
1100.891340	-18.214145
1101.295756	-18.196857
1101.700468	-18.172059
1102.105478	-18.154367
1102.510787	-18.130635
1102.916393	-18.115408
1103.322298	-18.094136
1103.728502	-18.078364
1104.135005	-18.055489
1104.541807	-18.036953
1104.948909	-18.015593
1105.356312	-17.998902
1105.764015	-17.982932
1106.172019	-17.967016
1106.580324	-17.952479
1106.988931	-17.932808
1107.397840	-17.918180
1107.807051	-17.897257
1108.216564	-17.885560
1108.626380	-17.865971
1109.036500	-17.855091
1109.446923	-17.835031
1109.857649	-17.821644
1110.268680	-17.802314
1110.680016	-17.787109
1111.091657	-17.771374
1111.503602	-17.754595
1111.915854	-17.741079
1112.328411	-17.719962
1112.741275	-17.705430
1113.154445	-17.680988
1113.567922	-17.666264
1113.981706	-17.643310
1114.395798	-17.628917
1114.810198	-17.608408
1115.224906	-17.590036
1115.639923	-17.569067
1116.055249	-17.545340
1116.470884	-17.525686
1116.886829	-17.500983
1117.303084	-17.483871
1117.719650	-17.459259
1118.136526	-17.440782
1118.553713	-17.415348
1118.971212	-17.394338
1119.389022	-17.370541
1119.807145	-17.348956
1120.225580	-17.327921
1120.644328	-17.305608
1121.063389	-17.285730
1121.482763	-17.261962
1121.902452	-17.242083
1122.322454	-17.217808
1122.742771	-17.198663
1123.163404	-17.176084
1123.584351	-17.158297
1124.005614	-17.138644
1124.427193	-17.120534
1124.849089	-17.101865
1125.271301	-17.080327
1125.693830	-17.061550
1126.116677	-17.039216
1126.539842	-17.024072
1126.963324	-17.005574
1127.387126	-16.992645
1127.811246	-16.974869
1128.235685	-16.957219
1128.660444	-16.937705
1129.085522	-16.916864
1129.510922	-16.901445
1129.936641	-16.883132
1130.362682	-16.871860
1130.789044	-16.853153
1131.215728	-16.837882
1131.642734	-16.816884
1132.070063	-16.797202
1132.497714	-16.780448
1132.925689	-16.760733
1133.353987	-16.748484
1133.782610	-16.726510
1134.211556	-16.710978
1134.640827	-16.687578
1135.070424	-16.667298
1135.500345	-16.649211
1135.930593	-16.626700
1136.361166	-16.612357
1136.792067	-16.587064
1137.223294	-16.568567
1137.654848	-16.543556
1138.086730	-16.520550
1138.518940	-16.501456
1138.951479	-16.477157
1139.384346	-16.459971
1139.817543	-16.433950
1140.251069	-16.411737
1140.684925	-16.386482
1141.119111	-16.361601
1141.553628	-16.341070
1141.988475	-16.317342
1142.423655	-16.297975
1142.859166	-16.272931
1143.295009	-16.250093
1143.731185	-16.224665
1144.167694	-16.201392
1144.604536	-16.180399
1145.041711	-16.157964
1145.479221	-16.139813
1145.917065	-16.114980
1146.355245	-16.095154
1146.793759	-16.071064
1147.232609	-16.049763
1147.671795	-16.032659
1148.111317	-16.010123
1148.551177	-15.995493
1148.991373	-15.972703
1149.431907	-15.953775
1149.872779	-15.936163
1150.313989	-15.914501
1150.755538	-15.902680
1151.197426	-15.882424
1151.639653	-15.867390
1152.082220	-15.850696
1152.525128	-15.830543
1152.968376	-15.818248
1153.411966	-15.799896
1153.855897	-15.787541
1154.300169	-15.772659
1154.744784	-15.755621
1155.189742	-15.741829
1155.635042	-15.724310
1156.080687	-15.711816
1156.526674	-15.697328
1156.973007	-15.683985
1157.419683	-15.669588
1157.866705	-15.653159
1158.314072	-15.639570
1158.761786	-15.622759
1159.209845	-15.611290
1159.658251	-15.596283
1160.107004	-15.581027
1160.556104	-15.567843
1161.005553	-15.548143
1161.455349	-15.535994
1161.905494	-15.519654
1162.355989	-15.503587
1162.806832	-15.491804
1163.258026	-15.470886
1163.709570	-15.457115
1164.161464	-15.439771
1164.613710	-15.420998
1165.066307	-15.409057
1165.519256	-15.388645
1165.972558	-15.373273
1166.426212	-15.355905
1166.880219	-15.335190
1167.334580	-15.321030
1167.789295	-15.301150
1168.244364	-15.284598
1168.699788	-15.267204
1169.155567	-15.246731
1169.611702	-15.230273
1170.068193	-15.209982
1170.525041	-15.193279
1170.982245	-15.174987
1171.439807	-15.155417
1171.897726	-15.138846
1172.356004	-15.117156
1172.814640	-15.100815
1173.273635	-15.082462
1173.732989	-15.062240
1174.192703	-15.047760
1174.652778	-15.025636
1175.113213	-15.008489
1175.574009	-14.992125
1176.035167	-14.970225
1176.496687	-14.956965
1176.958569	-14.937287
1177.420814	-14.918025
1177.883422	-14.904318
1178.346394	-14.882640
1178.809730	-14.867903
1179.273430	-14.852214
1179.737496	-14.832081
1180.201927	-14.819117
1180.666723	-14.800309
1181.131886	-14.783725
1181.597416	-14.770179
1182.063312	-14.751649
1182.529576	-14.738366
1182.996209	-14.722178
1183.463209	-14.705922
1183.930579	-14.693127
1184.398317	-14.676053
1184.866426	-14.663574
1185.334904	-14.649128
1185.803754	-14.633130
1186.272974	-14.622269
1186.742566	-14.605741
1187.212529	-14.593169
1187.682865	-14.581949
1188.153574	-14.565008
1188.624656	-14.555167
1189.096112	-14.541708
1189.567942	-14.526525
1190.040147	-14.518218
1190.512726	-14.502917
1190.985681	-14.490535
1191.459012	-14.481112
1191.932720	-14.465235
1192.406804	-14.455394
1192.881265	-14.444101
1193.356104	-14.429440
1193.831322	-14.420456
1194.306918	-14.406919
1194.782893	-14.394351
1195.259248	-14.384834
1195.735982	-14.370408
1196.213097	-14.359880
1196.690593	-14.348227
1197.168471	-14.333905
1197.646730	-14.324541
1198.125371	-14.310925
1198.604395	-14.297947
1199.083803	-14.288291
1199.563594	-14.272740
1200.043769	-14.261413
1200.524329	-14.250652
1201.005273	-14.234434
1201.486604	-14.224237
1201.968320	-14.211342
1202.450422	-14.195459
1202.932912	-14.185730
1203.415789	-14.171199
1203.899054	-14.156214
1204.382707	-14.146030
1204.866748	-14.130197
1205.351179	-14.116559
1205.836000	-14.105358
1206.321211	-14.089090
1206.806812	-14.076480
1207.292805	-14.063581
1207.779189	-14.047483
1208.265965	-14.035605
1208.753134	-14.021402
1209.240696	-14.005973
1209.728651	-13.994153
1210.217000	-13.978699
1210.705744	-13.964300
1211.194883	-13.952584
1211.684417	-13.936418
1212.174347	-13.922850
1212.664673	-13.910604
1213.155396	-13.893883
1213.646516	-13.881390
1214.138034	-13.868638
1214.629951	-13.851780
1215.122266	-13.839692
1215.614980	-13.826087
1216.108095	-13.809552
1216.601609	-13.798011
1217.095524	-13.783795
1217.589841	-13.767529
1218.084559	-13.755910
1218.579679	-13.741037
1219.075202	-13.725477
1219.571128	-13.713952
1220.067458	-13.698244
1220.564191	-13.683065
1221.061330	-13.671262
1221.558874	-13.655081
1222.056823	-13.640424
1222.555178	-13.628197
1223.053940	-13.611348
1223.553109	-13.596991
1224.052686	-13.584458
1224.552671	-13.567295
1225.053065	-13.552996
1225.553867	-13.539919
1226.055079	-13.522491
1226.556702	-13.508398
1227.058735	-13.495092
1227.561179	-13.477380
1228.064035	-13.462974
1228.567303	-13.449376
1229.070983	-13.431772
1229.575077	-13.417502
1230.079585	-13.403538
1230.584506	-13.385588
1231.089842	-13.371128
1231.595594	-13.357226
1232.101761	-13.339546
1232.608345	-13.325043
1233.115345	-13.310777
1233.622762	-13.293044
1234.130597	-13.278662
1234.638851	-13.264662
1235.147523	-13.247113
1235.656615	-13.232475
1236.166126	-13.218335
1236.676058	-13.201119
1237.186411	-13.186639
1237.697185	-13.172672
1238.208381	-13.155478
1238.719999	-13.140833
1239.232040	-13.127116
1239.744505	-13.110183
1240.257394	-13.095461
1240.770708	-13.081748
1241.284446	-13.064907
1241.798610	-13.050291
1242.313201	-13.036994
1242.828218	-13.020137
1243.343662	-13.004933
1243.859534	-12.992014
1244.375834	-12.975801
1244.892563	-12.960248
1245.409721	-12.947140
1245.927309	-12.931145
1246.445327	-12.915263
1246.963777	-12.902386
1247.482657	-12.887210
1248.001970	-12.870812
1248.521716	-12.857246
1249.041894	-12.842680
1249.562506	-12.826815
1250.083553	-12.813083
1250.605034	-12.798446
1251.126950	-12.782442
1251.649302	-12.768644
1252.172091	-12.754640
1252.695316	-12.738863
1253.218979	-12.724820
1253.743079	-12.711074
1254.267619	-12.695386
1254.792597	-12.681494
1255.318015	-12.668628
1255.843874	-12.653121
1256.370173	-12.638622
1256.896913	-12.626586
1257.424095	-12.612313
1257.951720	-12.597391
1258.479787	-12.585323
1259.008298	-12.572471
1259.537254	-12.557890
1260.066654	-12.545542
1260.596499	-12.533701
1261.126790	-12.520014
1261.657527	-12.507614
1262.188711	-12.496480
1262.720342	-12.483730
1263.252422	-12.471440
1263.784950	-12.460805
1264.317928	-12.449163
1264.851355	-12.437277
1265.385232	-12.426939
1265.919560	-12.415960
1266.454340	-12.404502
1266.989572	-12.394926
1267.525256	-12.384991
1268.061394	-12.373310
1268.597985	-12.363572
1269.135031	-12.355352
1269.672531	-12.344689
1270.210487	-12.333904
1270.748899	-12.325939
1271.287768	-12.317169
1271.827094	-12.306556
1272.366877	-12.297719
1272.907119	-12.289976
1273.447820	-12.280402
1273.988981	-12.271041
1274.530601	-12.263453
1275.072683	-12.255032
1275.615226	-12.245740
1276.158230	-12.237874
1276.701697	-12.230158
1277.245627	-12.221306
1277.790021	-12.213389
1278.334879	-12.206210
1278.880202	-12.197662
1279.425991	-12.189465
1279.972245	-12.182985
1280.518966	-12.175372
1281.066155	-12.166541
1281.613811	-12.159777
1282.161936	-12.153749
1282.710529	-12.145477
1283.259593	-12.137479
1283.809126	-12.131911
1284.359131	-12.125393
1284.909607	-12.117100
1285.460555	-12.110585
1286.011976	-12.105317
1286.563870	-12.098165
1287.116237	-12.090704
1287.669080	-12.085370
1288.222397	-12.079634
1288.776191	-12.072229
1289.330460	-12.066160
1289.885207	-12.061178
1290.440431	-12.054547
1290.996133	-12.047738
1291.552314	-12.042804
1292.108975	-12.037288
1292.666115	-12.029967
1293.223737	-12.024112
1293.781839	-12.019705
1294.340424	-12.013162
1294.899491	-12.005645
1295.459041	-12.000676
1296.019075	-11.996026
1296.579593	-11.988626
1297.140597	-11.981428
1297.702086	-11.976802
1298.264061	-11.971389
1298.826524	-11.963654
1299.389474	-11.957014
1299.952912	-11.952081
1300.516839	-11.945738
1301.081255	-11.938287
1301.646162	-11.932247
1302.211559	-11.926504
1302.777448	-11.919301
1303.343829	-11.912589
1303.910702	-11.907051
1304.478069	-11.900243
1305.045930	-11.892572
1305.614285	-11.886743
1306.183136	-11.881416
1306.752483	-11.873797
1307.322326	-11.865996
1307.892666	-11.860777
1308.463504	-11.855451
1309.034841	-11.847387
1309.606677	-11.839704
1310.179012	-11.834717
1310.751849	-11.829127
1311.325186	-11.821061
1311.899025	-11.813710
1312.473366	-11.808545
1313.048211	-11.802505
1313.623559	-11.794589
1314.199412	-11.787713
1314.775770	-11.782226
1315.352634	-11.775512
1315.930004	-11.767807
1316.507881	-11.761490
1317.086266	-11.755689
1317.665159	-11.748225
1318.244562	-11.740606
1318.824474	-11.734767
1319.404897	-11.728766
1319.985831	-11.720775
1320.567276	-11.713124
1321.149234	-11.707536
1321.731706	-11.701516
1322.314691	-11.693366
1322.898190	-11.685661
1323.482205	-11.680076
1324.066736	-11.674072
1324.651783	-11.666041
1325.237347	-11.658519
1325.823430	-11.652901
1326.410031	-11.646780
1326.997151	-11.639055
1327.584791	-11.631992
1328.172952	-11.626407
1328.761634	-11.620118
1329.350839	-11.612635
1329.940566	-11.606098
1330.530817	-11.600716
1331.121592	-11.594420
1331.712891	-11.587132
1332.304716	-11.580970
1332.897068	-11.575896
1333.489946	-11.569802
1334.083352	-11.562750
1334.677287	-11.556808
1335.271750	-11.551931
1335.866744	-11.546134
1336.462268	-11.539495
1337.058323	-11.533777
1337.654910	-11.529024
1338.252029	-11.523582
1338.849682	-11.517355
1339.447869	-11.511903
1340.046591	-11.507436
1340.645848	-11.502398
1341.245641	-11.496477
1341.845972	-11.491291
1342.446840	-11.487291
1343.048246	-11.482902
1343.650191	-11.477331
1344.252677	-11.472257
1344.855702	-11.468701
1345.459269	-11.465054
1346.063379	-11.460028
1346.668030	-11.455177
1347.273226	-11.451918
1347.878965	-11.448782
1348.485250	-11.444316
1349.092080	-11.440017
1349.699456	-11.437209
1350.307380	-11.434354
1350.915851	-11.430286
1351.524871	-11.426473
1352.134441	-11.424140
1352.744560	-11.421815
1353.355231	-11.418165
1353.966453	-11.414426
1354.578227	-11.412202
1355.190555	-11.410662
1355.803436	-11.407914
1356.416872	-11.404242
1357.030863	-11.401633
1357.645411	-11.400396
1358.260515	-11.398640
1358.876177	-11.395594
1359.492397	-11.392873
1360.109176	-11.391447
1360.726516	-11.390024
1361.344416	-11.387689
1361.962877	-11.385478
1362.581901	-11.384128
1363.201487	-11.382668
1363.821637	-11.380448
1364.442352	-11.378467
1365.063632	-11.377485
1365.685478	-11.376529
1366.307891	-11.374545
1366.930871	-11.372185
1367.554420	-11.370851
1368.178538	-11.370436
1368.803226	-11.369349
1369.428485	-11.367072
1370.054315	-11.365022
1370.680717	-11.364244
1371.307693	-11.363665
1371.935242	-11.362117
1372.563366	-11.360182
1373.192065	-11.358783
1373.821341	-11.357765
1374.451193	-11.356500
1375.081623	-11.354911
1375.712632	-11.353464
1376.344221	-11.352344
1376.976389	-11.350959
1377.609139	-11.348952
1378.242470	-11.347234
1378.876384	-11.346381
1379.510881	-11.345342
1380.145963	-11.343200
1380.781629	-11.340809
1381.417881	-11.339283
1382.054720	-11.338340
1382.692147	-11.336833
1383.330161	-11.334405
1383.968765	-11.331926
1384.607959	-11.330183
1385.247743	-11.328638
1385.888119	-11.326373
1386.529087	-11.323684
1387.170648	-11.321423
1387.812804	-11.319301
1388.455554	-11.316634
1389.098899	-11.313677
1389.742842	-11.311072
1390.387381	-11.308748
1391.032519	-11.306088
1391.678256	-11.302782
1392.324592	-11.299312
1392.971529	-11.296363
1393.619068	-11.293669
1394.267208	-11.290470
1394.915952	-11.286683
1395.565300	-11.282792
1396.215253	-11.279108
1396.865812	-11.275572
1397.516977	-11.271855
1398.168749	-11.267707
1398.821130	-11.263383
1399.474120	-11.259145
1400.127719	-11.254845
1400.781930	-11.250429
1401.436752	-11.246055
1402.092186	-11.241683
1402.748234	-11.237151
1403.404897	-11.232431
1404.062174	-11.227588
1404.720067	-11.222841
1405.378577	-11.218324
1406.037705	-11.213731
1406.697451	-11.208805
1407.357817	-11.203580
1408.018803	-11.198287
1408.680410	-11.193275
1409.342639	-11.188530
1410.005492	-11.183520
1410.668968	-11.178001
1411.333068	-11.172395
1411.997795	-11.167207
1412.663147	-11.162401
1413.329127	-11.157454
1413.995736	-11.152062
1414.662973	-11.146724
1415.330840	-11.142005
1415.999339	-11.137534
1416.668469	-11.132644
1417.338232	-11.127435
1418.008628	-11.122547
1418.679659	-11.118241
1419.351325	-11.113981
1420.023628	-11.109024
1420.696568	-11.103626
1421.370145	-11.098703
1422.044362	-11.094377
1422.719219	-11.089935
1423.394717	-11.084839
1424.070856	-11.079504
1424.747638	-11.074714
1425.425064	-11.070567
1426.103134	-11.066345
1426.781850	-11.061788
1427.461212	-11.057392
1428.141221	-11.053660
1428.821878	-11.050418
1429.503185	-11.047104
1430.185141	-11.043646
1430.867749	-11.040490
1431.551008	-11.037669
1432.234920	-11.034822
1432.919486	-11.031755
1433.604707	-11.028466
1434.290583	-11.025053
1434.977116	-11.021339
1435.664307	-11.016999
1436.352156	-11.012238
1437.040664	-11.007401
1437.729833	-11.002197
1438.419663	-10.996268
1439.110156	-10.989692
1439.801312	-10.982930
1440.493132	-10.976512
1441.185617	-10.970194
1441.878768	-10.963403
1442.572586	-10.956395
1443.267072	-10.949818
1443.962228	-10.944054
1444.658053	-10.938857
1445.354549	-10.933523
1446.051717	-10.927990
1446.749558	-10.922935
1447.448073	-10.918598
1448.147263	-10.914551
1448.847128	-10.910006
1449.547671	-10.904376
1450.248891	-10.898037
1450.950789	-10.891428
1451.653368	-10.884192
1452.356627	-10.875539
1453.060568	-10.864793
1453.765192	-10.852034
1454.470500	-10.837922
1455.176492	-10.822497
1455.883170	-10.805159
1456.590534	-10.785653
1457.298586	-10.764332
1458.007327	-10.741981
1458.716758	-10.718928
1459.426880	-10.694781
1460.137693	-10.669607
1460.849199	-10.644193
1461.561398	-10.619366
1462.274293	-10.595431
1462.987883	-10.572036
1463.702170	-10.549162
1464.417155	-10.527556
1465.132838	-10.507738
1465.849222	-10.489599
1466.566306	-10.472588
1467.284093	-10.456397
1468.002582	-10.441332
1468.721775	-10.427505
1469.441674	-10.414353
1470.162278	-10.401048
1470.883590	-10.386953
1471.605609	-10.371882
1472.328338	-10.355659
1473.051777	-10.337688
1473.775928	-10.317296
1474.500790	-10.293971
1475.226367	-10.267471
1475.952657	-10.237672
1476.679663	-10.204222
1477.407386	-10.166862
1478.135826	-10.125719
1478.864985	-10.081230
1479.594863	-10.033838
1480.325463	-9.983660
1481.056784	-9.930799
1481.788828	-9.875941
1482.521597	-9.820140
1483.255090	-9.764402
1483.989309	-9.709306
1484.724256	-9.655319
1485.459931	-9.603385
1486.196336	-9.554593
1486.933471	-9.509758
1487.671337	-9.469285
1488.409937	-9.433510
1489.149270	-9.403141
1489.889337	-9.378785
1490.630141	-9.360535
1491.371682	-9.348269
1492.113961	-9.341869
1492.856979	-9.341451
1493.600738	-9.346892
1494.345238	-9.357682
1495.090481	-9.373409
1495.836467	-9.393800
1496.583198	-9.418558
1497.330675	-9.447129
1498.078899	-9.478552
1498.827872	-9.511961
1499.577593	-9.546494
1500.328065	-9.580969
1501.079289	-9.614030
1501.831265	-9.644001
1502.583995	-9.669158
1503.337480	-9.687844
1504.091721	-9.698363
1504.846719	-9.699205
1505.602475	-9.688914
1506.358991	-9.666356
1507.116268	-9.631078
1507.874306	-9.583089
1508.633108	-9.523007
1509.392673	-9.452028
1510.153004	-9.372260
1510.914101	-9.286801
1511.675965	-9.199116
1512.438599	-9.113083
1513.202002	-9.032988
1513.966176	-8.963438
1514.731122	-8.908965
1515.496842	-8.873517
1516.263336	-8.860740
1517.030607	-8.874123
1517.798654	-8.916731
1518.567479	-8.991052
1519.337083	-9.099072
1520.107468	-9.242798
1520.878634	-9.424284
1521.650584	-9.645366
1522.423317	-9.907876
1523.196836	-10.213892
1523.971141	-10.565882
1524.746233	-10.966226
1525.522115	-11.416468
1526.298786	-11.916851
1527.076249	-12.464925
1527.854504	-13.053404
1528.633553	-13.666288
1529.413397	-14.274430
1530.194037	-14.831855
1530.975474	-15.276200
1531.757709	-15.540209
1532.540745	-15.575331
1533.324581	-15.376383
1534.109220	-14.986033
1534.894662	-14.474884
1535.680909	-13.915223
1536.467961	-13.364831
1537.255821	-12.863735
1538.044489	-12.437562
1538.833967	-12.102499
1539.624256	-11.869082
1540.415357	-11.744435
1541.207271	-11.734337
1542.000000	-11.844821
1542.793545	-12.083602
1543.587907	-12.460839
1544.383087	-12.990276
1545.179088	-13.691618
1545.975909	-14.594010
1546.773552	-15.741746
1547.572019	-17.204383
1548.371311	-19.098298
1549.171428	-21.632464
1549.972373	-25.191236
1550.774147	-29.962824
1551.576751	-30.252261
1552.380185	-25.425064
1553.184453	-21.717602
1553.989554	-19.057199
1554.795490	-17.040829
1555.602263	-15.445458
1556.409873	-14.144932
1557.218322	-13.062479
1558.027612	-12.148471
1558.837743	-11.369089
1559.648717	-10.699849
1560.460536	-10.122614
1561.273200	-9.623797
1562.086710	-9.193010
1562.901069	-8.821896
1563.716278	-8.503558
1564.532337	-8.232529
1565.349249	-8.004294
1566.167014	-7.814933
1566.985634	-7.660864
1567.805111	-7.538919
1568.625444	-7.446287
1569.446637	-7.380293
1570.268690	-7.338269
1571.091605	-7.317633
1571.915382	-7.315981
1572.740024	-7.330965
1573.565532	-7.360212
1574.391907	-7.401561
1575.219150	-7.453066
1576.047262	-7.512867
1576.876246	-7.579173
1577.706103	-7.650607
1578.536833	-7.726149
1579.368439	-7.804783
1580.200922	-7.885672
1581.034282	-7.968416
1581.868522	-8.052901
1582.703643	-8.138924
1583.539646	-8.226390
1584.376532	-8.315473
1585.214304	-8.406392
1586.052962	-8.499216
1586.892508	-8.593980
1587.732943	-8.690805
1588.574269	-8.789598
1589.416487	-8.890089
1590.259599	-8.992140
1591.103605	-9.095587
1591.948508	-9.199896
1592.794309	-9.304526
1593.641009	-9.409369
1594.488609	-9.514256
1595.337112	-9.618680
1596.186518	-9.722492
1597.036829	-9.825947
1597.888047	-9.929163
1598.740172	-10.032118
1599.593207	-10.135290
1600.447153	-10.239259
1601.302010	-10.344303
1602.157782	-10.450778
1603.014469	-10.559510
1603.872072	-10.670954
1604.730593	-10.785239
1605.590034	-10.902914
1606.450397	-11.024621
1607.311681	-11.150386
1608.173890	-11.280305
1609.037024	-11.414829
1609.901085	-11.554042
1610.766075	-11.697730
1611.631995	-11.846013
1612.498846	-11.998885
1613.366630	-12.155952
1614.235349	-12.316917
1615.105004	-12.481621
1615.975596	-12.649577
1616.847128	-12.820170
1617.719600	-12.992973
1618.593014	-13.167371
1619.467372	-13.342666
1620.342675	-13.518317
1621.218924	-13.693567
1622.096122	-13.867600
1622.974270	-14.040084
1623.853369	-14.210284
1624.733420	-14.377362
1625.614427	-14.540963
1626.496389	-14.700695
1627.379308	-14.856011
1628.263187	-15.006551
1629.148026	-15.152152
1630.033828	-15.292607
1630.920593	-15.427883
1631.808324	-15.558017
1632.697022	-15.682970
1633.586688	-15.803003
1634.477324	-15.918355
1635.368932	-16.029079
1636.261514	-16.135594
1637.155070	-16.238121
1638.049602	-16.336687
1638.945113	-16.431800
1639.841603	-16.523460
1640.739075	-16.611577
1641.637529	-16.696507
1642.536968	-16.778005
1643.437393	-16.855997
1644.338806	-16.930478
1645.241209	-17.001011
1646.144602	-17.067470
1647.048988	-17.129702
1647.954368	-17.186981
1648.860744	-17.239330
1649.768118	-17.286444
1650.676491	-17.327595
1651.585865	-17.362937
1652.496241	-17.392242
1653.407621	-17.414907
1654.320008	-17.431325
1655.233401	-17.441256
1656.147804	-17.444594
1657.063218	-17.441824
1657.979645	-17.432844
1658.897085	-17.417950
1659.815542	-17.397633
1660.735016	-17.372088
1661.655509	-17.341820
1662.577023	-17.307244
1663.499560	-17.268771
1664.423121	-17.226958
1665.347709	-17.182019
1666.273324	-17.134584
1667.199969	-17.084880
1668.127645	-17.033144
1669.056353	-16.979916
1669.986097	-16.925122
1670.916877	-16.869019
1671.848695	-16.811881
1672.781553	-16.753540
1673.715452	-16.694281
1674.650395	-16.634073
1675.586383	-16.572881
1676.523418	-16.510933
1677.461501	-16.448058
1678.400635	-16.384464
1679.340821	-16.320199
1680.282061	-16.255269
1681.224357	-16.189864
1682.167710	-16.124002
1683.112122	-16.057870
1684.057595	-15.991562
1685.004132	-15.925192
1685.951732	-15.858897
1686.900400	-15.792757
1687.850135	-15.726893
1688.800940	-15.661343
1689.752818	-15.596180
1690.705768	-15.531495
1691.659795	-15.467233
1692.614898	-15.403448
1693.571081	-15.340173
1694.528345	-15.277348
1695.486691	-15.215011
1696.446122	-15.153194
1697.406640	-15.091849
1698.368245	-15.031083
1699.330941	-14.970919
1700.294729	-14.911303
1701.259611	-14.852466
1702.225588	-14.794306
1703.192664	-14.736972
1704.160838	-14.680529
1705.130114	-14.624949
1706.100493	-14.570352
1707.071977	-14.516650
1708.044568	-14.463948
1709.018268	-14.412163
1709.993079	-14.361309
1710.969003	-14.311386
1711.946041	-14.262331
1712.924196	-14.214163
1713.903469	-14.166849
1714.883862	-14.120422
1715.865378	-14.074820
1716.848017	-14.030093
1717.831783	-13.986176
1718.816677	-13.943085
1719.802701	-13.900777
1720.789857	-13.859212
1721.778147	-13.818367
1722.767573	-13.778189
1723.758136	-13.738656
1724.749840	-13.699732
1725.742685	-13.661422
1726.736673	-13.623689
1727.731808	-13.586546
1728.728090	-13.549983
1729.725521	-13.514016
1730.724105	-13.478631
1731.723842	-13.443851
1732.724735	-13.409627
1733.726785	-13.376002
1734.729995	-13.342943
1735.734366	-13.310462
1736.739902	-13.278593
1737.746603	-13.247323
1738.754472	-13.216706
1739.763510	-13.186725
1740.773721	-13.157439
1741.785105	-13.128833
1742.797665	-13.100931
1743.811403	-13.073712
1744.826321	-13.047202
1745.842422	-13.021352
1746.859706	-12.996158
1747.878177	-12.971600
1748.897835	-12.947645
1749.918685	-12.924287
1750.940726	-12.901484
1751.963963	-12.879236
1752.988395	-12.857514
1754.014027	-12.836292
1755.040860	-12.815552
1756.068895	-12.795265
1757.098135	-12.775380
1758.128583	-12.755864
1759.160240	-12.736648
1760.193109	-12.717671
1761.227191	-12.698892
1762.262488	-12.680245
1763.299004	-12.661707
1764.336740	-12.643219
1765.375697	-12.624775
1766.415880	-12.606350
1767.457288	-12.587934
1768.499926	-12.569537
1769.543794	-12.551148
1770.588895	-12.532792
1771.635231	-12.514486
1772.682805	-12.496236
1773.731619	-12.478076
1774.781674	-12.460008
1775.832973	-12.442069
1776.885519	-12.424285
1777.939312	-12.406691
1778.994357	-12.389323
1780.050654	-12.372216
1781.108207	-12.355412
1782.167017	-12.338937
1783.227087	-12.322811
1784.288418	-12.307078
1785.351013	-12.291733
1786.414875	-12.276801
1787.480006	-12.262275
1788.546407	-12.248141
1789.614082	-12.234406
1790.683032	-12.221042
1791.753259	-12.208052
1792.824767	-12.195435
1793.897557	-12.183178
1794.971632	-12.171292
1796.046994	-12.159775
1797.123645	-12.148637
1798.201588	-12.137873
1799.280824	-12.127486
1800.361357	-12.117492
1801.443188	-12.107895
1802.526320	-12.098691
1803.610756	-12.089871
1804.696497	-12.081394
1805.783546	-12.073238
1806.871906	-12.065373
1807.961578	-12.057767
1809.052565	-12.050398
1810.144870	-12.043243
1811.238494	-12.036314
1812.333441	-12.029629
1813.429713	-12.023187
1814.527311	-12.016992
1815.626239	-12.011037
1816.726499	-12.005289
1817.828094	-11.999710
1818.931025	-11.994238
1820.035295	-11.988833
1821.140906	-11.983472
1822.247862	-11.978124
1823.356165	-11.972791
1824.465816	-11.967471
1825.576819	-11.962184
1826.689175	-11.956949
1827.802888	-11.951783
1828.917960	-11.946681
1830.034394	-11.941639
1831.152191	-11.936635
1832.271354	-11.931652
1833.391887	-11.926665
1834.513790	-11.921651
1835.637068	-11.916607
1836.761722	-11.911516
1837.887755	-11.906386
1839.015169	-11.901237
1840.143968	-11.896120
1841.274153	-11.891111
1842.405727	-11.886267
1843.538693	-11.881626
1844.673053	-11.877220
1845.808810	-11.873066
1846.945966	-11.869156
1848.084525	-11.865492
1849.224488	-11.862055
1850.365858	-11.858860
1851.508638	-11.855921
1852.652831	-11.853260
1853.798438	-11.850897
1854.945463	-11.848842
1856.093909	-11.847076
1857.243777	-11.845588
1858.395071	-11.844341
1859.547794	-11.843308
1860.701947	-11.842466
1861.857533	-11.841790
1863.014556	-11.841265
1864.173018	-11.840875
1865.332922	-11.840597
1866.494270	-11.840415
1867.657065	-11.840339
1868.821309	-11.840371
1869.987006	-11.840539
1871.154158	-11.840875
1872.322768	-11.841435
1873.492839	-11.842271
1874.664373	-11.843409
1875.837373	-11.844841
1877.011841	-11.846547
1878.187782	-11.848501
1879.365197	-11.850690
1880.544089	-11.853087
1881.724460	-11.855683
1882.906315	-11.858497
1884.089655	-11.861539
1885.274483	-11.864798
1886.460803	-11.868271
1887.648616	-11.871951
1888.837927	-11.875829
1890.028736	-11.879902
1891.221049	-11.884157
1892.414866	-11.888584
1893.610192	-11.893151
1894.807028	-11.897823
1896.005379	-11.902590
1897.205246	-11.907475
1898.406633	-11.912501
1899.609542	-11.917712
1900.813977	-11.923151
1902.019940	-11.928827
1903.227434	-11.934715
1904.436462	-11.940763
1905.647028	-11.946907
1906.859133	-11.953094
1908.072781	-11.959293
1909.287976	-11.965492
1910.504719	-11.971700
1911.723013	-11.977923
1912.942863	-11.984160
1914.164270	-11.990417
1915.387238	-11.996687
1916.611770	-12.002948
1917.837868	-12.009177
1919.065536	-12.015356
1920.294777	-12.021478
1921.525594	-12.027559
1922.757989	-12.033622
1923.991967	-12.039712
1925.227529	-12.045885
1926.464679	-12.052199
1927.703420	-12.058716
1928.943755	-12.065512
1930.185688	-12.072650
1931.429221	-12.080172
1932.674356	-12.088112
1933.921099	-12.096486
1935.169451	-12.105267
1936.419415	-12.114416
1937.670996	-12.123869
1938.924195	-12.133560
1940.179017	-12.143454
1941.435463	-12.153551
1942.693538	-12.163883
1943.953245	-12.174516
1945.214586	-12.185477
1946.477566	-12.196741
1947.742186	-12.208224
1949.008451	-12.219835
1950.276363	-12.231506
1951.545926	-12.243243
1952.817143	-12.255129
1954.090017	-12.267300
1955.364551	-12.279904
1956.640749	-12.293021
1957.918615	-12.306658
1959.198150	-12.320757
1960.479359	-12.335236
1961.762244	-12.350022
1963.046810	-12.365077
1964.333059	-12.380416
1965.620995	-12.396083
1966.910621	-12.412106
1968.201940	-12.428498
1969.494956	-12.445206
1970.789672	-12.462172
1972.086091	-12.479335
1973.384217	-12.496659
1974.684053	-12.514158
1975.985602	-12.531875
1977.288869	-12.549826
1978.593855	-12.567993
1979.900566	-12.586304
1981.209003	-12.604660
1982.519171	-12.622966
1983.831073	-12.641180
1985.144712	-12.659304
1986.460093	-12.677361
1987.777217	-12.695390
1989.096089	-12.713419
1990.416713	-12.731437
1991.739092	-12.749428
1993.063228	-12.767372
1994.389127	-12.785294
1995.716791	-12.803265
1997.046223	-12.821392
1998.377428	-12.839779
1999.710409	-12.858499
2001.045169	-12.877574
2002.381713	-12.896974
2003.720043	-12.916657
2005.060163	-12.936594
2006.402077	-12.956797
2007.745788	-12.977284
2009.091301	-12.998080
2010.438618	-13.019163
2011.787743	-13.040487
2013.138680	-13.062016
2014.491433	-13.083742
2015.846005	-13.105704
2017.202399	-13.127982
2018.560621	-13.150659
2019.920673	-13.173813
2021.282558	-13.197492
2022.646281	-13.221699
2024.011846	-13.246395
2025.379256	-13.271533
2026.748515	-13.297100
2028.119626	-13.323135
2029.492594	-13.349706
2030.867422	-13.376886
2032.244114	-13.404714
2033.622673	-13.433168
2035.003104	-13.462199
2036.385411	-13.491760
2037.769597	-13.521830
2039.155665	-13.552413
2040.543621	-13.583518
2041.933467	-13.615121
2043.325208	-13.647173
2044.718847	-13.679623
2046.114389	-13.712439
2047.511837	-13.745598
2048.911195	-13.779076
2050.312467	-13.812806
2051.715657	-13.846691
2053.120769	-13.880638
2054.527807	-13.914607
2055.936775	-13.948601
2057.347677	-13.982675
2058.760516	-14.016892
2060.175297	-14.051285
2061.592025	-14.085826
2063.010701	-14.120495
2064.431332	-14.155314
2065.853921	-14.190359
2067.278472	-14.225741
2068.704988	-14.261524
2070.133475	-14.297643
2071.563936	-14.333906
2072.996375	-14.370044
2074.430796	-14.405812
2075.867204	-14.441125
2077.305603	-14.476118
2078.745996	-14.511104
2080.188389	-14.546445
2081.632784	-14.582360
2083.079187	-14.618806
2084.527601	-14.655526
2085.978030	-14.692256
2087.430480	-14.728931
2088.884954	-14.765759
2090.341455	-14.803089
2091.799990	-14.841224
2093.260561	-14.880264
2094.723173	-14.920140
2096.187831	-14.960699
2097.654538	-15.001822
2099.123300	-15.043420
2100.594119	-15.085500
2102.067001	-15.128183
2103.541950	-15.171728
2105.018971	-15.216401
2106.498067	-15.262300
2107.979243	-15.309248
2109.462503	-15.356916
2110.947853	-15.405031
2112.435295	-15.453569
2113.924836	-15.502716
2115.416478	-15.552719
2116.910227	-15.603730
2118.406087	-15.655775
2119.904063	-15.708756
2121.404158	-15.762498
2122.906378	-15.816746
2124.410727	-15.871221
2125.917210	-15.925712
2127.425831	-15.980244
2128.936594	-16.035099
2130.449505	-16.090594
2131.964567	-16.146800
2133.481786	-16.203331
2135.001166	-16.259599
2136.522711	-16.315181
2138.046427	-16.370191
2139.572317	-16.425155
2141.100388	-16.480653
2142.630642	-16.536916
2144.163085	-16.593717
2145.697722	-16.650603
2147.234558	-16.707189
2148.773596	-16.763310
2150.314842	-16.819017
2151.858301	-16.874514
2153.403977	-16.930059
2154.951875	-16.985880
2156.502000	-17.042030
2158.054357	-17.098355
2159.608950	-17.154620
2161.165785	-17.210700
2162.724866	-17.266695
2164.286198	-17.322813
2165.849786	-17.379257
2167.415635	-17.436173
2168.983749	-17.493758
2170.554134	-17.552203
2172.126795	-17.611601
2173.701737	-17.671864
2175.278964	-17.732879
2176.858481	-17.794666
2178.440294	-17.857421
2180.024408	-17.921313
2181.610827	-17.986336
2183.199557	-18.052298
2184.790602	-18.119024
2186.383968	-18.186536
2187.979660	-18.255048
2189.577683	-18.324783
2191.178041	-18.395775
2192.780741	-18.467881
2194.385787	-18.540923
2195.993185	-18.614878
2197.602939	-18.689883
2199.215054	-18.759687
