# 2022-03-21_18.08.23
# shape = sech2
# FWHM_ps = 0.1
# carrier_nm = 1542
# frep_MHz = 12126
# pow_mW = 8000
# GDD = 0.0
# propa_len = 0.15222222222222223
# untap_len = 0.01
# taper_len = 0.09222222222222223
# waist_len = 0.02
# uptap_len = 0.02
# untap_scale = 1.0
# waist_scale = 0.15555555555555556
# workingDir = NL_20110305_12 (Spirou)
# axis = slow
# window_ps = 10.0
# steps = 200
# points = 21700
# 
# wavelength [nm]	 power spectral density [dB]
600.043425	-94.665354
600.163550	-94.836994
600.283723	-90.863185
600.403943	-91.836340
600.524212	-98.598272
600.644529	-95.960881
600.764895	-91.562002
600.885308	-91.741219
601.005770	-95.806003
601.126280	-95.314706
601.246839	-91.106065
601.367446	-91.281293
601.488101	-93.289198
601.608804	-93.081672
601.729557	-90.224524
601.850357	-89.380094
601.971206	-89.260581
602.092104	-89.582683
602.213050	-89.528708
602.334045	-90.144576
602.455089	-90.028726
602.576181	-91.012982
602.697322	-93.306892
602.818511	-95.761820
602.939749	-94.574165
603.061036	-94.205104
603.182372	-99.398166
603.303757	-109.940653
603.425191	-104.482640
603.546673	-109.024723
603.668204	-95.393227
603.789785	-92.837281
603.911414	-95.804337
604.033092	-99.224297
604.154820	-94.533095
604.276596	-94.087731
604.398422	-103.164823
604.520297	-94.943306
604.642220	-91.763269
604.764193	-95.837683
604.886216	-95.306296
605.008287	-90.649087
605.130408	-91.492659
605.252578	-94.798893
605.374798	-91.056800
605.497066	-88.377554
605.619385	-89.430431
605.741752	-91.858647
605.864169	-91.018139
605.986636	-89.473683
606.109152	-90.477497
606.231718	-91.292634
606.354333	-90.798501
606.476998	-89.876352
606.599712	-90.209499
606.722476	-89.826114
606.845290	-89.430010
606.968154	-89.804876
607.091067	-89.358972
607.214030	-88.214694
607.337043	-87.524862
607.460106	-87.497059
607.583219	-86.938771
607.706381	-86.053887
607.829594	-86.145104
607.952856	-87.590493
608.076169	-86.690815
608.199531	-86.680720
608.322944	-87.811039
608.446407	-88.040446
608.569920	-87.148648
608.693483	-85.912397
608.817096	-86.663529
608.940759	-88.233092
609.064473	-89.642957
609.188237	-89.822190
609.312051	-91.282203
609.435916	-95.830601
609.559831	-95.604871
609.683796	-94.927459
609.807812	-96.114326
609.931878	-104.547369
610.055995	-105.273636
610.180162	-100.565737
610.304380	-105.691279
610.428648	-101.502292
610.552967	-95.792703
610.677337	-93.592479
610.801757	-89.960610
610.926228	-87.690643
611.050750	-85.229362
611.175323	-84.075367
611.299946	-82.337065
611.424620	-80.952986
611.549345	-79.955118
611.674121	-78.963569
611.798948	-77.960077
611.923826	-77.854025
612.048755	-78.201369
612.173734	-77.508069
612.298765	-77.084306
612.423847	-77.849208
612.548980	-78.551842
612.674165	-77.772611
612.799400	-77.606537
612.924687	-79.165921
613.050025	-80.525088
613.175414	-80.042315
613.300854	-79.246581
613.426346	-80.186117
613.551889	-81.669410
613.677484	-80.514236
613.803130	-79.469046
613.928827	-79.613263
614.054576	-80.263878
614.180377	-80.057120
614.306229	-79.973621
614.432132	-80.706187
614.558087	-81.582747
614.684094	-81.513587
614.810153	-82.090981
614.936263	-83.537171
615.062425	-85.028040
615.188639	-85.297731
615.314904	-85.218644
615.441222	-85.806444
615.567591	-85.785028
615.694012	-85.841071
615.820486	-84.509340
615.947011	-83.220699
616.073588	-83.422904
616.200217	-84.163141
616.326898	-82.838052
616.453632	-81.747230
616.580417	-83.282974
616.707255	-84.172062
616.834144	-83.134413
616.961086	-83.028333
617.088081	-87.363108
617.215127	-87.178787
617.342226	-84.814218
617.469378	-88.252579
617.596581	-92.325738
617.723837	-86.245539
617.851146	-86.750446
617.978507	-94.158522
618.105920	-99.271474
618.233386	-94.145385
618.360905	-95.282924
618.488476	-88.924154
618.616100	-88.723601
618.743777	-93.720078
618.871506	-86.986072
618.999288	-83.698032
619.127123	-86.650248
619.255011	-87.250519
619.382951	-83.820722
619.510945	-83.419192
619.638991	-85.996531
619.767090	-83.704662
619.895243	-81.749836
620.023448	-83.722191
620.151706	-88.127382
620.280017	-85.627520
620.408382	-86.731650
620.536799	-92.251029
620.665270	-87.016367
620.793794	-85.377664
620.922371	-87.778144
621.051002	-85.628366
621.179686	-82.708786
621.308423	-84.010383
621.437213	-87.341910
621.566057	-84.121591
621.694954	-84.398134
621.823905	-88.340416
621.952909	-86.967202
622.081967	-85.916920
622.211079	-89.767239
622.340244	-96.011992
622.469462	-93.303012
622.598735	-98.492410
622.728061	-96.597581
622.857441	-92.474515
622.986874	-94.435134
623.116361	-92.216578
623.245903	-88.684826
623.375498	-88.366880
623.505147	-85.950625
623.634850	-84.297062
623.764606	-84.394485
623.894417	-83.554849
624.024282	-82.164330
624.154201	-81.704844
624.284174	-82.177050
624.414202	-81.812064
624.544283	-80.617177
624.674419	-81.196127
624.804609	-82.043219
624.934853	-80.512376
625.065151	-79.508670
625.195504	-80.284290
625.325911	-79.567799
625.456373	-77.985450
625.586889	-78.226797
625.717460	-79.485455
625.848085	-78.098974
625.978764	-77.059813
626.109498	-78.707201
626.240287	-77.626311
626.371131	-75.746506
626.502029	-76.459834
626.632982	-78.188624
626.763989	-76.821443
626.895052	-76.748308
627.026169	-79.060393
627.157341	-78.458085
627.288568	-77.084815
627.419850	-79.735738
627.551187	-83.056187
627.682579	-81.196642
627.814026	-82.727736
627.945528	-88.117180
628.077085	-85.348242
628.208697	-87.262661
628.340364	-91.513953
628.472087	-86.010914
628.603865	-86.454472
628.735698	-93.077535
628.867586	-88.745105
628.999530	-89.023980
629.131529	-103.964921
629.263584	-90.066922
629.395694	-89.936144
629.527859	-104.690346
629.660080	-91.172875
629.792357	-88.719994
629.924689	-95.252300
630.057077	-92.044241
630.189520	-89.754280
630.322019	-92.832945
630.454574	-112.110512
630.587184	-93.210177
630.719851	-90.437759
630.852573	-93.034517
630.985351	-100.068228
631.118185	-102.216847
631.251075	-94.842745
631.384021	-92.266404
631.517023	-95.549725
631.650081	-103.263813
631.783195	-90.144266
631.916365	-87.665476
632.049592	-92.109115
632.182874	-100.165500
632.316213	-89.454320
632.449608	-90.023638
632.583059	-99.917487
632.716567	-100.471509
632.850131	-94.136718
632.983751	-85.764297
633.117428	-84.594888
633.251161	-88.091701
633.384951	-82.510007
633.518797	-79.199144
633.652700	-81.170683
633.786660	-82.369394
633.920676	-78.729827
634.054749	-78.718063
634.188879	-82.133697
634.323065	-79.748372
634.457308	-78.981676
634.591608	-82.562793
634.725965	-84.663766
634.860379	-82.392481
634.994850	-83.810051
635.129377	-90.744253
635.263962	-88.673757
635.398604	-83.849105
635.533303	-84.652108
635.668058	-89.368037
635.802872	-83.721708
635.937742	-80.727116
636.072669	-83.360071
636.207654	-88.935023
636.342696	-83.314654
636.477796	-83.147838
636.612953	-90.733728
636.748167	-98.036348
636.883439	-90.676298
637.018768	-85.189308
637.154155	-84.537116
637.289599	-95.501580
637.425101	-84.396104
637.560660	-81.212892
637.696277	-83.892133
637.831952	-84.974612
637.967685	-81.288402
638.103475	-81.995341
638.239324	-85.729559
638.375230	-88.796245
638.511194	-82.728476
638.647215	-80.215454
638.783295	-80.759310
638.919433	-80.579916
639.055629	-78.810189
639.191883	-78.722485
639.328195	-80.091816
639.464565	-80.322087
639.600994	-78.978886
639.737481	-81.861242
639.874025	-88.467953
640.010629	-84.689269
640.147290	-87.107038
640.284010	-94.308926
640.420789	-86.039845
640.557625	-92.007346
640.694521	-91.743998
640.831474	-86.009817
640.968487	-101.016220
641.105558	-84.903820
641.242687	-81.347221
641.379876	-85.961842
641.517123	-82.335956
641.654429	-79.859106
641.791793	-82.335255
641.929216	-84.126528
642.066699	-79.349140
642.204240	-80.080673
642.341840	-82.509931
642.479499	-80.673392
642.617217	-80.417339
642.754994	-86.206374
642.892830	-88.510998
643.030726	-86.980122
643.168680	-93.142961
643.306694	-88.320615
643.444767	-94.182386
643.582899	-84.510233
643.721091	-79.915869
643.859342	-81.130610
643.997652	-81.782483
644.136022	-78.902904
644.274451	-80.967754
644.412940	-90.411235
644.551488	-86.446306
644.690096	-84.624178
644.828763	-84.738623
644.967490	-91.846655
645.106277	-83.874264
645.245124	-78.393376
645.384030	-80.514463
645.522997	-81.008356
645.662023	-76.474731
645.801109	-78.291430
645.940255	-80.059902
646.079460	-76.083949
646.218726	-77.336786
646.358052	-80.379082
646.497438	-77.519995
646.636884	-79.464357
646.776391	-81.902610
646.915957	-79.262398
647.055584	-81.133112
647.195271	-90.954158
647.335019	-112.050055
647.474826	-93.577741
647.614695	-85.079881
647.754623	-86.116506
647.894612	-97.002854
648.034662	-85.979436
648.174772	-83.144580
648.314943	-85.710473
648.455174	-94.128060
648.595466	-84.366797
648.735819	-80.055640
648.876233	-82.464514
649.016707	-82.069007
649.157242	-77.423524
649.297838	-78.545480
649.438495	-86.076301
649.579213	-81.898142
649.719992	-79.906331
649.860832	-83.218966
650.001733	-86.409850
650.142695	-79.193224
650.283718	-79.338950
650.424803	-85.464351
650.565949	-80.689623
650.707156	-79.877417
650.848424	-87.921086
650.989754	-82.141773
651.131145	-82.223038
651.272597	-88.348863
651.414111	-81.306902
651.555687	-83.180242
651.697324	-89.337103
651.839022	-82.591653
651.980782	-85.652531
652.122604	-93.543586
652.264488	-90.873766
652.406433	-89.501717
652.548441	-85.162031
652.690510	-90.206568
652.832640	-87.359438
652.974833	-84.354917
653.117088	-89.741605
653.259405	-87.805132
653.401784	-88.147190
653.544224	-95.275080
653.686727	-85.931459
653.829293	-89.636114
653.971920	-83.202447
654.114609	-82.590203
654.257361	-85.384892
654.400175	-83.581374
654.543052	-83.856904
654.685991	-88.268454
654.828992	-90.480265
654.972056	-98.209625
655.115183	-92.415392
655.258372	-92.761969
655.401623	-89.157797
655.544937	-86.830345
655.688314	-82.100462
655.831754	-80.774007
655.975256	-80.062857
656.118822	-78.746115
656.262450	-81.542770
656.406141	-80.618694
656.549894	-79.194126
656.693711	-83.769021
656.837591	-93.531642
656.981534	-82.900846
657.125540	-81.918591
657.269610	-88.632239
657.413742	-85.039302
657.557938	-78.712327
657.702196	-82.558671
657.846519	-91.670046
657.990904	-79.948661
658.135353	-78.231782
658.279866	-85.446242
658.424441	-79.144356
658.569081	-74.755417
658.713784	-77.800919
658.858550	-81.451993
659.003381	-76.216343
659.148274	-78.936001
659.293232	-84.927237
659.438253	-80.752932
659.583339	-79.056607
659.728488	-80.652508
659.873701	-79.223225
660.018978	-77.239771
660.164318	-76.532357
660.309723	-77.104448
660.455192	-79.502769
660.600725	-80.585424
660.746323	-81.931929
660.891984	-92.837234
661.037710	-98.716476
661.183500	-82.445126
661.329354	-77.590644
661.475272	-80.929682
661.621255	-76.456906
661.767303	-74.422354
661.913415	-76.848894
662.059591	-73.030202
662.205833	-73.941562
662.352138	-77.533027
662.498509	-73.772746
662.644944	-76.059926
662.791443	-81.952710
662.938008	-78.799309
663.084638	-84.109005
663.231332	-89.290600
663.378091	-86.688453
663.524915	-85.515383
663.671804	-90.288293
663.818759	-84.240987
663.965778	-81.162869
664.112863	-87.099756
664.260012	-76.882541
664.407227	-77.055714
664.554507	-79.512416
664.701853	-75.089032
664.849264	-77.346172
664.996740	-84.590358
665.144282	-82.521627
665.291889	-86.241634
665.439561	-81.529101
665.587300	-81.338684
665.735103	-73.077683
665.882973	-71.626556
666.030908	-70.840964
666.178909	-69.461261
666.326976	-70.508866
666.475109	-70.804393
666.623307	-72.037349
666.771571	-75.035203
666.919902	-76.220480
667.068298	-79.864491
667.216761	-84.103374
667.365289	-78.702668
667.513884	-76.597027
667.662545	-79.974070
667.811272	-75.647684
667.960065	-76.021490
668.108925	-84.444024
668.257851	-78.961839
668.406843	-86.026852
668.555902	-80.919901
668.705027	-87.589530
668.854219	-79.707925
669.003478	-78.001876
669.152803	-87.474288
669.302195	-76.884430
669.451653	-82.310526
669.601179	-83.921295
669.750771	-82.622285
669.900430	-83.157654
670.050156	-84.243049
670.199949	-79.190071
670.349808	-76.291456
670.499735	-82.749067
670.649729	-76.602512
670.799790	-79.569759
670.949918	-77.136050
671.100114	-77.329028
671.250377	-81.218858
671.400707	-75.360981
671.551104	-82.940763
671.701569	-75.907201
671.852101	-79.030288
672.002700	-79.501517
672.153368	-76.652475
672.304102	-98.018634
672.454905	-79.602209
672.605775	-92.025710
672.756713	-76.113614
672.907718	-78.664149
673.058791	-79.801241
673.209933	-76.022736
673.361142	-90.807960
673.512419	-78.152063
673.663764	-86.998098
673.815177	-77.963708
673.966658	-78.824546
674.118207	-80.472269
674.269825	-74.288694
674.421510	-82.731503
674.573264	-76.461769
674.725086	-77.786706
674.876977	-88.395818
675.028936	-81.079759
675.180963	-84.204272
675.333059	-79.601926
675.485224	-85.784573
675.637457	-78.885705
675.789758	-84.800295
675.942129	-80.862182
676.094568	-80.621952
676.247075	-81.217564
676.399652	-78.035267
676.552298	-77.439920
676.705012	-72.917528
676.857795	-74.835214
677.010648	-73.453674
677.163569	-75.482650
677.316560	-93.530848
677.469619	-87.683687
677.622748	-80.760256
677.775946	-76.206966
677.929214	-84.025046
678.082551	-75.331569
678.235957	-80.799025
678.389432	-76.820937
678.542977	-75.850256
678.696592	-79.256751
678.850276	-74.061989
679.004030	-81.905838
679.157853	-75.464548
679.311746	-79.718404
679.465709	-78.680849
679.619742	-77.794484
679.773844	-79.494281
679.928017	-76.357650
680.082259	-82.093311
680.236571	-76.509615
680.390954	-80.022078
680.545406	-77.802792
680.699929	-79.001774
680.854522	-89.556890
681.009185	-82.290051
681.163918	-74.803613
681.318722	-75.596098
681.473596	-72.343855
681.628540	-70.028627
681.783555	-74.760368
681.938641	-74.113243
682.093797	-75.559544
682.249023	-81.079915
682.404321	-86.980592
682.559689	-72.514804
682.715128	-70.750285
682.870637	-74.741659
683.026218	-70.325270
683.181869	-73.348735
683.337591	-79.868721
683.493385	-76.029257
683.649249	-80.835932
683.805185	-104.523551
683.961191	-74.560677
684.117269	-72.601693
684.273418	-74.543459
684.429639	-70.612608
684.585930	-75.184577
684.742294	-80.080887
684.898728	-78.834336
685.055234	-83.669108
685.211812	-87.196121
685.368461	-76.481177
685.525182	-76.476478
685.681975	-80.560283
685.838839	-73.134265
685.995775	-78.891164
686.152783	-86.725658
686.309863	-78.867115
686.467014	-73.044817
686.624238	-84.420848
686.781534	-74.915902
686.938902	-78.925262
687.096342	-75.482155
687.253854	-73.980303
687.411438	-77.410704
687.569095	-70.432115
687.726824	-76.895294
687.884626	-72.052381
688.042499	-74.786767
688.200446	-86.540658
688.358465	-81.229482
688.516556	-78.030168
688.674720	-81.395799
688.832957	-80.275225
688.991266	-78.532029
689.149649	-83.301967
689.308104	-77.839806
689.466632	-86.296008
689.625233	-79.021347
689.783906	-84.368108
689.942653	-73.051116
690.101473	-80.647897
690.260367	-75.097308
690.419333	-75.187302
690.578372	-84.928956
690.737485	-74.698052
690.896672	-80.739062
691.055931	-80.708141
691.215264	-72.676338
691.374671	-76.213444
691.534151	-74.971157
691.693704	-72.014048
691.853332	-82.093558
692.013033	-73.011141
692.172807	-79.987000
692.332656	-71.955571
692.492578	-73.865113
692.652575	-75.149781
692.812645	-73.967549
692.972789	-82.291299
693.133007	-73.891276
693.293300	-97.235735
693.453666	-74.105489
693.614107	-81.775460
693.774622	-78.720873
693.935211	-76.614450
694.095875	-75.643014
694.256613	-87.709063
694.417426	-71.385167
694.578313	-76.821589
694.739274	-73.474517
694.900311	-72.947859
695.061421	-86.385962
695.222607	-78.686083
695.383868	-78.710262
695.545203	-74.681978
695.706613	-81.968064
695.868098	-72.418055
696.029658	-83.930485
696.191293	-75.967979
696.353003	-79.599083
696.514789	-77.280547
696.676649	-82.952343
696.838585	-76.425428
697.000596	-89.519765
697.162682	-73.837327
697.324844	-78.619665
697.487081	-77.466873
697.649394	-77.346456
697.811782	-76.803397
697.974246	-84.805325
698.136786	-69.804644
698.299401	-70.348531
698.462092	-72.494250
698.624859	-69.468975
698.787702	-77.602158
698.950621	-73.084316
699.113616	-86.725972
699.276686	-75.158259
699.439833	-80.538223
699.603056	-80.588859
699.766355	-79.525699
699.929731	-78.992069
700.093183	-78.189132
700.256711	-74.442566
700.420315	-84.545765
700.583996	-73.364294
700.747754	-83.489512
700.911588	-70.395623
701.075499	-76.641115
701.239486	-66.392325
701.403550	-67.455201
701.567691	-66.857289
701.731909	-66.762323
701.896203	-71.461545
702.060575	-68.579403
702.225024	-79.779209
702.389549	-80.050201
702.554152	-78.390328
702.718832	-82.336385
702.883589	-73.333402
703.048424	-72.574445
703.213335	-72.447915
703.378324	-67.735418
703.543391	-73.753609
703.708535	-69.205465
703.873757	-87.480936
704.039056	-71.705504
704.204433	-83.517399
704.369887	-70.864289
704.535420	-76.729346
704.701030	-72.094558
704.866718	-77.825033
705.032484	-74.202527
705.198328	-75.524750
705.364250	-67.021578
705.530250	-68.728868
705.696328	-65.314790
705.862485	-66.485090
706.028720	-70.501422
706.195033	-69.300317
706.361424	-79.358088
706.527894	-72.596193
706.694442	-80.048505
706.861069	-85.858514
707.027775	-71.847079
707.194559	-74.363907
707.361422	-70.580986
707.528363	-71.521018
707.695384	-74.204744
707.862483	-73.976840
708.029661	-71.180947
708.196918	-68.088530
708.364254	-66.355586
708.531670	-64.359734
708.699164	-68.889434
708.866738	-67.763944
709.034391	-83.916658
709.202123	-76.051196
709.369935	-70.031504
709.537826	-65.304519
709.705796	-66.776888
709.873847	-63.238781
710.041976	-66.555130
710.210186	-65.696546
710.378475	-72.673573
710.546844	-76.083940
710.715292	-86.629222
710.883821	-74.086878
711.052429	-75.561472
711.221118	-68.306482
711.389887	-68.792641
711.558735	-64.743557
711.727664	-68.706005
711.896673	-64.540095
712.065763	-68.034479
712.234932	-67.643667
712.404183	-77.630019
712.573513	-72.981175
712.742924	-79.432201
712.912416	-72.092745
713.081988	-74.192708
713.251641	-66.518577
713.421375	-67.008492
713.591190	-63.614239
713.761085	-66.448966
713.931061	-65.414067
714.101119	-71.871473
714.271257	-73.250381
714.441476	-87.184287
714.611777	-69.926753
714.782159	-68.685039
714.952622	-63.699991
715.123166	-66.273393
715.293792	-65.253509
715.464499	-69.137795
715.635288	-65.408602
715.806158	-69.496863
715.977110	-70.223380
716.148143	-84.436740
716.319259	-68.188358
716.490456	-68.354082
716.661735	-63.029907
716.833096	-66.059762
717.004538	-64.053681
717.176063	-71.360704
717.347670	-66.653913
717.519359	-74.850697
717.691130	-67.639999
717.862984	-69.343660
718.034920	-63.837349
718.206938	-68.320921
718.379039	-66.068804
718.551222	-72.514178
718.723488	-65.886034
718.895836	-68.061103
719.068267	-64.584234
719.240781	-69.586213
719.413377	-66.680887
719.586057	-75.392236
719.758819	-71.081418
719.931664	-65.144226
720.104593	-62.824137
720.277604	-62.723180
720.450699	-63.138488
720.623876	-68.090620
720.797137	-69.052547
720.970482	-69.303109
721.143910	-69.238873
721.317421	-66.115271
721.491016	-67.772908
721.664694	-66.994129
721.838456	-69.482389
722.012302	-65.612634
722.186231	-68.580362
722.360244	-66.747539
722.534342	-71.474998
722.708523	-66.564629
722.882788	-69.979853
723.057137	-64.766483
723.231570	-67.388469
723.406088	-64.692314
723.580689	-68.524716
723.755375	-64.877615
723.930146	-67.629368
724.105000	-65.720989
724.279940	-67.618684
724.454963	-63.233783
724.630072	-62.812332
724.805265	-61.940985
724.980543	-67.713758
725.155905	-69.294060
725.331353	-68.261622
725.506885	-66.407698
725.682503	-64.769971
725.858205	-64.407934
726.033993	-63.247505
726.209865	-64.249093
726.385823	-65.115313
726.561866	-68.710618
726.737995	-66.656542
726.914209	-69.426981
727.090508	-67.063234
727.266893	-73.110584
727.443364	-64.285392
727.619920	-63.656353
727.796562	-61.907994
727.973290	-67.218097
728.150103	-68.151277
728.327003	-68.866252
728.503988	-65.744993
728.681060	-65.393982
728.858218	-63.963136
729.035461	-63.690735
729.212791	-63.274551
729.390208	-62.803835
729.567710	-62.917971
729.745299	-64.686914
729.922975	-66.656842
730.100737	-68.644068
730.278586	-70.778061
730.456521	-63.891475
730.634543	-63.796205
730.812652	-63.396916
730.990848	-66.899622
731.169130	-63.108573
731.347500	-65.129092
731.525957	-66.531226
731.704500	-67.787438
731.883131	-62.947090
732.061850	-61.981499
732.240655	-62.147165
732.419548	-63.784842
732.598528	-66.017587
732.777596	-68.547182
732.956751	-69.753784
733.135994	-65.369752
733.315325	-66.509565
733.494744	-65.003096
733.674250	-66.911767
733.853844	-64.593229
734.033526	-64.693376
734.213296	-63.820198
734.393154	-66.479928
734.573101	-67.422777
734.753135	-65.667807
734.933258	-65.211789
735.113469	-63.864531
735.293769	-65.368424
735.474157	-65.300393
735.654633	-69.457851
735.835198	-66.545738
736.015852	-64.815279
736.196594	-62.218282
736.377426	-62.453013
736.558346	-63.634961
736.739355	-68.309117
736.920453	-67.107662
737.101640	-63.302303
737.282916	-63.174107
737.464282	-63.825596
737.645736	-66.023995
737.827280	-65.354501
738.008914	-67.029481
738.190637	-66.966211
738.372449	-67.038805
738.554351	-62.725733
738.736342	-62.763771
738.918424	-63.719197
739.100595	-70.097253
739.282855	-71.056428
739.465206	-65.719157
739.647647	-64.347263
739.830178	-61.820746
740.012799	-63.826907
740.195510	-63.296527
740.378311	-66.217824
740.561203	-64.291280
740.744185	-65.468229
740.927258	-63.858124
741.110421	-63.230365
741.293674	-63.216330
741.477018	-63.200894
741.660453	-66.491443
741.843979	-65.113244
742.027596	-67.718068
742.211303	-66.516806
742.395102	-71.369911
742.578991	-66.566519
742.762972	-64.392504
742.947044	-65.884628
743.131207	-66.171690
743.315461	-70.086517
743.499807	-71.266362
743.684244	-68.308997
743.868773	-63.613182
744.053394	-63.163603
744.238106	-64.077536
744.422910	-62.970009
744.607805	-63.336960
744.792793	-65.466031
744.977872	-73.683672
745.163044	-68.493416
745.348307	-64.337092
745.533663	-63.117802
745.719111	-67.020255
745.904651	-74.625321
746.090283	-65.838711
746.276008	-63.107338
746.461826	-63.318615
746.647735	-63.982301
746.833738	-63.273100
747.019833	-64.649052
747.206021	-64.583383
747.392302	-67.113365
747.578676	-67.916509
747.765143	-71.366333
747.951703	-67.766105
748.138356	-65.271434
748.325102	-65.419867
748.511941	-63.091596
748.698874	-64.604584
748.885900	-64.163605
749.073019	-70.383159
749.260232	-71.630722
749.447539	-68.537057
749.634939	-66.495044
749.822433	-62.188051
750.010021	-63.502260
750.197703	-64.413828
750.385479	-80.345237
750.573348	-68.058684
750.761312	-62.397662
750.949370	-63.118683
751.137523	-63.543843
751.325769	-66.717301
751.514110	-66.226016
751.702545	-70.691690
751.891075	-66.768667
752.079700	-64.329765
752.268419	-64.191636
752.457233	-63.682940
752.646142	-69.606560
752.835145	-77.376962
753.024244	-64.490420
753.213437	-61.497912
753.402726	-61.712527
753.592110	-64.431130
753.781589	-70.559138
753.971163	-70.501075
754.160833	-63.880086
754.350598	-64.836751
754.540459	-64.092794
754.730415	-61.824348
754.920467	-63.756023
755.110615	-67.089806
755.300858	-65.584409
755.491198	-62.034276
755.681633	-62.525438
755.872164	-62.679442
756.062792	-64.958973
756.253515	-78.190508
756.444335	-64.180163
756.635252	-61.403813
756.826264	-61.678423
757.017373	-63.044160
757.208579	-64.828695
757.399881	-63.868567
757.591280	-65.952576
757.782776	-64.204541
757.974368	-61.998793
758.166058	-62.056756
758.357844	-62.647272
758.549728	-65.307906
758.741708	-63.023289
758.933786	-64.120676
759.125961	-63.034167
759.318233	-58.791883
759.510603	-59.230398
759.703071	-60.015735
759.895635	-63.050055
760.088298	-62.911610
760.281058	-61.493236
760.473916	-62.332764
760.666872	-60.833509
760.859926	-60.200946
761.053078	-59.369155
761.246328	-63.093235
761.439676	-71.261495
761.633122	-62.534536
761.826667	-60.194898
762.020310	-58.696119
762.214052	-58.106636
762.407892	-59.017630
762.601831	-59.204237
762.795868	-61.673408
762.990004	-62.411871
763.184239	-60.743927
763.378573	-60.380712
763.573006	-59.758736
763.767538	-58.627593
763.962169	-57.140604
764.156900	-58.317506
764.351729	-59.259750
764.546658	-58.236081
764.741687	-60.183962
764.936815	-59.514242
765.132042	-58.157619
765.327370	-59.209750
765.522797	-59.824266
765.718324	-60.143428
765.913950	-59.193402
766.109677	-57.621592
766.305504	-56.911539
766.501431	-57.245131
766.697458	-58.767894
766.893586	-58.399415
767.089814	-57.576240
767.286142	-56.305520
767.482571	-55.835248
767.679100	-57.587553
767.875730	-57.896221
768.072461	-59.191277
768.269293	-58.599799
768.466225	-55.442159
768.663259	-55.649469
768.860393	-56.677436
769.057629	-58.937253
769.254966	-59.597422
769.452404	-57.433409
769.649944	-56.261933
769.847585	-54.705719
770.045328	-55.304824
770.243172	-57.535982
770.441118	-56.193640
770.639166	-55.227433
770.837315	-54.792809
771.035567	-56.003733
771.233920	-57.343926
771.432376	-56.047950
771.630934	-56.758237
771.829594	-55.050095
772.028356	-52.769172
772.227220	-54.383472
772.426188	-55.612092
772.625257	-56.929480
772.824430	-57.691095
773.023705	-55.616745
773.223083	-55.175269
773.422563	-54.716351
773.622147	-54.689182
773.821834	-56.453559
774.021624	-55.509186
774.221517	-54.156649
774.421513	-54.287458
774.621613	-54.899672
774.821816	-55.608787
775.022122	-55.721966
775.222532	-55.371793
775.423046	-54.125243
775.623664	-53.454290
775.824385	-53.716304
776.025211	-52.807518
776.226140	-53.437739
776.427173	-54.701933
776.628311	-54.040638
776.829553	-55.777702
777.030899	-56.270437
777.232350	-54.802864
777.433905	-54.961426
777.635564	-53.627640
777.837328	-53.346035
778.039197	-54.470143
778.241171	-53.339219
778.443250	-53.725479
778.645433	-52.901199
778.847722	-51.017551
779.050116	-52.367852
779.252615	-53.908742
779.455219	-55.563639
779.657929	-57.212286
779.860744	-54.475965
780.063665	-52.675895
780.266691	-52.694536
780.469823	-52.745368
780.673061	-54.212494
780.876405	-53.683491
781.079855	-52.327250
781.283410	-52.616302
781.487072	-52.134598
781.690840	-52.632260
781.894715	-53.832483
782.098695	-53.882636
782.302783	-53.857831
782.506976	-53.040291
782.711277	-52.509663
782.915684	-53.429197
783.120198	-53.474831
783.324818	-52.970783
783.529546	-53.168651
783.734381	-53.686176
783.939322	-53.558501
784.144372	-51.840456
784.349528	-50.898230
784.554792	-52.011945
784.760163	-52.838946
784.965642	-53.725540
785.171228	-54.246549
785.376922	-52.689642
785.582724	-51.580282
785.788634	-52.024509
785.994651	-52.870907
786.200777	-52.457043
786.407011	-51.674882
786.613353	-52.006167
786.819804	-52.728578
787.026363	-52.442383
787.233030	-53.306786
787.439806	-53.012048
787.646691	-51.238528
787.853684	-50.941542
788.060786	-51.435246
788.267997	-52.100249
788.475317	-53.728087
788.682746	-52.777752
788.890285	-51.645428
789.097932	-53.117373
789.305689	-53.105060
789.513555	-51.322565
789.721531	-51.591028
789.929617	-51.679919
790.137812	-51.753539
790.346117	-52.483059
790.554531	-51.393246
790.763056	-50.590234
790.971691	-51.447380
791.180436	-51.580906
791.389291	-51.999644
791.598256	-52.075974
791.807332	-50.793310
792.016518	-51.690342
792.225815	-52.627490
792.435222	-51.786715
792.644740	-52.008864
792.854369	-51.527142
793.064109	-50.201987
793.273960	-51.921344
793.483922	-52.736797
793.693995	-51.304471
793.904180	-51.384980
794.114475	-50.470595
794.324882	-50.003090
794.535401	-52.476111
794.746031	-52.051037
794.956774	-50.479491
795.167627	-51.332630
795.378593	-50.755845
795.589671	-51.295718
795.800861	-52.537710
796.012162	-50.208263
796.223577	-49.998572
796.435103	-51.398654
796.646742	-50.107305
796.858493	-51.077099
797.070357	-52.569653
797.282334	-50.522213
797.494423	-50.268371
797.706626	-51.096163
797.918941	-49.945801
798.131369	-50.201137
798.343911	-50.605398
798.556566	-49.575556
798.769334	-50.767366
798.982215	-52.269593
799.195210	-50.682343
799.408319	-49.503584
799.621541	-49.944395
799.834877	-49.319766
800.048327	-50.250397
800.261890	-52.099379
800.475568	-50.462843
800.689360	-49.559050
800.903266	-50.554917
801.117287	-49.627047
801.331422	-49.926693
801.545671	-50.772305
801.760036	-49.173514
801.974514	-49.822726
802.189108	-51.362774
802.403816	-49.737355
802.618640	-48.883561
802.833578	-48.749330
803.048632	-48.048599
803.263800	-50.143134
803.479085	-52.119974
803.694484	-49.703866
803.909999	-48.206876
804.125630	-49.258316
804.341376	-48.984932
804.557239	-49.135108
804.773217	-50.725862
804.989311	-49.209813
805.205521	-47.909750
805.421847	-49.927628
805.638290	-49.800690
805.854849	-48.605655
806.071524	-49.451056
806.288316	-48.770846
806.505225	-48.119555
806.722250	-49.595677
806.939393	-49.423418
807.156652	-48.090063
807.374028	-48.625055
807.591521	-49.755282
807.809132	-49.298568
808.026859	-48.742409
808.244705	-49.037079
808.462667	-47.406810
808.680748	-47.144487
808.898946	-49.059125
809.117261	-48.696076
809.335695	-48.169006
809.554246	-48.699033
809.772916	-47.468093
809.991704	-47.594779
810.210610	-49.134509
810.429634	-48.151640
810.648777	-46.917950
810.868039	-47.798367
811.087419	-48.832574
811.306918	-48.286513
811.526535	-47.901553
811.746272	-48.219636
811.966127	-47.020110
812.186102	-47.661897
812.406196	-49.676857
812.626409	-48.136384
812.846742	-46.690563
813.067194	-47.110407
813.287766	-47.009666
813.508457	-47.476258
813.729269	-48.697817
813.950200	-48.082399
814.171251	-46.177803
814.392422	-46.553584
814.613714	-48.579708
814.835126	-48.300363
815.056658	-47.471352
815.278311	-47.325923
815.500084	-46.444696
815.721978	-46.566023
815.943993	-47.660829
816.166128	-47.324033
816.388385	-46.518542
816.610762	-46.999481
816.833261	-48.260323
817.055881	-47.596531
817.278623	-46.464360
817.501486	-46.741994
817.724471	-46.694302
817.947577	-47.239928
818.170805	-47.720112
818.394155	-46.822947
818.617627	-45.930984
818.841221	-46.345007
819.064937	-47.568286
819.288775	-46.808343
819.512736	-45.892728
819.736819	-47.414909
819.961025	-47.332951
820.185354	-45.961861
820.409805	-46.607187
820.634379	-46.944595
820.859076	-46.320753
821.083897	-46.656764
821.308840	-47.394807
821.533907	-46.629146
821.759097	-45.512583
821.984411	-46.398324
822.209848	-46.770970
822.435409	-45.946966
822.661093	-46.605566
822.886902	-47.333793
823.112834	-46.974096
823.338891	-45.579588
823.565072	-45.305205
823.791377	-46.526439
824.017807	-46.555279
824.244361	-46.692297
824.471039	-46.578296
824.697843	-45.449961
824.924771	-45.454572
825.151824	-46.889712
825.379002	-47.520067
825.606306	-45.971432
825.833734	-44.808101
826.061288	-46.035040
826.288967	-47.217944
826.516772	-47.070858
826.744703	-45.798898
826.972759	-45.120667
827.200941	-45.399650
827.429249	-46.233384
827.657683	-47.019374
827.886243	-46.385749
828.114930	-45.056444
828.343743	-45.104615
828.572682	-45.977209
828.801748	-46.782103
829.030941	-46.197500
829.260260	-45.377765
829.489706	-45.924796
829.719280	-45.842874
829.948980	-45.879430
830.178808	-46.340928
830.408763	-46.047897
830.638845	-45.517312
830.869055	-45.871805
831.099393	-46.728401
831.329858	-45.531772
831.560451	-44.604994
831.791173	-45.853918
832.022022	-46.638221
832.252999	-45.753632
832.484105	-44.493924
832.715339	-44.850875
832.946702	-45.976728
833.178193	-45.755097
833.409813	-45.831554
833.641561	-45.450067
833.873439	-45.084112
834.105445	-45.327882
834.337581	-45.365041
834.569846	-45.644042
834.802241	-45.566331
835.034764	-45.478310
835.267418	-45.012057
835.500201	-44.884774
835.733114	-45.354448
835.966157	-44.850114
836.199329	-45.421278
836.432632	-45.701250
836.666065	-44.749996
836.899629	-44.634483
837.133323	-44.583917
837.367147	-45.327877
837.601102	-45.294782
837.835188	-44.797738
838.069405	-45.095669
838.303752	-44.530526
838.538231	-44.778821
838.772841	-44.951174
839.007582	-44.862198
839.242455	-45.010726
839.477459	-44.057535
839.712595	-44.046790
839.947863	-44.470635
840.183263	-45.025804
840.418794	-44.534600
840.654458	-43.334231
840.890254	-44.343554
841.126182	-45.145484
841.362242	-44.333234
841.598435	-43.590669
841.834761	-43.723391
842.071220	-44.601141
842.307811	-44.340424
842.544536	-43.885816
842.781393	-43.899680
843.018384	-44.314722
843.255508	-43.653804
843.492765	-42.651845
843.730156	-43.491626
843.967681	-44.153378
844.205339	-43.715570
844.443132	-43.018764
844.681058	-43.198557
844.919118	-43.946778
845.157313	-43.601042
845.395642	-43.511586
845.634105	-42.864269
845.872703	-42.853105
846.111436	-43.185114
846.350303	-42.561034
846.589306	-42.852593
846.828443	-42.855911
847.067716	-43.172921
847.307124	-42.890502
847.546667	-42.103959
847.786345	-42.517344
848.026160	-42.242831
848.266110	-42.351099
848.506195	-42.344062
848.746417	-42.368719
848.986775	-42.673175
849.227269	-42.020254
849.467899	-42.260239
849.708666	-41.853405
849.949569	-41.783847
850.190609	-41.747253
850.431785	-41.261907
850.673099	-42.097541
850.914549	-41.615832
851.156137	-41.487211
851.397861	-41.966518
851.639723	-41.679023
851.881723	-41.417439
852.123860	-40.934723
852.366135	-41.395040
852.608547	-41.161917
852.851098	-40.906844
853.093786	-41.072188
853.336613	-40.770039
853.579578	-40.950715
853.822681	-40.529588
854.065923	-40.630124
854.309304	-40.957555
854.552823	-40.993191
854.796481	-40.618571
855.040278	-40.031873
855.284215	-40.524585
855.528290	-40.128177
855.772505	-39.715822
856.016859	-39.892537
856.261353	-40.299283
856.505987	-40.774509
856.750760	-39.965860
856.995673	-39.496714
857.240727	-39.614184
857.485920	-40.272020
857.731254	-39.886398
857.976729	-39.030918
858.222343	-39.425271
858.468099	-39.459539
858.713995	-39.308430
858.960032	-39.317311
859.206211	-39.447069
859.452530	-39.089273
859.698991	-38.738654
859.945593	-39.214727
860.192336	-39.095400
860.439222	-38.944636
860.686248	-38.558629
860.933417	-38.540508
861.180728	-38.934627
861.428181	-38.674110
861.675776	-38.628466
861.923514	-38.454341
862.171394	-38.487202
862.419417	-38.242146
862.667582	-38.176146
862.915890	-38.449013
863.164342	-38.183667
863.412936	-38.307906
863.661674	-38.075195
863.910555	-37.955628
864.159579	-37.875820
864.408747	-37.539106
864.658059	-37.743790
864.907515	-37.987649
865.157114	-37.968579
865.406858	-37.305544
865.656746	-37.436163
865.906778	-37.746674
866.156955	-37.186884
866.407277	-37.219669
866.657743	-37.314704
866.908354	-37.489007
867.159110	-37.240007
867.410011	-36.986997
867.661057	-37.160655
867.912249	-36.815972
868.163586	-36.811649
868.415069	-37.072946
868.666697	-37.228998
868.918472	-36.604947
869.170392	-36.297338
869.422458	-36.852901
869.674671	-36.811945
869.927030	-36.492401
870.179536	-36.433037
870.432188	-36.848983
870.684987	-36.389551
870.937933	-36.027510
871.191026	-36.401271
871.444266	-36.441317
871.697653	-36.409109
871.951188	-35.978701
872.204870	-36.151639
872.458700	-36.089388
872.712677	-35.951426
872.966803	-35.987823
873.221076	-36.010944
873.475498	-36.136824
873.730068	-35.491282
873.984787	-35.936937
874.239654	-35.908489
874.494669	-35.674667
874.749834	-35.773669
875.005147	-35.647729
875.260610	-35.758158
875.516222	-35.427747
875.771983	-35.630656
876.027894	-35.467836
876.283954	-35.734695
876.540164	-35.437428
876.796524	-35.257921
877.053033	-35.554606
877.309693	-35.066371
877.566503	-35.230791
877.823464	-35.473820
878.080575	-35.447230
878.337837	-34.880271
878.595249	-35.240141
878.852813	-35.321158
879.110528	-34.822543
879.368393	-34.929448
879.626410	-35.178433
879.884579	-35.188636
880.142899	-34.721701
880.401371	-34.856197
880.659994	-34.931044
880.918770	-34.871636
881.177698	-34.596861
881.436778	-35.007470
881.696010	-34.794119
881.955395	-34.468793
882.214933	-34.817882
882.474623	-34.830374
882.734467	-34.652938
882.994463	-34.411384
883.254613	-34.776708
883.514916	-34.472374
883.775372	-34.518970
884.035982	-34.418864
884.296746	-34.620553
884.557664	-34.464948
884.818735	-34.200396
885.079961	-34.647531
885.341341	-34.371922
885.602876	-34.187738
885.864565	-34.257610
886.126409	-34.661424
886.388407	-34.107396
886.650561	-34.098752
886.912870	-34.441522
887.175334	-34.129125
887.437953	-34.033402
887.700728	-34.249651
887.963658	-34.335298
888.226745	-33.882250
888.489987	-33.896390
888.753385	-34.237168
889.016940	-34.222706
889.280651	-34.005931
889.544518	-33.959526
889.808543	-33.923514
890.072723	-33.824489
890.337061	-34.001070
890.601556	-33.995768
890.866208	-33.681317
891.131017	-33.831071
891.395984	-33.930634
891.661109	-33.998766
891.926391	-33.651906
892.191831	-33.763344
892.457429	-33.799693
892.723186	-33.712308
892.989100	-33.814059
893.255173	-33.582858
893.521405	-33.753377
893.787796	-33.583991
894.054345	-33.818686
894.321053	-33.668060
894.587921	-33.680768
894.854948	-33.504730
895.122134	-33.768434
895.389480	-33.588136
895.656986	-33.349794
895.924651	-33.832657
896.192477	-33.511608
896.460463	-33.652242
896.728609	-33.513408
896.996915	-33.486878
897.265382	-33.470927
897.534010	-33.708006
897.802799	-33.405451
898.071749	-33.536779
898.340860	-33.422989
898.610132	-33.447575
898.879566	-33.676562
899.149162	-33.307052
899.418919	-33.357408
899.688838	-33.599115
899.958919	-33.438086
900.229162	-33.218341
900.499568	-33.653317
900.770136	-33.305840
901.040867	-33.244478
901.311761	-33.448267
901.582817	-33.414652
901.854037	-33.191803
902.125420	-33.302747
902.396966	-33.420684
902.668676	-33.252408
902.940550	-33.177603
903.212587	-33.438236
903.484788	-33.169937
903.757153	-33.043476
904.029683	-33.457530
904.302377	-33.367350
904.575236	-32.886310
904.848259	-33.545923
905.121447	-33.189054
905.394800	-33.080921
905.668319	-33.342279
905.942002	-33.232779
906.215852	-33.046839
906.489866	-33.235873
906.764047	-33.445494
907.038393	-32.953847
907.312906	-33.313942
907.587584	-33.166122
907.862429	-33.240370
908.137441	-32.927786
908.412619	-33.529673
908.687964	-32.835207
908.963476	-33.263018
909.239155	-33.309516
909.515002	-33.076327
909.791015	-32.997488
910.067197	-33.509899
910.343546	-32.862018
910.620063	-32.960694
910.896748	-33.568764
911.173601	-32.938968
911.450623	-33.059673
911.727813	-33.295648
912.005171	-33.008832
912.282699	-32.908368
912.560395	-33.502447
912.838261	-32.881601
913.116296	-32.845752
913.394500	-33.136986
913.672874	-33.174723
913.951418	-32.632643
914.230131	-33.409238
914.509015	-32.819681
914.788068	-32.703166
915.067292	-33.061646
915.346687	-33.053208
915.626252	-32.480636
915.905988	-33.155491
916.185895	-32.960865
916.465973	-32.500557
916.746223	-33.208456
917.026644	-32.962596
917.307236	-32.302395
917.588000	-33.157713
917.868937	-32.990749
918.150045	-32.267844
918.431325	-33.074263
918.712778	-32.637420
918.994404	-32.464849
919.276202	-32.770554
919.558173	-32.821852
919.840317	-32.234806
920.122634	-32.703052
920.405125	-32.667980
920.687789	-32.332791
920.970627	-32.504283
921.253639	-32.442380
921.536824	-32.543727
921.820184	-32.352496
922.103718	-32.441901
922.387427	-32.257048
922.671310	-32.631755
922.955368	-31.969558
923.239601	-32.673523
923.524009	-32.066008
923.808592	-32.122980
924.093351	-32.298492
924.378285	-32.395945
924.663396	-31.645494
924.948682	-32.613905
925.234144	-32.017054
925.519782	-31.821930
925.805597	-32.044701
926.091589	-32.313444
926.377757	-31.556824
926.664102	-32.082695
926.950624	-32.116820
927.237323	-31.698679
927.524200	-31.736388
927.811255	-32.198934
928.098487	-31.639713
928.385897	-31.732530
928.673485	-32.207873
928.961251	-31.782959
929.249196	-31.808999
929.537319	-31.611114
929.825621	-31.909259
930.114102	-31.685571
930.402762	-31.503285
930.691601	-31.948488
930.980620	-31.777771
931.269818	-31.122562
931.559196	-32.035216
931.848753	-31.373996
932.138491	-31.352717
932.428409	-31.619990
932.718508	-31.327733
933.008787	-31.340524
933.299246	-31.440279
933.589887	-31.242931
933.880709	-31.426909
934.171712	-31.227250
934.462896	-31.113097
934.754262	-31.387781
935.045810	-31.047732
935.337539	-31.151926
935.629451	-31.169511
935.921545	-31.132480
936.213822	-30.938560
936.506281	-31.162175
936.798922	-31.047397
937.091747	-30.854929
937.384755	-31.015281
937.677946	-30.909634
937.971321	-30.835448
938.264879	-30.864848
938.558621	-30.771880
938.852547	-30.819966
939.146657	-30.641624
939.440952	-30.728058
939.735431	-30.675715
940.030095	-30.573185
940.324943	-30.685453
940.619977	-30.548697
940.915196	-30.552553
941.210600	-30.383540
941.506189	-30.704862
941.801965	-30.339974
942.097926	-30.476702
942.394074	-30.420363
942.690407	-30.321615
942.986927	-30.363441
943.283634	-30.209026
943.580527	-30.201712
943.877608	-30.286619
944.174875	-29.954367
944.472330	-30.045143
944.769972	-30.150739
945.067802	-29.722381
945.365820	-29.890318
945.664026	-29.958369
945.962420	-29.526470
946.261002	-29.783843
946.559773	-29.583525
946.858733	-29.556700
947.157881	-29.545500
947.457219	-29.526322
947.756746	-29.251852
948.056462	-29.489860
948.356368	-29.412182
948.656464	-29.145331
948.956749	-29.440471
949.257225	-29.145598
949.557891	-29.220222
949.858748	-29.240758
950.159796	-29.172869
950.461034	-28.993492
950.762463	-29.357282
951.064084	-28.859366
951.365896	-29.120833
951.667900	-29.008761
951.970095	-28.969553
952.272483	-28.918797
952.575063	-28.973054
952.877835	-28.760303
953.180799	-28.835849
953.483956	-28.893093
953.787307	-28.564820
954.090850	-28.840173
954.394586	-28.636466
954.698516	-28.521967
955.002640	-28.711282
955.306957	-28.519605
955.611469	-28.448147
955.916174	-28.593383
956.221074	-28.381638
956.526169	-28.388856
956.831458	-28.555796
957.136942	-28.221703
957.442622	-28.381536
957.748496	-28.378893
958.054567	-28.148823
958.360833	-28.431366
958.667294	-28.172713
958.973952	-28.119145
959.280806	-28.421192
959.587857	-27.896144
959.895104	-28.331599
960.202548	-28.014208
960.510189	-28.033789
960.818027	-28.074250
961.126062	-28.009976
961.434295	-27.801229
961.742726	-28.198139
962.051355	-27.474891
962.360182	-28.215038
962.669207	-27.619128
962.978431	-27.700721
963.287854	-27.856013
963.597475	-27.514923
963.907296	-27.669033
964.217315	-27.695736
964.527535	-27.296113
964.837954	-27.758293
965.148573	-27.347398
965.459392	-27.306168
965.770411	-27.649841
966.081630	-27.020824
966.393051	-27.537436
966.704672	-27.169838
967.016494	-27.120046
967.328517	-27.306512
967.640742	-26.956091
967.953169	-27.106008
968.265797	-27.075138
968.578627	-26.888643
968.891660	-26.915272
969.204895	-26.961152
969.518332	-26.630228
969.831972	-27.014771
970.145816	-26.514481
970.459862	-26.855258
970.774112	-26.563330
971.088565	-26.603645
971.403223	-26.595065
971.718084	-26.509898
972.033149	-26.388380
972.348419	-26.584708
972.663893	-26.227281
972.979572	-26.546880
973.295456	-26.117525
973.611546	-26.441944
973.927840	-26.104622
974.244340	-26.328680
974.561046	-26.039830
974.877958	-26.215804
975.195076	-26.036921
975.512401	-26.132549
975.829932	-25.963057
976.147670	-26.023293
976.465615	-25.917532
976.783767	-25.995511
977.102126	-25.782955
977.420693	-25.940609
977.739468	-25.792496
978.058451	-25.755542
978.377642	-25.878643
978.697041	-25.561997
979.016649	-25.939735
979.336466	-25.410415
979.656492	-25.894723
979.976727	-25.431943
980.297171	-25.717506
980.617825	-25.524351
980.938689	-25.504420
981.259763	-25.569595
981.581048	-25.429754
981.902542	-25.471351
982.224248	-25.466566
982.546164	-25.269148
982.868291	-25.548389
983.190630	-25.127226
983.513180	-25.468249
983.835942	-25.182289
984.158916	-25.224501
984.482101	-25.290918
984.805500	-25.025406
985.129110	-25.294073
985.452934	-24.935148
985.776970	-25.205543
986.101220	-24.899924
986.425683	-25.090429
986.750359	-24.855780
987.075250	-24.975529
987.400354	-24.839683
987.725673	-24.836976
988.051206	-24.863932
988.376954	-24.629830
988.702916	-24.920835
989.029094	-24.474096
989.355487	-24.878311
989.682095	-24.448786
990.008919	-24.714307
990.335959	-24.485574
990.663216	-24.531298
990.990688	-24.522720
991.318377	-24.391759
991.646283	-24.473269
991.974406	-24.356720
992.302746	-24.335822
992.631304	-24.321211
992.960079	-24.279088
993.289072	-24.212498
993.618283	-24.247603
993.947713	-24.064936
994.277361	-24.261936
994.607227	-23.922176
994.937313	-24.229054
995.267618	-23.837086
995.598142	-24.126098
995.928886	-23.823992
996.259849	-23.968795
996.591033	-23.842835
996.922437	-23.812066
997.254061	-23.860687
997.585906	-23.649617
997.917972	-23.890283
998.250260	-23.524733
998.582768	-23.881006
998.915498	-23.434711
999.248450	-23.866910
999.581624	-23.369564
999.915020	-23.803311
1000.248639	-23.389616
1000.582480	-23.672065
1000.916545	-23.454694
1001.250832	-23.531491
1001.585343	-23.490272
1001.920077	-23.441182
1002.255035	-23.503278
1002.590218	-23.416621
1002.925624	-23.452868
1003.261255	-23.370672
1003.597111	-23.437829
1003.933192	-23.325924
1004.269497	-23.432576
1004.606029	-23.267659
1004.942785	-23.384240
1005.279768	-23.257780
1005.616977	-23.277363
1005.954412	-23.298600
1006.292074	-23.176090
1006.629962	-23.297803
1006.968077	-23.081549
1007.306420	-23.253958
1007.644990	-23.066976
1007.983787	-23.145359
1008.322813	-23.100185
1008.662067	-23.006583
1009.001549	-23.126632
1009.341259	-22.891987
1009.681199	-23.111979
1010.021367	-22.835268
1010.361765	-23.064878
1010.702392	-22.791293
1011.043250	-23.018549
1011.384337	-22.731502
1011.725654	-22.989407
1012.067202	-22.653542
1012.408980	-22.974651
1012.750989	-22.616581
1013.093230	-22.883906
1013.435702	-22.638071
1013.778405	-22.734931
1014.121341	-22.671432
1014.464508	-22.651082
1014.807908	-22.642263
1015.151540	-22.609418
1015.495405	-22.538041
1015.839503	-22.618827
1016.183835	-22.440899
1016.528400	-22.563716
1016.873198	-22.426782
1017.218231	-22.454491
1017.563498	-22.436571
1017.908999	-22.349079
1018.254735	-22.387412
1018.600707	-22.335887
1018.946913	-22.253630
1019.293354	-22.381985
1019.640032	-22.135491
1019.986945	-22.378303
1020.334094	-22.088988
1020.681480	-22.265358
1021.029102	-22.154070
1021.376961	-22.116860
1021.725058	-22.224121
1022.073391	-22.022173
1022.421962	-22.206330
1022.770772	-22.012926
1023.119819	-22.133020
1023.469104	-22.020296
1023.818628	-22.087870
1024.168391	-21.999566
1024.518393	-22.078151
1024.868634	-21.974403
1025.219115	-22.057633
1025.569836	-21.980094
1025.920796	-21.954623
1026.271997	-22.051116
1026.623438	-21.847940
1026.975121	-22.081674
1027.327044	-21.830523
1027.679208	-22.014028
1028.031614	-21.887736
1028.384262	-21.904421
1028.737152	-21.939398
1029.090284	-21.856397
1029.443659	-21.878246
1029.797276	-21.895962
1030.151137	-21.823043
1030.505240	-21.897660
1030.859587	-21.811401
1031.214178	-21.836927
1031.569013	-21.860439
1031.924093	-21.767067
1032.279417	-21.840980
1032.634985	-21.796433
1032.990799	-21.732923
1033.346858	-21.873001
1033.703162	-21.650909
1034.059712	-21.859019
1034.416509	-21.661368
1034.773551	-21.766122
1035.130841	-21.699025
1035.488377	-21.689285
1035.846160	-21.662591
1036.204190	-21.693138
1036.562468	-21.599131
1036.920994	-21.656607
1037.279768	-21.586306
1037.638790	-21.554944
1037.998061	-21.606076
1038.357581	-21.461052
1038.717350	-21.577829
1039.077368	-21.435173
1039.437636	-21.483680
1039.798154	-21.441880
1040.158922	-21.399575
1040.519940	-21.378827
1040.881209	-21.403623
1041.242729	-21.301662
1041.604501	-21.371537
1041.966524	-21.270502
1042.328798	-21.293456
1042.691325	-21.287930
1043.054103	-21.212637
1043.417135	-21.266053
1043.780419	-21.204063
1044.143956	-21.193288
1044.507746	-21.200764
1044.871791	-21.174058
1045.236088	-21.134315
1045.600641	-21.189058
1045.965447	-21.093842
1046.330508	-21.159065
1046.695824	-21.092483
1047.061395	-21.106012
1047.427222	-21.122023
1047.793304	-21.049402
1048.159642	-21.096083
1048.526237	-21.081257
1048.893088	-21.047635
1049.260196	-21.079973
1049.627561	-21.047465
1049.995183	-21.038127
1050.363063	-21.068612
1050.731201	-21.013315
1051.099597	-21.054769
1051.468251	-21.029532
1051.837164	-21.021071
1052.206336	-21.034033
1052.575767	-21.025060
1052.945458	-20.986391
1053.315409	-21.061903
1053.685619	-20.958201
1054.056090	-21.000836
1054.426821	-20.998865
1054.797814	-20.952792
1055.169067	-20.976993
1055.540582	-20.948324
1055.912359	-20.904943
1056.284398	-20.943896
1056.656698	-20.885304
1057.029262	-20.871975
1057.402088	-20.883872
1057.775177	-20.811202
1058.148530	-20.834899
1058.522146	-20.807901
1058.896027	-20.744501
1059.270171	-20.770561
1059.644580	-20.731203
1060.019254	-20.657466
1060.394193	-20.726050
1060.769397	-20.600372
1061.144867	-20.627154
1061.520602	-20.589743
1061.896604	-20.553839
1062.272872	-20.519503
1062.649407	-20.526045
1063.026210	-20.435157
1063.403279	-20.476892
1063.780616	-20.422969
1064.158221	-20.366724
1064.536094	-20.402053
1064.914235	-20.326503
1065.292645	-20.323972
1065.671325	-20.311784
1066.050273	-20.265482
1066.429491	-20.249049
1066.808979	-20.274469
1067.188738	-20.168162
1067.568766	-20.229480
1067.949066	-20.189476
1068.329636	-20.145343
1068.710478	-20.160460
1069.091592	-20.150807
1069.472977	-20.098596
1069.854635	-20.152564
1070.236565	-20.081356
1070.618768	-20.090438
1071.001243	-20.114085
1071.383993	-20.048424
1071.767016	-20.070648
1072.150313	-20.085654
1072.533884	-20.026881
1072.917730	-20.039985
1073.301850	-20.060547
1073.686246	-19.980330
1074.070917	-20.039117
1074.455864	-19.992028
1074.841087	-19.963383
1075.226586	-19.985108
1075.612362	-19.955684
1075.998415	-19.909807
1076.384745	-19.955013
1076.771353	-19.884607
1077.158238	-19.879827
1077.545401	-19.886164
1077.932843	-19.838407
1078.320564	-19.818735
1078.708564	-19.843082
1079.096842	-19.754481
1079.485401	-19.778996
1079.874240	-19.740865
1080.263358	-19.711120
1080.652757	-19.669337
1081.042438	-19.692427
1081.432399	-19.592618
1081.822641	-19.614341
1082.213166	-19.571151
1082.603972	-19.521393
1082.995061	-19.509819
1083.386433	-19.494420
1083.778087	-19.420136
1084.170025	-19.429264
1084.562246	-19.408180
1084.954751	-19.335605
1085.347541	-19.350533
1085.740615	-19.321678
1086.133973	-19.262939
1086.527617	-19.264429
1086.921546	-19.243221
1087.315761	-19.173520
1087.710262	-19.190900
1088.105050	-19.149542
1088.500124	-19.090406
1088.895485	-19.111929
1089.291134	-19.063494
1089.687070	-19.007195
1090.083294	-19.044580
1090.479806	-18.988891
1090.876607	-18.946057
1091.273696	-18.978806
1091.671075	-18.944749
1092.068744	-18.899709
1092.466702	-18.948301
1092.864950	-18.893610
1093.263489	-18.884234
1093.662319	-18.905944
1094.061440	-18.881128
1094.460852	-18.827255
1094.860555	-18.881657
1095.260551	-18.827806
1095.660840	-18.795291
1096.061421	-18.806255
1096.462295	-18.780806
1096.863462	-18.711124
1097.264923	-18.748874
1097.666678	-18.693296
1098.068727	-18.644995
1098.471071	-18.658823
1098.873710	-18.626721
1099.276644	-18.566897
1099.679874	-18.595238
1100.083400	-18.550326
1100.487222	-18.512590
1100.891340	-18.522242
1101.295756	-18.499850
1101.700468	-18.438434
1102.105478	-18.460390
1102.510787	-18.420231
1102.916393	-18.370120
1103.322298	-18.346723
1103.728502	-18.332524
1104.135005	-18.252561
1104.541807	-18.219549
1104.948909	-18.195148
1105.356312	-18.112638
1105.764015	-18.060036
1106.172019	-18.048757
1106.580324	-17.955329
1106.988931	-17.911514
1107.397840	-17.896215
1107.807051	-17.829981
1108.216564	-17.786488
1108.626380	-17.786180
1109.036500	-17.740954
1109.446923	-17.710171
1109.857649	-17.718555
1110.268680	-17.706484
1110.680016	-17.675950
1111.091657	-17.694753
1111.503602	-17.703950
1111.915854	-17.660055
1112.328411	-17.695167
1112.741275	-17.699949
1113.154445	-17.660391
1113.567922	-17.665331
1113.981706	-17.689984
1114.395798	-17.625858
1114.810198	-17.627900
1115.224906	-17.633842
1115.639923	-17.583730
1116.055249	-17.547329
1116.470884	-17.574164
1116.886829	-17.516058
1117.303084	-17.483663
1117.719650	-17.501529
1118.136526	-17.467779
1118.553713	-17.432577
1118.971212	-17.454242
1119.389022	-17.443356
1119.807145	-17.421990
1120.225580	-17.421597
1120.644328	-17.456021
1121.063389	-17.419123
1121.482763	-17.425054
1121.902452	-17.456372
1122.322454	-17.433594
1122.742771	-17.407431
1123.163404	-17.441951
1123.584351	-17.407030
1124.005614	-17.366947
1124.427193	-17.368384
1124.849089	-17.335099
1125.271301	-17.265978
1125.693830	-17.239879
1126.116677	-17.204003
1126.539842	-17.117774
1126.963324	-17.069893
1127.387126	-17.028107
1127.811246	-16.948381
1128.235685	-16.879364
1128.660444	-16.850056
1129.085522	-16.781037
1129.510922	-16.717122
1129.936641	-16.686534
1130.362682	-16.653658
1130.789044	-16.591945
1131.215728	-16.576427
1131.642734	-16.563803
1132.070063	-16.532366
1132.497714	-16.505973
1132.925689	-16.525120
1133.353987	-16.511447
1133.782610	-16.485832
1134.211556	-16.512350
1134.640827	-16.517557
1135.070424	-16.490341
1135.500345	-16.507480
1135.930593	-16.520088
1136.361166	-16.500109
1136.792067	-16.489513
1137.223294	-16.502374
1137.654848	-16.493244
1138.086730	-16.449010
1138.518940	-16.454561
1138.951479	-16.449046
1139.384346	-16.396365
1139.817543	-16.373414
1140.251069	-16.377317
1140.684925	-16.323938
1141.119111	-16.283898
1141.553628	-16.278498
1141.988475	-16.252361
1142.423655	-16.188916
1142.859166	-16.185060
1143.295009	-16.170060
1143.731185	-16.116442
1144.167694	-16.096779
1144.604536	-16.092903
1145.041711	-16.064515
1145.479221	-16.025764
1145.917065	-16.026247
1146.355245	-16.019594
1146.793759	-15.979665
1147.232609	-15.964988
1147.671795	-15.978836
1148.111317	-15.943930
1148.551177	-15.917690
1148.991373	-15.924655
1149.431907	-15.911593
1149.872779	-15.870046
1150.313989	-15.863556
1150.755538	-15.861615
1151.197426	-15.817878
1151.639653	-15.796943
1152.082220	-15.786835
1152.525128	-15.753979
1152.968376	-15.721113
1153.411966	-15.694254
1153.855897	-15.672554
1154.300169	-15.636004
1154.744784	-15.592431
1155.189742	-15.577790
1155.635042	-15.537692
1156.080687	-15.499397
1156.526674	-15.466935
1156.973007	-15.439578
1157.419683	-15.408536
1157.866705	-15.361890
1158.314072	-15.344326
1158.761786	-15.320611
1159.209845	-15.276744
1159.658251	-15.254123
1160.107004	-15.238709
1160.556104	-15.213545
1161.005553	-15.178675
1161.455349	-15.167393
1161.905494	-15.165946
1162.355989	-15.126126
1162.806832	-15.112919
1163.258026	-15.114578
1163.709570	-15.103396
1164.161464	-15.074787
1164.613710	-15.066629
1165.066307	-15.084542
1165.519256	-15.054358
1165.972558	-15.036108
1166.426212	-15.043305
1166.880219	-15.043614
1167.334580	-15.012737
1167.789295	-14.998636
1168.244364	-15.016678
1168.699788	-14.988789
1169.155567	-14.958254
1169.611702	-14.963938
1170.068193	-14.952863
1170.525041	-14.922003
1170.982245	-14.889578
1171.439807	-14.898853
1171.897726	-14.873333
1172.356004	-14.828329
1172.814640	-14.814081
1173.273635	-14.797976
1173.732989	-14.778125
1174.192703	-14.722781
1174.652778	-14.711507
1175.113213	-14.697390
1175.574009	-14.648813
1176.035167	-14.617199
1176.496687	-14.602285
1176.958569	-14.581205
1177.420814	-14.522978
1177.883422	-14.502773
1178.346394	-14.495552
1178.809730	-14.458519
1179.273430	-14.411424
1179.737496	-14.390794
1180.201927	-14.394311
1180.666723	-14.347085
1181.131886	-14.313214
1181.597416	-14.306834
1182.063312	-14.292318
1182.529576	-14.262268
1182.996209	-14.231089
1183.463209	-14.242136
1183.930579	-14.215685
1184.398317	-14.180809
1184.866426	-14.184000
1185.334904	-14.182739
1185.803754	-14.154061
1186.272974	-14.125192
1186.742566	-14.140061
1187.212529	-14.135992
1187.682865	-14.101687
1188.153574	-14.082271
1188.624656	-14.098608
1189.096112	-14.089142
1189.567942	-14.061648
1190.040147	-14.051419
1190.512726	-14.047909
1190.985681	-14.047102
1191.459012	-14.028013
1191.932720	-14.028314
1192.406804	-14.008030
1192.881265	-13.990750
1193.356104	-13.999818
1193.831322	-14.014604
1194.306918	-13.983616
1194.782893	-13.931947
1195.259248	-13.961676
1195.735982	-14.010131
1196.213097	-13.972283
1196.690593	-13.884737
1197.168471	-13.913850
1197.646730	-13.987951
1198.125371	-13.966746
1198.604395	-13.861257
1199.083803	-13.851434
1199.563594	-13.940112
1200.043769	-13.940580
1200.524329	-13.849852
1201.005273	-13.791590
1201.486604	-13.862179
1201.968320	-13.879963
1202.450422	-13.817289
1202.932912	-13.752370
1203.415789	-13.761695
1203.899054	-13.786503
1204.382707	-13.752657
1204.866748	-13.707729
1205.351179	-13.667572
1205.836000	-13.679148
1206.321211	-13.658036
1206.806812	-13.634311
1207.292805	-13.594892
1207.779189	-13.573240
1208.265965	-13.556951
1208.753134	-13.538518
1209.240696	-13.518781
1209.728651	-13.486950
1210.217000	-13.465710
1210.705744	-13.437647
1211.194883	-13.429345
1211.684417	-13.411874
1212.174347	-13.384731
1212.664673	-13.352121
1213.155396	-13.336678
1213.646516	-13.326558
1214.138034	-13.317174
1214.629951	-13.279251
1215.122266	-13.258077
1215.614980	-13.239523
1216.108095	-13.246012
1216.601609	-13.225069
1217.095524	-13.192834
1217.589841	-13.171449
1218.084559	-13.170842
1218.579679	-13.179846
1219.075202	-13.143513
1219.571128	-13.124461
1220.067458	-13.108408
1220.564191	-13.129150
1221.061330	-13.111089
1221.558874	-13.088671
1222.056823	-13.065614
1222.555178	-13.074810
1223.053940	-13.079315
1223.553109	-13.060202
1224.052686	-13.028636
1224.552671	-13.025939
1225.053065	-13.036403
1225.553867	-13.027378
1226.055079	-12.992513
1226.556702	-12.976582
1227.058735	-12.984357
1227.561179	-12.979293
1228.064035	-12.954214
1228.567303	-12.920101
1229.070983	-12.925958
1229.575077	-12.918747
1230.079585	-12.904848
1230.584506	-12.861452
1231.089842	-12.859071
1231.595594	-12.853852
1232.101761	-12.841523
1232.608345	-12.800547
1233.115345	-12.789891
1233.622762	-12.782759
1234.130597	-12.772756
1234.638851	-12.735111
1235.147523	-12.720983
1235.656615	-12.707889
1236.166126	-12.703594
1236.676058	-12.665938
1237.186411	-12.651637
1237.697185	-12.637115
1238.208381	-12.632512
1238.719999	-12.597855
1239.232040	-12.583742
1239.744505	-12.572637
1240.257394	-12.563029
1240.770708	-12.535835
1241.284446	-12.518345
1241.798610	-12.514235
1242.313201	-12.503284
1242.828218	-12.477184
1243.343662	-12.462458
1243.859534	-12.460366
1244.375834	-12.454137
1244.892563	-12.426262
1245.409721	-12.413371
1245.927309	-12.412676
1246.445327	-12.411152
1246.963777	-12.385324
1247.482657	-12.369242
1248.001970	-12.369629
1248.521716	-12.372435
1249.041894	-12.351434
1249.562506	-12.330379
1250.083553	-12.329994
1250.605034	-12.335065
1251.126950	-12.321801
1251.649302	-12.298390
1252.172091	-12.291961
1252.695316	-12.301307
1253.218979	-12.293102
1253.743079	-12.273471
1254.267619	-12.259704
1254.792597	-12.269213
1255.318015	-12.268280
1255.843874	-12.254373
1256.370173	-12.235216
1256.896913	-12.243264
1257.424095	-12.245441
1257.951720	-12.242835
1258.479787	-12.217741
1259.008298	-12.224691
1259.537254	-12.225965
1260.066654	-12.234513
1260.596499	-12.207566
1261.126790	-12.211053
1261.657527	-12.210332
1262.188711	-12.224703
1262.720342	-12.201537
1263.252422	-12.199002
1263.784950	-12.195701
1264.317928	-12.211720
1264.851355	-12.193058
1265.385232	-12.186873
1265.919560	-12.179496
1266.454340	-12.192099
1266.989572	-12.181570
1267.525256	-12.172221
1268.061394	-12.158867
1268.597985	-12.168632
1269.135031	-12.164047
1269.672531	-12.152686
1270.210487	-12.137585
1270.748899	-12.139944
1271.287768	-12.142653
1271.827094	-12.127192
1272.366877	-12.117832
1272.907119	-12.108995
1273.447820	-12.115901
1273.988981	-12.102289
1274.530601	-12.095446
1275.072683	-12.079048
1275.615226	-12.087801
1276.158230	-12.075928
1276.701697	-12.071758
1277.245627	-12.052044
1277.790021	-12.058267
1278.334879	-12.047985
1278.880202	-12.046722
1279.425991	-12.027194
1279.972245	-12.026274
1280.518966	-12.020722
1281.066155	-12.018328
1281.613811	-12.003252
1282.161936	-11.993101
1282.710529	-11.995104
1283.259593	-11.984819
1283.809126	-11.980752
1284.359131	-11.960359
1284.909607	-11.965773
1285.460555	-11.952866
1286.011976	-11.953703
1286.563870	-11.931084
1287.116237	-11.933847
1287.669080	-11.922833
1288.222397	-11.922415
1288.776191	-11.906199
1289.330460	-11.898399
1289.885207	-11.895874
1290.440431	-11.886808
1290.996133	-11.883729
1291.552314	-11.863504
1292.108975	-11.868038
1292.666115	-11.851659
1293.223737	-11.858570
1293.781839	-11.832546
1294.340424	-11.837241
1294.899491	-11.822701
1295.459041	-11.825935
1296.019075	-11.810775
1296.579593	-11.801206
1297.140597	-11.799348
1297.702086	-11.791351
1298.264061	-11.790286
1298.826524	-11.769477
1299.389474	-11.775708
1299.952912	-11.762106
1300.516839	-11.766410
1301.081255	-11.749590
1301.646162	-11.747222
1302.211559	-11.744011
1302.777448	-11.737918
1303.343829	-11.740007
1303.910702	-11.720820
1304.478069	-11.729974
1305.045930	-11.717056
1305.614285	-11.728807
1306.183136	-11.708394
1306.752483	-11.712124
1307.322326	-11.710028
1307.892666	-11.711104
1308.463504	-11.709573
1309.034841	-11.695946
1309.606677	-11.708365
1310.179012	-11.698167
1310.751849	-11.709801
1311.325186	-11.695459
1311.899025	-11.700039
1312.473366	-11.700327
1313.048211	-11.703777
1313.623559	-11.707378
1314.199412	-11.693005
1314.775770	-11.709803
1315.352634	-11.701939
1315.930004	-11.717259
1316.507881	-11.704836
1317.086266	-11.711257
1317.665159	-11.716444
1318.244562	-11.722532
1318.824474	-11.728858
1319.404897	-11.717998
1319.985831	-11.735528
1320.567276	-11.734739
1321.149234	-11.749457
1321.731706	-11.746160
1322.314691	-11.746577
1322.898190	-11.764061
1323.482205	-11.764817
1324.066736	-11.782883
1324.651783	-11.769598
1325.237347	-11.790651
1325.823430	-11.794217
1326.410031	-11.811774
1326.997151	-11.813488
1327.584791	-11.814848
1328.172952	-11.834723
1328.761634	-11.841425
1329.350839	-11.860022
1329.940566	-11.856866
1330.530817	-11.868849
1331.121592	-11.888615
1331.712891	-11.896411
1332.304716	-11.916008
1332.897068	-11.907356
1333.489946	-11.935248
1334.083352	-11.942610
1334.677287	-11.961757
1335.271750	-11.967438
1335.866744	-11.970169
1336.462268	-11.997447
1337.058323	-12.002356
1337.654910	-12.022459
1338.252029	-12.020660
1338.849682	-12.031513
1339.447869	-12.055727
1340.046591	-12.057018
1340.645848	-12.077455
1341.245641	-12.069106
1341.845972	-12.092229
1342.446840	-12.105992
1343.048246	-12.111787
1343.650191	-12.125364
1344.252677	-12.121926
1344.855702	-12.147869
1345.459269	-12.158035
1346.063379	-12.162922
1346.668030	-12.178122
1347.273226	-12.174243
1347.878965	-12.208697
1348.485250	-12.206943
1349.092080	-12.219847
1349.699456	-12.229263
1350.307380	-12.232966
1350.915851	-12.265780
1351.524871	-12.259043
1352.134441	-12.275439
1352.744560	-12.283025
1353.355231	-12.291356
1353.966453	-12.319988
1354.578227	-12.311259
1355.190555	-12.327216
1355.803436	-12.338472
1356.416872	-12.342973
1357.030863	-12.372460
1357.645411	-12.356823
1358.260515	-12.376950
1358.876177	-12.386299
1359.492397	-12.389853
1360.109176	-12.412816
1360.726516	-12.399478
1361.344416	-12.413875
1361.962877	-12.430789
1362.581901	-12.422443
1363.201487	-12.448127
1363.821637	-12.431051
1364.442352	-12.446105
1365.063632	-12.462133
1365.685478	-12.451735
1366.307891	-12.469797
1366.930871	-12.463925
1367.554420	-12.466775
1368.178538	-12.493315
1368.803226	-12.473379
1369.428485	-12.492227
1370.054315	-12.492386
1370.680717	-12.491859
1371.307693	-12.516823
1371.935242	-12.503182
1372.563366	-12.510731
1373.192065	-12.528127
1373.821341	-12.518093
1374.451193	-12.544412
1375.081623	-12.537553
1375.712632	-12.539468
1376.344221	-12.563952
1376.976389	-12.558928
1377.609139	-12.571962
1378.242470	-12.582971
1378.876384	-12.576983
1379.510881	-12.603689
1380.145963	-12.608721
1380.781629	-12.608543
1381.417881	-12.630485
1382.054720	-12.629268
1382.692147	-12.645674
1383.330161	-12.662765
1383.968765	-12.657970
1384.607959	-12.675544
1385.247743	-12.690742
1385.888119	-12.692586
1386.529087	-12.712390
1387.170648	-12.716519
1387.812804	-12.719847
1388.455554	-12.745348
1389.098899	-12.746873
1389.742842	-12.752006
1390.387381	-12.772922
1391.032519	-12.770816
1391.678256	-12.787867
1392.324592	-12.806418
1392.971529	-12.796110
1393.619068	-12.819686
1394.267208	-12.832014
1394.915952	-12.827273
1395.565300	-12.855670
1396.215253	-12.851822
1396.865812	-12.855330
1397.516977	-12.887697
1398.168749	-12.876591
1398.821130	-12.888619
1399.474120	-12.911810
1400.127719	-12.897854
1400.781930	-12.927308
1401.436752	-12.938616
1402.092186	-12.925937
1402.748234	-12.963043
1403.404897	-12.964794
1404.062174	-12.966687
1404.720067	-13.002926
1405.378577	-12.990404
1406.037705	-13.008359
1406.697451	-13.038832
1407.357817	-13.025650
1408.018803	-13.052202
1408.680410	-13.069021
1409.342639	-13.064085
1410.005492	-13.099566
1410.668968	-13.104078
1411.333068	-13.106271
1411.997795	-13.139417
1412.663147	-13.140476
1413.329127	-13.154323
1413.995736	-13.178999
1414.662973	-13.177124
1415.330840	-13.202149
1415.999339	-13.221618
1416.668469	-13.224356
1417.338232	-13.249869
1418.008628	-13.260046
1418.679659	-13.271316
1419.351325	-13.295848
1420.023628	-13.297475
1420.696568	-13.312182
1421.370145	-13.333230
1422.044362	-13.335308
1422.719219	-13.356979
1423.394717	-13.368968
1424.070856	-13.369797
1424.747638	-13.397451
1425.425064	-13.401088
1426.103134	-13.401981
1426.781850	-13.425762
1427.461212	-13.420483
1428.141221	-13.429570
1428.821878	-13.452283
1429.503185	-13.441492
1430.185141	-13.457001
1430.867749	-13.479949
1431.551008	-13.468787
1432.234920	-13.488365
1432.919486	-13.500826
1433.604707	-13.484702
1434.290583	-13.507981
1434.977116	-13.511295
1435.664307	-13.492297
1436.352156	-13.518001
1437.040664	-13.519097
1437.729833	-13.509499
1438.419663	-13.541547
1439.110156	-13.538418
1439.801312	-13.534666
1440.493132	-13.567621
1441.185617	-13.556777
1441.878768	-13.548514
1442.572586	-13.571283
1443.267072	-13.551162
1443.962228	-13.544542
1444.658053	-13.564594
1445.354549	-13.543861
1446.051717	-13.548615
1446.749558	-13.577809
1447.448073	-13.566101
1448.147263	-13.580676
1448.847128	-13.608873
1449.547671	-13.595914
1450.248891	-13.607564
1450.950789	-13.620661
1451.653368	-13.592810
1452.356627	-13.594363
1453.060568	-13.598036
1453.765192	-13.568644
1454.470500	-13.575107
1455.176492	-13.587540
1455.883170	-13.576951
1456.590534	-13.604958
1457.298586	-13.633002
1458.007327	-13.633959
1458.716758	-13.668183
1459.426880	-13.691868
1460.137693	-13.678705
1460.849199	-13.689782
1461.561398	-13.685450
1462.274293	-13.648819
1462.987883	-13.640835
1463.702170	-13.624423
1464.417155	-13.588945
1465.132838	-13.594262
1465.849222	-13.605260
1466.566306	-13.602170
1467.284093	-13.640484
1468.002582	-13.685225
1468.721775	-13.708361
1469.441674	-13.760609
1470.162278	-13.801763
1470.883590	-13.804691
1471.605609	-13.821880
1472.328338	-13.817784
1473.051777	-13.769374
1473.775928	-13.733029
1474.500790	-13.688064
1475.226367	-13.615575
1475.952657	-13.571068
1476.679663	-13.538323
1477.407386	-13.495551
1478.135826	-13.492542
1478.864985	-13.512034
1479.594863	-13.517802
1480.325463	-13.551578
1481.056784	-13.594557
1481.788828	-13.601014
1482.521597	-13.604865
1483.255090	-13.589820
1483.989309	-13.513948
1484.724256	-13.416097
1485.459931	-13.295203
1486.196336	-13.120997
1486.933471	-12.938266
1487.671337	-12.763753
1488.409937	-12.572579
1489.149270	-12.401199
1489.889337	-12.272551
1490.630141	-12.159126
1491.371682	-12.083621
1492.113961	-12.068865
1492.856979	-12.082196
1493.600738	-12.131665
1494.345238	-12.239012
1495.090481	-12.368746
1495.836467	-12.510083
1496.583198	-12.681751
1497.330675	-12.848562
1498.078899	-12.983636
1498.827872	-13.106063
1499.577593	-13.189826
1500.328065	-13.209593
1501.079289	-13.200286
1501.831265	-13.158313
1502.583995	-13.070619
1503.337480	-12.983286
1504.091721	-12.910048
1504.846719	-12.837680
1505.602475	-12.801227
1506.358991	-12.820655
1507.116268	-12.873537
1507.874306	-12.978335
1508.633108	-13.153600
1509.392673	-13.366805
1510.153004	-13.612239
1510.914101	-13.898999
1511.675965	-14.172183
1512.438599	-14.383483
1513.202002	-14.519693
1513.966176	-14.508594
1514.731122	-14.301049
1515.496842	-13.928135
1516.263336	-13.398310
1517.030607	-12.740991
1517.798654	-12.036017
1518.567479	-11.318191
1519.337083	-10.601826
1520.107468	-9.927755
1520.878634	-9.311647
1521.650584	-8.743433
1522.423317	-8.234425
1523.196836	-7.795772
1523.971141	-7.414913
1524.746233	-7.089349
1525.522115	-6.829318
1526.298786	-6.628881
1527.076249	-6.478854
1527.854504	-6.387165
1528.633553	-6.355713
1529.413397	-6.373949
1530.194037	-6.443806
1530.975474	-6.573419
1531.757709	-6.755454
1532.540745	-6.983359
1533.324581	-7.265300
1534.109220	-7.600765
1534.894662	-7.976686
1535.680909	-8.391569
1536.467961	-8.850914
1537.255821	-9.342960
1538.044489	-9.851703
1538.833967	-10.380539
1539.624256	-10.929386
1540.415357	-11.477172
1541.207271	-12.016310
1542.000000	-12.558966
1542.793545	-13.099327
1543.587907	-13.619668
1544.383087	-14.122273
1545.179088	-14.620444
1545.975909	-15.097733
1546.773552	-15.526748
1547.572019	-15.910463
1548.371311	-16.250111
1549.171428	-16.511275
1549.972373	-16.669948
1550.774147	-16.745048
1551.576751	-16.745745
1552.380185	-16.654385
1553.184453	-16.482184
1553.989554	-16.271615
1554.795490	-16.037541
1555.602263	-15.771052
1556.409873	-15.493449
1557.218322	-15.240046
1558.027612	-15.007216
1558.837743	-14.782252
1559.648717	-14.590112
1560.460536	-14.448536
1561.273200	-14.336470
1562.086710	-14.250543
1562.901069	-14.216987
1563.716278	-14.232211
1564.532337	-14.271990
1565.349249	-14.347945
1566.167014	-14.477045
1566.985634	-14.636708
1567.805111	-14.810932
1568.625444	-15.021055
1569.446637	-15.261377
1570.268690	-15.494684
1571.091605	-15.724946
1571.915382	-15.963144
1572.740024	-16.166325
1573.565532	-16.313637
1574.391907	-16.426244
1575.219150	-16.480156
1576.047262	-16.444334
1576.876246	-16.346630
1577.706103	-16.203610
1578.536833	-15.991531
1579.368439	-15.730184
1580.200922	-15.462718
1581.034282	-15.176909
1581.868522	-14.871347
1582.703643	-14.583425
1583.539646	-14.317921
1584.376532	-14.055704
1585.214304	-13.814640
1586.052962	-13.612609
1586.892508	-13.430964
1587.732943	-13.264775
1588.574269	-13.134718
1589.416487	-13.036125
1590.259599	-12.948733
1591.103605	-12.882997
1591.948508	-12.850282
1592.794309	-12.830446
1593.641009	-12.815072
1594.488609	-12.821411
1595.337112	-12.844137
1596.186518	-12.861513
1597.036829	-12.881209
1597.888047	-12.915244
1598.740172	-12.946461
1599.593207	-12.964481
1600.447153	-12.986512
1601.302010	-13.013667
1602.157782	-13.026319
1603.014469	-13.030528
1603.872072	-13.044036
1604.730593	-13.055126
1605.590034	-13.053468
1606.450397	-13.057321
1607.311681	-13.073052
1608.173890	-13.083766
1609.037024	-13.093192
1609.901085	-13.119518
1610.766075	-13.155499
1611.631995	-13.188671
1612.498846	-13.234114
1613.366630	-13.300219
1614.235349	-13.369666
1615.105004	-13.442754
1615.975596	-13.536166
1616.847128	-13.642174
1617.719600	-13.746151
1618.593014	-13.859559
1619.467372	-13.990150
1620.342675	-14.119616
1621.218924	-14.243417
1622.096122	-14.378131
1622.974270	-14.516123
1623.853369	-14.639013
1624.733420	-14.756571
1625.614427	-14.879563
1626.496389	-14.990691
1627.379308	-15.083808
1628.263187	-15.177964
1629.148026	-15.272092
1630.033828	-15.348838
1630.920593	-15.417657
1631.808324	-15.494082
1632.697022	-15.566079
1633.586688	-15.625251
1634.477324	-15.689766
1635.368932	-15.762767
1636.261514	-15.827334
1637.155070	-15.887846
1638.049602	-15.958668
1638.945113	-16.028204
1639.841603	-16.085352
1640.739075	-16.142597
1641.637529	-16.202487
1642.536968	-16.248301
1643.437393	-16.281476
1644.338806	-16.314432
1645.241209	-16.338823
1646.144602	-16.343753
1647.048988	-16.341292
1647.954368	-16.337851
1648.860744	-16.320500
1649.768118	-16.290550
1650.676491	-16.263130
1651.585865	-16.235462
1652.496241	-16.197487
1653.407621	-16.158395
1654.320008	-16.126407
1655.233401	-16.091400
1656.147804	-16.048873
1657.063218	-16.010012
1657.979645	-15.973782
1658.897085	-15.929265
1659.815542	-15.880148
1660.735016	-15.833524
1661.655509	-15.783286
1662.577023	-15.724091
1663.499560	-15.663909
1664.423121	-15.605956
1665.347709	-15.542165
1666.273324	-15.475588
1667.199969	-15.413453
1668.127645	-15.353046
1669.056353	-15.289071
1669.986097	-15.227202
1670.916877	-15.170384
1671.848695	-15.111785
1672.781553	-15.049620
1673.715452	-14.990666
1674.650395	-14.933022
1675.586383	-14.870472
1676.523418	-14.806394
1677.461501	-14.746409
1678.400635	-14.686065
1679.340821	-14.622831
1680.282061	-14.562079
1681.224357	-14.505556
1682.167710	-14.447696
1683.112122	-14.388361
1684.057595	-14.332562
1685.004132	-14.278609
1685.951732	-14.221866
1686.900400	-14.165564
1687.850135	-14.112609
1688.800940	-14.059258
1689.752818	-14.004391
1690.705768	-13.951921
1691.659795	-13.902013
1692.614898	-13.851407
1693.571081	-13.801029
1694.528345	-13.754232
1695.486691	-13.708985
1696.446122	-13.662660
1697.406640	-13.618155
1698.368245	-13.576558
1699.330941	-13.534636
1700.294729	-13.492746
1701.259611	-13.453586
1702.225588	-13.416379
1703.192664	-13.378971
1704.160838	-13.342679
1705.130114	-13.309186
1706.100493	-13.276459
1707.071977	-13.243018
1708.044568	-13.211934
1709.018268	-13.182665
1709.993079	-13.153008
1710.969003	-13.124038
1711.946041	-13.097184
1712.924196	-13.071459
1713.903469	-13.044798
1714.883862	-13.019732
1715.865378	-12.996993
1716.848017	-12.974082
1717.831783	-12.951141
1718.816677	-12.930539
1719.802701	-12.911060
1720.789857	-12.890755
1721.778147	-12.871068
1722.767573	-12.854007
1723.758136	-12.837449
1724.749840	-12.820178
1725.742685	-12.804578
1726.736673	-12.790613
1727.731808	-12.775739
1728.728090	-12.760402
1729.725521	-12.747009
1730.724105	-12.734556
1731.723842	-12.721207
1732.724735	-12.708806
1733.726785	-12.698440
1734.729995	-12.687918
1735.734366	-12.676710
1736.739902	-12.667198
1737.746603	-12.658896
1738.754472	-12.649809
1739.763510	-12.641110
1740.773721	-12.634281
1741.785105	-12.627837
1742.797665	-12.620866
1743.811403	-12.615325
1744.826321	-12.611506
1745.842422	-12.607418
1746.859706	-12.603400
1747.878177	-12.600848
1748.897835	-12.598588
1749.918685	-12.595585
1750.940726	-12.593472
1751.963963	-12.592708
1752.988395	-12.591949
1754.014027	-12.591434
1755.040860	-12.592326
1756.068895	-12.593690
1757.098135	-12.594425
1758.128583	-12.595940
1759.160240	-12.598495
1760.193109	-12.600844
1761.227191	-12.603311
1762.262488	-12.607510
1763.299004	-12.612431
1764.336740	-12.616975
1765.375697	-12.622588
1766.415880	-12.629958
1767.457288	-12.637292
1768.499926	-12.644510
1769.543794	-12.653182
1770.588895	-12.662362
1771.635231	-12.670674
1772.682805	-12.679242
1773.731619	-12.689214
1774.781674	-12.699008
1775.832973	-12.708580
1776.885519	-12.719201
1777.939312	-12.730564
1778.994357	-12.740965
1780.050654	-12.751037
1781.108207	-12.761518
1782.167017	-12.771591
1783.227087	-12.780778
1784.288418	-12.790839
1785.351013	-12.801706
1786.414875	-12.812138
1787.480006	-12.822667
1788.546407	-12.834205
1789.614082	-12.845532
1790.683032	-12.856349
1791.753259	-12.867705
1792.824767	-12.879671
1793.897557	-12.891547
1794.971632	-12.903944
1796.046994	-12.917416
1797.123645	-12.931390
1798.201588	-12.945351
1799.280824	-12.959918
1800.361357	-12.974664
1801.443188	-12.989118
1802.526320	-13.003872
1803.610756	-13.019495
1804.696497	-13.035421
1805.783546	-13.051820
1806.871906	-13.068963
1807.961578	-13.086328
1809.052565	-13.103111
1810.144870	-13.120178
1811.238494	-13.137548
1812.333441	-13.154962
1813.429713	-13.172621
1814.527311	-13.191410
1815.626239	-13.210357
1816.726499	-13.229408
1817.828094	-13.248920
1818.931025	-13.268916
1820.035295	-13.288335
1821.140906	-13.307932
1822.247862	-13.328151
1823.356165	-13.348394
1824.465816	-13.368440
1825.576819	-13.389265
1826.689175	-13.410611
1827.802888	-13.431275
1828.917960	-13.451677
1830.034394	-13.471970
1831.152191	-13.491955
1832.271354	-13.511888
1833.391887	-13.532856
1834.513790	-13.554080
1835.637068	-13.574665
1836.761722	-13.595015
1837.887755	-13.615704
1839.015169	-13.636148
1840.143968	-13.656681
1841.274153	-13.678216
1842.405727	-13.700169
1843.538693	-13.722025
1844.673053	-13.744068
1845.808810	-13.766295
1846.945966	-13.788237
1848.084525	-13.810360
1849.224488	-13.833117
1850.365858	-13.855856
1851.508638	-13.878342
1852.652831	-13.901167
1853.798438	-13.924018
1854.945463	-13.946626
1856.093909	-13.969193
1857.243777	-13.991918
1858.395071	-14.014071
1859.547794	-14.036473
1860.701947	-14.059301
1861.857533	-14.082335
1863.014556	-14.105329
1864.173018	-14.128835
1865.332922	-14.152387
1866.494270	-14.175576
1867.657065	-14.199208
1868.821309	-14.223010
1869.987006	-14.246815
1871.154158	-14.270996
1872.322768	-14.296029
1873.492839	-14.320876
1874.664373	-14.345664
1875.837373	-14.370729
1877.011841	-14.395294
1878.187782	-14.419425
1879.365197	-14.443823
1880.544089	-14.468216
1881.724460	-14.492014
1882.906315	-14.515339
1884.089655	-14.538221
1885.274483	-14.560001
1886.460803	-14.580856
1887.648616	-14.601969
1888.837927	-14.622862
1890.028736	-14.642682
1891.221049	-14.661993
1892.414866	-14.680575
1893.610192	-14.697074
1894.807028	-14.713201
1896.005379	-14.729503
1897.205246	-14.744446
1898.406633	-14.758671
1899.609542	-14.772373
1900.813977	-14.784190
1902.019940	-14.795141
1903.227434	-14.806219
1904.436462	-14.815676
1905.647028	-14.824085
1906.859133	-14.832079
1908.072781	-14.839023
1909.287976	-14.845555
1910.504719	-14.852153
1911.723013	-14.857903
1912.942863	-14.862741
1914.164270	-14.867253
1915.387238	-14.871135
1916.611770	-14.874622
1917.837868	-14.877283
1919.065536	-14.879282
1920.294777	-14.880823
1921.525594	-14.881282
1922.757989	-14.881436
1923.991967	-14.881543
1925.227529	-14.880791
1926.464679	-14.878661
1927.703420	-14.875619
1928.943755	-14.871914
1930.185688	-14.867995
1931.429221	-14.863621
1932.674356	-14.857642
1933.921099	-14.850359
1935.169451	-14.841908
1936.419415	-14.832282
1937.670996	-14.821437
1938.924195	-14.809153
1940.179017	-14.795277
1941.435463	-14.780111
1942.693538	-14.763595
1943.953245	-14.745219
1945.214586	-14.725338
1946.477566	-14.704258
1947.742186	-14.682171
1949.008451	-14.659198
1950.276363	-14.635038
1951.545926	-14.609031
1952.817143	-14.581202
1954.090017	-14.552795
1955.364551	-14.524683
1956.640749	-14.496804
1957.918615	-14.468483
1959.198150	-14.438770
1960.479359	-14.407844
1961.762244	-14.376974
1963.046810	-14.347041
1964.333059	-14.317663
1965.620995	-14.288031
1966.910621	-14.257498
1968.201940	-14.226339
1969.494956	-14.195719
1970.789672	-14.165767
1972.086091	-14.135770
1973.384217	-14.105586
1974.684053	-14.075575
1975.985602	-14.045918
1977.288869	-14.016781
1978.593855	-13.988165
1979.900566	-13.959549
1981.209003	-13.931266
1982.519171	-13.903957
1983.831073	-13.877081
1985.144712	-13.849848
1986.460093	-13.822117
1987.777217	-13.794163
1989.096089	-13.766367
1990.416713	-13.738400
1991.739092	-13.709567
1993.063228	-13.679547
1994.389127	-13.648649
1995.716791	-13.617114
1997.046223	-13.585250
1998.377428	-13.552969
1999.710409	-13.520037
2001.045169	-13.486479
2002.381713	-13.452590
2003.720043	-13.418406
2005.060163	-13.383912
2006.402077	-13.349238
2007.745788	-13.314297
2009.091301	-13.278996
2010.438618	-13.243423
2011.787743	-13.207729
2013.138680	-13.172701
2014.491433	-13.138946
2015.846005	-13.105875
2017.202399	-13.072772
2018.560621	-13.039896
2019.920673	-13.007966
2021.282558	-12.977591
2022.646281	-12.948296
2024.011846	-12.919252
2025.379256	-12.889954
2026.748515	-12.860980
2028.119626	-12.833174
2029.492594	-12.806389
2030.867422	-12.779982
2032.244114	-12.753923
2033.622673	-12.728926
2035.003104	-12.705581
2036.385411	-12.683720
2037.769597	-12.663174
2039.155665	-12.643926
2040.543621	-12.625425
2041.933467	-12.607237
2043.325208	-12.589581
2044.718847	-12.572615
2046.114389	-12.555879
2047.511837	-12.538342
2048.911195	-12.519263
2050.312467	-12.499194
2051.715657	-12.479153
2053.120769	-12.459528
2054.527807	-12.439743
2055.936775	-12.419149
2057.347677	-12.398046
2058.760516	-12.377268
2060.175297	-12.357422
2061.592025	-12.337698
2063.010701	-12.317240
2064.431332	-12.296370
2065.853921	-12.275642
2067.278472	-12.255741
2068.704988	-12.236526
2070.133475	-12.217068
2071.563936	-12.197065
2072.996375	-12.177150
2074.430796	-12.157998
2075.867204	-12.139682
2077.305603	-12.121841
2078.745996	-12.104474
2080.188389	-12.087824
2081.632784	-12.072337
2083.079187	-12.058560
2084.527601	-12.046648
2085.978030	-12.036051
2087.430480	-12.026048
2088.884954	-12.017148
2090.341455	-12.010816
2091.799990	-12.007134
2093.260561	-12.004941
2094.723173	-12.003451
2096.187831	-12.003206
2097.654538	-12.005279
2099.123300	-12.009330
2100.594119	-12.014107
2102.067001	-12.018925
2103.541950	-12.024423
2105.018971	-12.031281
2106.498067	-12.038764
2107.979243	-12.045659
2109.462503	-12.051319
2110.947853	-12.055695
2112.435295	-12.058820
2113.924836	-12.060681
2115.416478	-12.060596
2116.910227	-12.058325
2118.406087	-12.054483
2119.904063	-12.049980
2121.404158	-12.044977
2122.906378	-12.038586
2124.410727	-12.030142
2125.917210	-12.020905
2127.425831	-12.012592
2128.936594	-12.005457
2130.449505	-11.998998
2131.964567	-11.993395
2133.481786	-11.990335
2135.001166	-11.990438
2136.522711	-11.993397
2138.046427	-11.998998
2139.572317	-12.007222
2141.100388	-12.018693
2142.630642	-12.033820
2144.163085	-12.051851
2145.697722	-12.071136
2147.234558	-12.091278
2148.773596	-12.112961
2150.314842	-12.136525
2151.858301	-12.161065
2153.403977	-12.185441
2154.951875	-12.209621
2156.502000	-12.233682
2158.054357	-12.257034
2159.608950	-12.279074
2161.165785	-12.299689
2162.724866	-12.318878
2164.286198	-12.336245
2165.849786	-12.351786
2167.415635	-12.365702
2168.983749	-12.378038
2170.554134	-12.389168
2172.126795	-12.399580
2173.701737	-12.409897
2175.278964	-12.420756
2176.858481	-12.432481
2178.440294	-12.446028
2180.024408	-12.461908
2181.610827	-12.480400
2183.199557	-12.502047
2184.790602	-12.527032
2186.383968	-12.554816
2187.979660	-12.584974
2189.577683	-12.617409
2191.178041	-12.652948
2192.780741	-12.691145
2194.385787	-12.730731
2195.993185	-12.771481
2197.602939	-12.813845
2199.215054	-12.857345
2200.829537	-12.900727
2202.446392	-12.943972
2204.065624	-12.987821
2205.687239	-13.032080
2207.311242	-13.076165
2208.937638	-13.119865
2210.566433	-13.163548
2212.197631	-13.207920
2213.831239	-13.252634
2215.467261	-13.296597
2217.105703	-13.339506
2218.746570	-13.382276
2220.389867	-13.424383
2222.035601	-13.464770
2223.683776	-13.504151
2225.334398	-13.543660
2226.987472	-13.583374
2228.643004	-13.622410
2230.300999	-13.662700
2231.961463	-13.705081
2233.624402	-13.748615
2235.289820	-13.793451
2236.957723	-13.841130
2238.628118	-13.892643
2240.301009	-13.947461
2241.976402	-14.003654
2243.654303	-14.061291
2245.334717	-14.122024
2247.017650	-14.185827
2248.703108	-14.251487
2250.391096	-14.319009
2252.081620	-14.390407
2253.774686	-14.464056
2255.470300	-14.536784
2257.168467	-14.609755
2258.869193	-14.685702
2260.572484	-14.762625
2262.278345	-14.838282
2263.986783	-14.914133
2265.697804	-14.992060
2267.411412	-15.070282
2269.127615	-15.146254
2270.846417	-15.221621
2272.567826	-15.298787
2274.291846	-15.375433
2276.018484	-15.449215
2277.747745	-15.522021
2279.479637	-15.596071
2281.214164	-15.668440
2282.951333	-15.738038
2284.691149	-15.809674
2286.433619	-15.883804
2288.178750	-15.956727
2289.926546	-16.029980
2291.677014	-16.107726
2293.430161	-16.190281
2295.185992	-16.274272
2296.944513	-16.359711
2298.705732	-16.451166
2300.469653	-16.547908
2302.236283	-16.646443
2304.005629	-16.747241
2305.777696	-16.853507
2307.552492	-16.963929
2309.330022	-17.075118
2311.110292	-17.189691
2312.893310	-17.306172
2314.679080	-17.421978
2316.467611	-17.538398
2318.258907	-17.655199
2320.052976	-17.770267
2321.849824	-17.883304
2323.649457	-17.996038
2325.451883	-18.108567
2327.257106	-18.220635
2329.065135	-18.331624
2330.875975	-18.442453
2332.689633	-18.554377
2334.506116	-18.662137
2336.325430	-18.766773
2338.147581	-18.872111
2339.972578	-18.975700
2341.800425	-19.076752
2343.631130	-19.175597
2345.464700	-19.274975
2347.301141	-19.376038
2349.140461	-19.479441
2350.982665	-19.587560
2352.827760	-19.703746
2354.675754	-19.825166
2356.526653	-19.951223
2358.380464	-20.087547
2360.237195	-20.226804
2362.096851	-20.366987
2363.959440	-20.515108
2365.824968	-20.666517
2367.693444	-20.818163
2369.564873	-20.969165
2371.439263	-21.123125
2373.316620	-21.281576
2375.196953	-21.434723
2377.080267	-21.582541
2378.966570	-21.735437
2380.855869	-21.887405
2382.748171	-22.029270
2384.643484	-22.169030
2386.541815	-22.311187
2388.443170	-22.450452
2390.347557	-22.578061
2392.254984	-22.709354
2394.165457	-22.845343
2396.078984	-22.964827
2397.995572	-23.080805
2399.915229	-23.204768
2401.837961	-23.319842
2403.763777	-23.426952
2405.692684	-23.545481
2407.624689	-23.666782
2409.559800	-23.787128
2411.498023	-23.915894
2413.439368	-24.057869
2415.383840	-24.204721
2417.331449	-24.364321
2419.282201	-24.540569
2421.236104	-24.712249
2423.193165	-24.896183
2425.153393	-25.100200
2427.116795	-25.289015
2429.083378	-25.466578
2431.053151	-25.664450
2433.026121	-25.854183
2435.002297	-26.020143
2436.981685	-26.197847
2438.964293	-26.384784
2440.950131	-26.539663
2442.939204	-26.688011
2444.931522	-26.858456
2446.927092	-27.014716
2448.925923	-27.145626
2450.928022	-27.281087
2452.933397	-27.421931
2454.942056	-27.544616
2456.954008	-27.651717
2458.969260	-27.765902
2460.987821	-27.876653
2463.009699	-27.969645
2465.034902	-28.074106
2467.063437	-28.191025
2469.095315	-28.299085
2471.130542	-28.416600
2473.169127	-28.564689
2475.211078	-28.712691
2477.256404	-28.876521
2479.305112	-29.081803
2481.357212	-29.293724
2483.412713	-29.517087
2485.471621	-29.769186
2487.533946	-30.008797
2489.599696	-30.231338
2491.668880	-30.463048
2493.741507	-30.684327
2495.817585	-30.867616
2497.897122	-31.071012
2499.980127	-31.274353
2502.066609	-31.438441
2504.156578	-31.614916
2506.250040	-31.778157
2508.347006	-31.914647
2510.447483	-32.047969
2512.551482	-32.197955
2514.659010	-32.271937
2516.770076	-32.363596
2518.884690	-32.462100
2521.002861	-32.517845
2523.124597	-32.582622
2525.249907	-32.637208
2527.378801	-32.704035
2529.511287	-32.748512
2531.647375	-32.876036
2533.787074	-32.906994
2535.930393	-33.098389
2538.077340	-33.205621
2540.227927	-33.429435
2542.382160	-33.609938
2544.540051	-33.911307
2546.701608	-34.175221
2548.866840	-34.472054
2551.035757	-34.816313
2553.208369	-35.084127
2555.384684	-35.389230
2557.564713	-35.683637
2559.748465	-35.892984
2561.935948	-36.217221
2564.127174	-36.337828
2566.322152	-36.644862
2568.520890	-36.814719
2570.723399	-36.999801
2572.929689	-37.207598
2575.139769	-37.246017
2577.353649	-37.429509
2579.571340	-37.431387
2581.792849	-37.425806
2584.018189	-37.442689
2586.247368	-37.438391
2588.480396	-37.351858
2590.717284	-37.361589
2592.958041	-37.284357
2595.202678	-37.263613
2597.451204	-37.300731
2599.703630	-37.255827
2601.959966	-37.317194
2604.220222	-37.559667
2606.484408	-37.659049
2608.752535	-37.917651
2611.024612	-38.170604
2613.300651	-38.642145
2615.580661	-38.803119
2617.864653	-39.246564
2620.152638	-39.661362
2622.444625	-40.070243
2624.740626	-40.270200
2627.040651	-40.713372
2629.344710	-41.111868
2631.652814	-41.419938
2633.964974	-41.853462
2636.281200	-42.272468
2638.601504	-42.589789
2640.925896	-42.890051
2643.254386	-43.168960
2645.586987	-43.261729
2647.923707	-43.313185
2650.264559	-43.194043
2652.609554	-43.168684
2654.958702	-42.911523
2657.312015	-42.750579
2659.669503	-42.452010
2662.031178	-42.360380
2664.397051	-42.044658
2666.767132	-41.869197
2669.141434	-41.827213
2671.519968	-41.787570
2673.902745	-41.760635
2676.289776	-42.034326
2678.681072	-42.072024
2681.076646	-42.303876
2683.476508	-42.700769
2685.880671	-42.816026
2688.289145	-43.178642
2690.701942	-43.425971
2693.119075	-43.706053
2695.540554	-43.976188
2697.966391	-44.461088
2700.396599	-44.651349
2702.831189	-45.391768
2705.270172	-45.809870
2707.713561	-46.639038
2710.161368	-47.180143
2712.613605	-48.051040
2715.070283	-48.454529
2717.531416	-49.109796
2719.997014	-49.586086
2722.467090	-49.745458
2724.941657	-49.974273
2727.420726	-49.735500
2729.904310	-49.456227
2732.392421	-48.805729
2734.885072	-48.589278
2737.382275	-47.854765
2739.884042	-47.959611
2742.390387	-47.261605
2744.901321	-47.511541
2747.416857	-47.376317
2749.937008	-47.407809
2752.461787	-47.528784
2754.991206	-47.477551
2757.525279	-47.614385
2760.064017	-47.341011
2762.607434	-47.651489
2765.155544	-47.168693
2767.708358	-47.476484
2770.265890	-47.371663
2772.828153	-47.530348
2775.395160	-47.968165
2777.966924	-48.044255
2780.543459	-48.969625
2783.124778	-49.129503
2785.710894	-49.895142
2788.301821	-50.347269
2790.897572	-51.208359
2793.498160	-52.024144
2796.103599	-52.955531
2798.713903	-53.974124
2801.329085	-54.351429
2803.949159	-55.252658
2806.574139	-54.646465
2809.204038	-54.912269
2811.838871	-54.282151
2814.478650	-54.563075
2817.123391	-54.213963
2819.773107	-54.367246
2822.427812	-54.978099
2825.087521	-54.763768
2827.752247	-55.590730
2830.422005	-55.082969
2833.096808	-55.568955
2835.776672	-54.554545
2838.461611	-54.460822
2841.151638	-53.506795
2843.846769	-53.095419
2846.547019	-52.928240
2849.252401	-52.278212
2851.962930	-52.750407
2854.678621	-52.231148
2857.399489	-52.787590
2860.125549	-52.420419
2862.856815	-52.796035
2865.593302	-53.095024
2868.335026	-53.430994
2871.082002	-54.519109
2873.834244	-54.922105
2876.591767	-56.533276
2879.354588	-56.494293
2882.122721	-57.324746
2884.896181	-56.959615
2887.674984	-57.114751
2890.459146	-56.973738
2893.248681	-56.717319
2896.043606	-56.886274
2898.843937	-56.806128
2901.649687	-57.695337
2904.460875	-57.806250
2907.277515	-59.355642
2910.099623	-59.771085
2912.927215	-61.717386
2915.760308	-62.565170
2918.598916	-63.125340
2921.443057	-63.471957
2924.292747	-62.512132
2927.148002	-63.222025
2930.008837	-61.642981
2932.875270	-61.789577
2935.747318	-59.654459
2938.624995	-59.794547
2941.508320	-57.763243
2944.397308	-58.637490
2947.291977	-57.664856
2950.192343	-58.615686
2953.098423	-58.947900
2956.010234	-59.452149
2958.927792	-60.863463
2961.851116	-61.180846
2964.780221	-62.339946
2967.715126	-62.002605
2970.655847	-62.964874
2973.602402	-61.050740
2976.554808	-61.893060
2979.513083	-60.088018
2982.477243	-61.100945
2985.447308	-60.047189
2988.423293	-60.494752
2991.405218	-60.783997
2994.393099	-60.912869
2997.386955	-61.401486
