# 2022-03-21_21.22.07
# shape = sech2
# FWHM_ps = 0.1
# carrier_nm = 1542
# frep_MHz = 12126
# pow_mW = 8000
# GDD = 0.0
# propa_len = 0.098
# untap_len = 0.01
# taper_len = 0.038
# waist_len = 0.02
# uptap_len = 0.02
# untap_scale = 1.0
# waist_scale = 0.2578947368421053
# workingDir = NL_20110305_12 (Spirou)
# axis = slow
# window_ps = 10.0
# steps = 200
# points = 21700
# 
# wavelength [nm]	 power spectral density [dB]
600.043425	-73.671711
600.163550	-73.694204
600.283723	-73.731262
600.403943	-73.782763
600.524212	-73.848416
600.644529	-73.926410
600.764895	-74.013245
600.885308	-74.104641
601.005770	-74.195903
601.126280	-74.282384
601.246839	-74.360385
601.367446	-74.428201
601.488101	-74.486620
601.608804	-74.538115
601.729557	-74.586016
601.850357	-74.633520
601.971206	-74.684541
602.092104	-74.742821
602.213050	-74.810160
602.334045	-74.886855
602.455089	-74.971789
602.576181	-75.062701
602.697322	-75.155940
602.818511	-75.247236
602.939749	-75.332507
603.061036	-75.407912
603.182372	-75.471558
603.303757	-75.524635
603.425191	-75.569404
603.546673	-75.608706
603.668204	-75.645943
603.789785	-75.686108
603.911414	-75.733188
604.033092	-75.788864
604.154820	-75.853641
604.276596	-75.928233
604.398422	-76.011917
604.520297	-76.102718
604.642220	-76.196966
604.764193	-76.290464
604.886216	-76.378690
605.008287	-76.459102
605.130408	-76.531664
605.252578	-76.597594
605.374798	-76.657340
605.497066	-76.713055
605.619385	-76.768856
605.741752	-76.828700
605.864169	-76.894802
605.986636	-76.969689
606.109152	-77.055763
606.231718	-77.153601
606.354333	-77.260753
606.476998	-77.374635
606.599712	-77.492775
606.722476	-77.612353
606.845290	-77.730698
606.968154	-77.846437
607.091067	-77.958157
607.214030	-78.065628
607.337043	-78.170228
607.460106	-78.274856
607.583219	-78.380953
607.706381	-78.489443
607.829594	-78.602951
607.952856	-78.724368
608.076169	-78.855213
608.199531	-78.994141
608.322944	-79.138014
608.446407	-79.285508
608.569920	-79.434511
608.693483	-79.580339
608.817096	-79.717799
608.940759	-79.845018
609.064473	-79.962450
609.188237	-80.069625
609.312051	-80.165560
609.435916	-80.253616
609.559831	-80.337941
609.683796	-80.421500
609.807812	-80.507233
609.931878	-80.598171
610.055995	-80.693477
610.180162	-80.790573
610.304380	-80.889855
610.428648	-80.993732
610.552967	-81.098019
610.677337	-81.195356
610.801757	-81.282517
610.926228	-81.358714
611.050750	-81.422725
611.175323	-81.471632
611.299946	-81.506118
611.424620	-81.526547
611.549345	-81.532307
611.674121	-81.526503
611.798948	-81.513928
611.923826	-81.498971
612.048755	-81.483795
612.173734	-81.470182
612.298765	-81.458645
612.423847	-81.447708
612.548980	-81.436827
612.674165	-81.425292
612.799400	-81.408592
612.924687	-81.383073
613.050025	-81.345924
613.175414	-81.297124
613.300854	-81.235910
613.426346	-81.163415
613.551889	-81.080567
613.677484	-80.989884
613.803130	-80.895138
613.928827	-80.800413
614.054576	-80.708919
614.180377	-80.623444
614.306229	-80.546705
614.432132	-80.481585
614.558087	-80.427691
614.684094	-80.383055
614.810153	-80.346011
614.936263	-80.313665
615.062425	-80.281912
615.188639	-80.246728
615.314904	-80.203145
615.441222	-80.146447
615.567591	-80.071892
615.694012	-79.978398
615.820486	-79.868597
615.947011	-79.745493
616.073588	-79.612646
616.200217	-79.473629
616.326898	-79.333463
616.453632	-79.198100
616.580417	-79.072846
616.707255	-78.961842
616.834144	-78.865174
616.961086	-78.782377
617.088081	-78.712458
617.215127	-78.655086
617.342226	-78.606601
617.469378	-78.562508
617.596581	-78.517590
617.723837	-78.467061
617.851146	-78.404968
617.978507	-78.329579
618.105920	-78.239923
618.233386	-78.135985
618.360905	-78.018943
618.488476	-77.893330
618.616100	-77.764695
618.743777	-77.637587
618.871506	-77.515424
618.999288	-77.402465
619.127123	-77.302357
619.255011	-77.217872
619.382951	-77.149041
619.510945	-77.094617
619.638991	-77.053244
619.767090	-77.022381
619.895243	-76.997131
620.023448	-76.971990
620.151706	-76.944524
620.280017	-76.913432
620.408382	-76.875712
620.536799	-76.827854
620.665270	-76.769041
620.793794	-76.701840
620.922371	-76.629885
621.051002	-76.557228
621.179686	-76.488786
621.308423	-76.429476
621.437213	-76.382898
621.566057	-76.351490
621.694954	-76.337502
621.823905	-76.343257
621.952909	-76.370097
622.081967	-76.417712
622.211079	-76.483520
622.340244	-76.562463
622.469462	-76.649838
622.598735	-76.742000
622.728061	-76.834185
622.857441	-76.919152
622.986874	-76.989601
623.116361	-77.043168
623.245903	-77.080440
623.375498	-77.101506
623.505147	-77.105680
623.634850	-77.097035
623.764606	-77.083211
623.894417	-77.071510
624.024282	-77.067257
624.154201	-77.075806
624.284174	-77.101858
624.414202	-77.149035
624.544283	-77.221536
624.674419	-77.322604
624.804609	-77.451703
624.934853	-77.605280
625.065151	-77.781516
625.195504	-77.979416
625.325911	-78.192531
625.456373	-78.408790
625.586889	-78.618257
625.717460	-78.814331
625.848085	-78.988349
625.978764	-79.127862
626.109498	-79.224541
626.240287	-79.276590
626.371131	-79.283771
626.502029	-79.247658
626.632982	-79.175903
626.763989	-79.081282
626.895052	-78.972907
627.026169	-78.856743
627.157341	-78.741407
627.288568	-78.637499
627.419850	-78.552135
627.551187	-78.487540
627.682579	-78.444984
627.814026	-78.425574
627.945528	-78.429583
628.077085	-78.454432
628.208697	-78.497109
628.340364	-78.554306
628.472087	-78.618332
628.603865	-78.679949
628.735698	-78.730755
628.867586	-78.761017
628.999530	-78.757640
629.131529	-78.707935
629.263584	-78.606793
629.395694	-78.451749
629.527859	-78.242556
629.660080	-77.982629
629.792357	-77.681718
629.924689	-77.350854
630.057077	-77.001901
630.189520	-76.646594
630.322019	-76.295447
630.454574	-75.956392
630.587184	-75.636671
630.719851	-75.342325
630.852573	-75.077977
630.985351	-74.844010
631.118185	-74.639430
631.251075	-74.463511
631.384021	-74.315156
631.517023	-74.191545
631.650081	-74.088062
631.783195	-73.998331
631.916365	-73.915858
632.049592	-73.834593
632.182874	-73.747720
632.316213	-73.648300
632.449608	-73.529610
632.583059	-73.385880
632.716567	-73.213987
632.850131	-73.014182
632.983751	-72.788977
633.117428	-72.542245
633.251161	-72.279670
633.384951	-72.008007
633.518797	-71.734040
633.652700	-71.463866
633.786660	-71.203792
633.920676	-70.959414
634.054749	-70.734194
634.188879	-70.530447
634.323065	-70.349536
634.457308	-70.192784
634.591608	-70.059251
634.725965	-69.946497
634.860379	-69.852937
634.994850	-69.777581
635.129377	-69.717280
635.263962	-69.666860
635.398604	-69.621446
635.533303	-69.577559
635.668058	-69.531127
635.802872	-69.477256
635.937742	-69.412166
636.072669	-69.333084
636.207654	-69.237896
636.342696	-69.126145
636.477796	-68.999276
636.612953	-68.859230
636.748167	-68.708655
636.883439	-68.550963
637.018768	-68.390596
637.154155	-68.231468
637.289599	-68.076914
637.425101	-67.930004
637.560660	-67.793094
637.696277	-67.668261
637.831952	-67.556912
637.967685	-67.460263
638.103475	-67.378536
638.239324	-67.311555
638.375230	-67.258862
638.511194	-67.219584
638.647215	-67.192833
638.783295	-67.177595
638.919433	-67.171590
639.055629	-67.172133
639.191883	-67.176559
639.328195	-67.182468
639.464565	-67.187039
639.600994	-67.187440
639.737481	-67.181371
639.874025	-67.166471
640.010629	-67.140956
640.147290	-67.104141
640.284010	-67.056276
640.420789	-66.997624
640.557625	-66.928867
640.694521	-66.852296
640.831474	-66.770487
640.968487	-66.685682
641.105558	-66.600573
641.242687	-66.518340
641.379876	-66.441492
641.517123	-66.372254
641.654429	-66.313285
641.791793	-66.267108
641.929216	-66.234604
642.066699	-66.216392
642.204240	-66.213529
642.341840	-66.226455
642.479499	-66.254252
642.617217	-66.295258
642.754994	-66.347523
642.892830	-66.408864
643.030726	-66.476486
643.168680	-66.547647
643.306694	-66.619764
643.444767	-66.689691
643.582899	-66.754016
643.721091	-66.810009
643.859342	-66.855955
643.997652	-66.890502
644.136022	-66.912883
644.274451	-66.923144
644.412940	-66.922416
644.551488	-66.911807
644.690096	-66.892809
644.828763	-66.867565
644.967490	-66.839057
645.106277	-66.810199
645.245124	-66.783222
645.384030	-66.759904
645.522997	-66.741986
645.662023	-66.731490
645.801109	-66.730394
645.940255	-66.739668
646.079460	-66.759719
646.218726	-66.791178
646.358052	-66.835187
646.497438	-66.892136
646.636884	-66.961202
646.776391	-67.042315
646.915957	-67.135740
647.055584	-67.241070
647.195271	-67.357702
647.335019	-67.485374
647.474826	-67.623153
647.614695	-67.768638
647.754623	-67.919474
647.894612	-68.073496
648.034662	-68.228024
648.174772	-68.379883
648.314943	-68.526192
648.455174	-68.663968
648.595466	-68.789666
648.735819	-68.900949
648.876233	-68.995971
649.016707	-69.073399
649.157242	-69.133123
649.297838	-69.176749
649.438495	-69.206758
649.579213	-69.225516
649.719992	-69.235949
649.860832	-69.241554
650.001733	-69.246528
650.142695	-69.254469
650.283718	-69.268840
650.424803	-69.292967
650.565949	-69.329007
650.707156	-69.378470
650.848424	-69.443275
650.989754	-69.525329
651.131145	-69.625098
651.272597	-69.741803
651.414111	-69.875905
651.555687	-70.028225
651.697324	-70.198617
651.839022	-70.386344
651.980782	-70.591123
652.122604	-70.812293
652.264488	-71.048470
652.406433	-71.298571
652.548441	-71.561748
652.690510	-71.836326
652.832640	-72.120167
652.974833	-72.410761
653.117088	-72.706029
653.259405	-73.003671
653.401784	-73.299423
653.544224	-73.588185
653.686727	-73.865140
653.829293	-74.124968
653.971920	-74.362234
654.114609	-74.571882
654.257361	-74.749980
654.400175	-74.891574
654.543052	-74.993224
654.685991	-75.055497
654.828992	-75.081766
654.972056	-75.075028
655.115183	-75.039263
655.258372	-74.981082
655.401623	-74.908046
655.544937	-74.824800
655.688314	-74.733009
655.831754	-74.637360
655.975256	-74.542595
656.118822	-74.451082
656.262450	-74.361988
656.406141	-74.275000
656.549894	-74.191384
656.693711	-74.111153
656.837591	-74.033759
656.981534	-73.959709
657.125540	-73.888318
657.269610	-73.818645
657.413742	-73.750782
657.557938	-73.686295
657.702196	-73.625608
657.846519	-73.567202
657.990904	-73.509953
658.135353	-73.455640
658.279866	-73.406486
658.424441	-73.362472
658.569081	-73.322388
658.713784	-73.286115
658.858550	-73.255704
659.003381	-73.231720
659.148274	-73.213256
659.293232	-73.198616
659.438253	-73.185938
659.583339	-73.173154
659.728488	-73.158398
659.873701	-73.139810
660.018978	-73.113786
660.164318	-73.076058
660.309723	-73.023932
660.455192	-72.956696
660.600725	-72.874432
660.746323	-72.776176
660.891984	-72.663418
661.037710	-72.538274
661.183500	-72.402922
661.329354	-72.260017
661.475272	-72.110687
661.621255	-71.956116
661.767303	-71.796814
661.913415	-71.633722
662.059591	-71.468076
662.205833	-71.299811
662.352138	-71.127139
662.498509	-70.949554
662.644944	-70.768414
662.791443	-70.584351
662.938008	-70.397415
663.084638	-70.208559
663.231332	-70.020135
663.378091	-69.833848
663.524915	-69.650093
663.671804	-69.469439
663.818759	-69.292529
663.965778	-69.120769
664.112863	-68.955272
664.260012	-68.796278
664.407227	-68.643047
664.554507	-68.494702
664.701853	-68.350521
664.849264	-68.209833
664.996740	-68.071934
665.144282	-67.935894
665.291889	-67.800882
665.439561	-67.665872
665.587300	-67.530449
665.735103	-67.394687
665.882973	-67.258905
666.030908	-67.123362
666.178909	-66.988093
666.326976	-66.854250
666.475109	-66.723684
666.623307	-66.597466
666.771571	-66.475726
666.919902	-66.358142
667.068298	-66.244814
667.216761	-66.136084
667.365289	-66.031640
667.513884	-65.930526
667.662545	-65.832355
667.811272	-65.736477
667.960065	-65.641669
668.108925	-65.547454
668.257851	-65.454015
668.406843	-65.361546
668.555902	-65.270205
668.705027	-65.180604
668.854219	-65.093782
669.003478	-65.010591
669.152803	-64.931306
669.302195	-64.855841
669.451653	-64.784582
669.601179	-64.717407
669.750771	-64.653834
669.900430	-64.592923
670.050156	-64.533426
670.199949	-64.474066
670.349808	-64.413398
670.499735	-64.351064
670.649729	-64.286832
670.799790	-64.220680
670.949918	-64.152801
671.100114	-64.083875
671.250377	-64.014719
671.400707	-63.946289
671.551104	-63.879433
671.701569	-63.814987
671.852101	-63.753173
672.002700	-63.693139
672.153368	-63.634070
672.304102	-63.575415
672.454905	-63.516993
672.605775	-63.457797
672.756713	-63.397069
672.907718	-63.334813
673.058791	-63.271268
673.209933	-63.206696
673.361142	-63.141738
673.512419	-63.077710
673.663764	-63.015290
673.815177	-62.954870
673.966658	-62.896825
674.118207	-62.841851
674.269825	-62.790061
674.421510	-62.740899
674.573264	-62.693587
674.725086	-62.647449
674.876977	-62.601698
675.028936	-62.555263
675.180963	-62.507576
675.333059	-62.458803
675.485224	-62.409236
675.637457	-62.358682
675.789758	-62.307596
675.942129	-62.256545
676.094568	-62.206159
676.247075	-62.156634
676.399652	-62.108327
676.552298	-62.061143
676.705012	-62.014532
676.857795	-61.967706
677.010648	-61.919803
677.163569	-61.870280
677.316560	-61.818469
677.469619	-61.763808
677.622748	-61.705853
677.775946	-61.645304
677.929214	-61.582599
678.082551	-61.518059
678.235957	-61.452656
678.389432	-61.388074
678.542977	-61.325430
678.696592	-61.264819
678.850276	-61.206550
679.004030	-61.151155
679.157853	-61.098510
679.311746	-61.048077
679.465709	-60.999007
679.619742	-60.950595
679.773844	-60.902104
679.928017	-60.853077
680.082259	-60.804150
680.236571	-60.755830
680.390954	-60.708751
680.545406	-60.663854
680.699929	-60.622394
680.854522	-60.584984
681.009185	-60.552070
681.163918	-60.523828
681.318722	-60.500646
681.473596	-60.481525
681.628540	-60.465229
681.783555	-60.450586
681.938641	-60.436698
682.093797	-60.422570
682.249023	-60.407730
682.404321	-60.392271
682.559689	-60.376440
682.715128	-60.360667
682.870637	-60.345945
683.026218	-60.333226
683.181869	-60.323293
683.337591	-60.316023
683.493385	-60.311441
683.649249	-60.309307
683.805185	-60.308886
683.961191	-60.308906
684.117269	-60.308027
684.273418	-60.305385
684.429639	-60.300228
684.585930	-60.292228
684.742294	-60.281505
684.898728	-60.268464
685.055234	-60.253592
685.211812	-60.237743
685.368461	-60.221894
685.525182	-60.206462
685.681975	-60.191455
685.838839	-60.176919
685.995775	-60.162345
686.152783	-60.146397
686.309863	-60.128121
686.467014	-60.106719
686.624238	-60.081785
686.781534	-60.052938
686.938902	-60.020654
687.096342	-59.985725
687.253854	-59.948702
687.411438	-59.910565
687.569095	-59.872528
687.726824	-59.835667
687.884626	-59.800328
688.042499	-59.766668
688.200446	-59.734484
688.358465	-59.703333
688.516556	-59.672376
688.674720	-59.640943
688.832957	-59.608308
688.991266	-59.573840
689.149649	-59.537947
689.308104	-59.501146
689.466632	-59.464261
689.625233	-59.428137
689.783906	-59.393422
689.942653	-59.360726
690.101473	-59.330226
690.260367	-59.301640
690.419333	-59.274807
690.578372	-59.248888
690.737485	-59.222812
690.896672	-59.195718
691.055931	-59.167274
691.215264	-59.137806
691.374671	-59.106836
691.534151	-59.074370
691.693704	-59.041222
691.853332	-59.008334
692.013033	-58.976179
692.172807	-58.944875
692.332656	-58.914598
692.492578	-58.885380
692.652575	-58.856109
692.812645	-58.826172
692.972789	-58.795298
693.133007	-58.763049
693.293300	-58.728828
693.453666	-58.692103
693.614107	-58.653503
693.774622	-58.613451
693.935211	-58.572078
694.095875	-58.529874
694.256613	-58.487264
694.417426	-58.444221
694.578313	-58.400526
694.739274	-58.355893
694.900311	-58.310170
695.061421	-58.262694
695.222607	-58.213235
695.383868	-58.161458
695.545203	-58.107378
695.706613	-58.050592
695.868098	-57.991024
696.029658	-57.929470
696.191293	-57.866312
696.353003	-57.802110
696.514789	-57.737280
696.676649	-57.672435
696.838585	-57.607671
697.000596	-57.542793
697.162682	-57.477641
697.324844	-57.412053
697.487081	-57.345593
697.649394	-57.277916
697.811782	-57.208829
697.974246	-57.138489
698.136786	-57.067311
698.299401	-56.995775
698.462092	-56.924323
698.624859	-56.853424
698.787702	-56.783621
698.950621	-56.715140
699.113616	-56.647998
699.276686	-56.582046
699.439833	-56.517103
699.603056	-56.452755
699.766355	-56.388461
699.929731	-56.323961
700.093183	-56.259190
700.256711	-56.194108
700.420315	-56.128726
700.583996	-56.063546
700.747754	-55.999233
700.911588	-55.936436
701.075499	-55.875582
701.239486	-55.817000
701.403550	-55.760760
701.567691	-55.706694
701.731909	-55.654370
701.896203	-55.603307
702.060575	-55.553083
702.225024	-55.503025
702.389549	-55.453042
702.554152	-55.402933
702.718832	-55.353040
702.883589	-55.303602
703.048424	-55.255256
703.213335	-55.208803
703.378324	-55.164498
703.543391	-55.122441
703.708535	-55.082537
703.873757	-55.044608
704.039056	-55.008137
704.204433	-54.972462
704.369887	-54.937222
704.535420	-54.902343
704.701030	-54.867891
704.866718	-54.834083
705.032484	-54.801499
705.198328	-54.770784
705.364250	-54.742342
705.530250	-54.716077
705.696328	-54.692008
705.862485	-54.670021
706.028720	-54.649353
706.195033	-54.629308
706.361424	-54.609390
706.527894	-54.589647
706.694442	-54.570075
706.861069	-54.550990
707.027775	-54.532961
707.194559	-54.516706
707.361422	-54.502586
707.528363	-54.490984
707.695384	-54.481794
707.862483	-54.474862
708.029661	-54.469463
708.196918	-54.465266
708.364254	-54.461773
708.531670	-54.458595
708.699164	-54.455632
708.866738	-54.453391
709.034391	-54.452382
709.202123	-54.453059
709.369935	-54.455846
709.537826	-54.461272
709.705796	-54.469117
709.873847	-54.478792
710.041976	-54.489365
710.210186	-54.500241
710.378475	-54.511023
710.546844	-54.521547
710.715292	-54.531670
710.883821	-54.541957
711.052429	-54.553437
711.221118	-54.566900
711.389887	-54.582784
711.558735	-54.601342
711.727664	-54.622335
711.896673	-54.645191
712.065763	-54.668664
712.234932	-54.691794
712.404183	-54.713951
712.573513	-54.734909
712.742924	-54.754941
712.912416	-54.774870
713.081988	-54.795478
713.251641	-54.817244
713.421375	-54.840433
713.591190	-54.865322
713.761085	-54.891164
713.931061	-54.916554
714.101119	-54.940553
714.271257	-54.962305
714.441476	-54.981382
714.611777	-54.997571
714.782159	-55.011749
714.952622	-55.024850
715.123166	-55.037826
715.293792	-55.051454
715.464499	-55.065455
715.635288	-55.079327
715.806158	-55.091919
715.977110	-55.102308
716.148143	-55.109600
716.319259	-55.112902
716.490456	-55.112418
716.661735	-55.108944
716.833096	-55.103455
717.004538	-55.097035
717.176063	-55.090238
717.347670	-55.083103
717.519359	-55.075015
717.691130	-55.064972
717.862984	-55.051649
718.034920	-55.034226
718.206938	-55.012334
718.379039	-54.986586
718.551222	-54.957880
718.723488	-54.927450
718.895836	-54.896298
719.068267	-54.864907
719.240781	-54.833251
719.413377	-54.801049
719.586057	-54.767461
719.758819	-54.731429
719.931664	-54.692552
720.104593	-54.650851
720.277604	-54.606665
720.450699	-54.560855
720.623876	-54.514455
720.797137	-54.468777
720.970482	-54.424408
721.143910	-54.381287
721.317421	-54.338851
721.491016	-54.296384
721.664694	-54.253082
721.838456	-54.208271
722.012302	-54.161991
722.186231	-54.114904
722.360244	-54.068187
722.534342	-54.023054
722.708523	-53.980588
722.882788	-53.941270
723.057137	-53.905066
723.231570	-53.871425
723.406088	-53.839778
723.580689	-53.809372
723.755375	-53.779727
723.930146	-53.751130
724.105000	-53.724335
724.279940	-53.700336
724.454963	-53.680012
724.630072	-53.664091
724.805265	-53.652840
724.980543	-53.646018
725.155905	-53.642725
725.331353	-53.642298
725.506885	-53.644274
725.682503	-53.648515
725.858205	-53.655217
726.033993	-53.665197
726.209865	-53.679526
726.385823	-53.699136
726.561866	-53.724488
726.737995	-53.755641
726.914209	-53.792114
727.090508	-53.833219
727.266893	-53.878109
727.443364	-53.926175
727.619920	-53.977182
727.796562	-54.031754
727.973290	-54.090558
728.150103	-54.154384
728.327003	-54.223548
728.503988	-54.298120
728.681060	-54.377403
728.858218	-54.459955
729.035461	-54.544595
729.212791	-54.630535
729.390208	-54.717134
729.567710	-54.804169
729.745299	-54.891676
729.922975	-54.980270
730.100737	-55.069941
730.278586	-55.160135
730.456521	-55.250306
730.634543	-55.339117
730.812652	-55.424848
730.990848	-55.506643
731.169130	-55.583820
731.347500	-55.655936
731.525957	-55.722657
731.704500	-55.783942
731.883131	-55.839951
732.061850	-55.889999
732.240655	-55.932730
732.419548	-55.966834
732.598528	-55.991503
732.777596	-56.006151
732.956751	-56.010392
733.135994	-56.004717
733.315325	-55.989875
733.494744	-55.966543
733.674250	-55.935681
733.853844	-55.898136
734.033526	-55.854545
734.213296	-55.805294
734.393154	-55.750708
734.573101	-55.691088
734.753135	-55.627021
734.933258	-55.559011
735.113469	-55.487945
735.293769	-55.414563
735.474157	-55.340081
735.654633	-55.265338
735.835198	-55.191170
736.015852	-55.117832
736.196594	-55.045581
736.377426	-54.974584
736.558346	-54.905258
736.739355	-54.838277
736.920453	-54.774354
737.101640	-54.714145
737.282916	-54.658707
737.464282	-54.608560
737.645736	-54.564047
737.827280	-54.524911
738.008914	-54.490990
738.190637	-54.461994
738.372449	-54.437643
738.554351	-54.418059
738.736342	-54.403653
738.918424	-54.394607
739.100595	-54.391594
739.282855	-54.395081
739.465206	-54.405261
739.647647	-54.421673
739.830178	-54.443550
740.012799	-54.470397
740.195510	-54.501765
740.378311	-54.537564
740.561203	-54.578280
740.744185	-54.624641
740.927258	-54.677187
741.110421	-54.736375
741.293674	-54.802219
741.477018	-54.873704
741.660453	-54.949530
741.843979	-55.028109
742.027596	-55.109157
742.211303	-55.192587
742.395102	-55.279002
742.578991	-55.369221
742.762972	-55.463564
742.947044	-55.562293
743.131207	-55.664580
743.315461	-55.769177
743.499807	-55.874111
743.684244	-55.976999
743.868773	-56.076579
744.053394	-56.172289
744.238106	-56.265536
744.422910	-56.357550
744.607805	-56.448854
744.792793	-56.538288
744.977872	-56.622792
745.163044	-56.699813
745.348307	-56.766658
745.533663	-56.822188
745.719111	-56.866736
745.904651	-56.901450
746.090283	-56.928534
746.276008	-56.949809
746.461826	-56.965684
746.647735	-56.974485
746.833738	-56.973617
747.019833	-56.960870
747.206021	-56.935862
747.392302	-56.900332
747.578676	-56.857453
747.765143	-56.810495
747.951703	-56.761403
748.138356	-56.710697
748.325102	-56.657279
748.511941	-56.599851
748.698874	-56.537355
748.885900	-56.470585
749.073019	-56.402096
749.260232	-56.334893
749.447539	-56.271671
749.634939	-56.213598
749.822433	-56.160329
750.010021	-56.110021
750.197703	-56.060590
750.385479	-56.010204
750.573348	-55.959022
750.761312	-55.908942
750.949370	-55.862894
751.137523	-55.822523
751.325769	-55.788156
751.514110	-55.758587
751.702545	-55.731555
751.891075	-55.704964
752.079700	-55.677365
752.268419	-55.649135
752.457233	-55.621701
752.646142	-55.597001
752.835145	-55.576046
753.024244	-55.558066
753.213437	-55.540440
753.402726	-55.520348
753.592110	-55.496103
753.781589	-55.467670
753.971163	-55.435978
754.160833	-55.402752
754.350598	-55.369834
754.540459	-55.337734
754.730415	-55.305166
754.920467	-55.269866
755.110615	-55.230091
755.300858	-55.185511
755.491198	-55.137512
755.681633	-55.088560
755.872164	-55.040789
756.062792	-54.995811
756.253515	-54.954022
756.444335	-54.914562
756.635252	-54.876394
756.826264	-54.839308
757.017373	-54.804020
757.208579	-54.772222
757.399881	-54.746180
757.591280	-54.727777
757.782776	-54.717736
757.974368	-54.716231
758.166058	-54.722151
758.357844	-54.734518
758.549728	-54.752891
758.741708	-54.778042
758.933786	-54.811231
759.125961	-54.853442
759.318233	-54.904363
759.510603	-54.963030
759.703071	-55.027325
759.895635	-55.095047
760.088298	-55.164681
760.281058	-55.235290
760.473916	-55.306476
760.666872	-55.377186
760.859926	-55.445468
761.053078	-55.508257
761.246328	-55.561498
761.439676	-55.601543
761.633122	-55.625421
761.826667	-55.631851
762.020310	-55.619895
762.214052	-55.589561
762.407892	-55.540322
762.601831	-55.471197
762.795868	-55.381567
762.990004	-55.272442
763.184239	-55.145916
763.378573	-55.005101
763.573006	-54.853298
763.767538	-54.693271
763.962169	-54.527141
764.156900	-54.356775
764.351729	-54.184092
764.546658	-54.011393
764.741687	-53.841415
764.936815	-53.676951
765.132042	-53.520802
765.327370	-53.375042
765.522797	-53.240992
765.718324	-53.119225
765.913950	-53.010028
766.109677	-52.913554
766.305504	-52.830482
766.501431	-52.762106
766.697458	-52.709611
766.893586	-52.673693
767.089814	-52.654614
767.286142	-52.651997
767.482571	-52.664902
767.679100	-52.692313
767.875730	-52.733744
768.072461	-52.788983
768.269293	-52.857865
768.466225	-52.939934
768.663259	-53.034171
768.860393	-53.138472
769.057629	-53.249366
769.254966	-53.362767
769.452404	-53.474239
769.649944	-53.579741
769.847585	-53.675175
770.045328	-53.756926
770.243172	-53.821281
770.441118	-53.864411
770.639166	-53.882179
770.837315	-53.870327
771.035567	-53.825684
771.233920	-53.746530
771.432376	-53.633659
771.630934	-53.489409
771.829594	-53.317487
772.028356	-53.121886
772.227220	-52.906418
772.426188	-52.675089
772.625257	-52.432022
772.824430	-52.182315
773.023705	-51.931036
773.223083	-51.683240
773.422563	-51.442532
773.622147	-51.211615
773.821834	-50.992088
774.021624	-50.785384
774.221517	-50.592638
774.421513	-50.415295
774.621613	-50.254834
774.821816	-50.112734
775.022122	-49.989984
775.222532	-49.886631
775.423046	-49.802182
775.623664	-49.735688
775.824385	-49.686561
776.025211	-49.654460
776.226140	-49.639409
776.427173	-49.641100
776.628311	-49.657944
776.829553	-49.687277
777.030899	-49.725681
777.232350	-49.769588
777.433905	-49.815887
777.635564	-49.861968
777.837328	-49.905648
778.039197	-49.944268
778.241171	-49.973992
778.443250	-49.989781
778.645433	-49.986229
778.847722	-49.959197
779.050116	-49.906773
779.252615	-49.829340
779.455219	-49.728011
779.657929	-49.604203
779.860744	-49.459126
780.063665	-49.294683
780.266691	-49.113870
780.469823	-48.920675
780.673061	-48.719741
780.876405	-48.515488
781.079855	-48.311585
781.283410	-48.111006
781.487072	-47.916024
781.690840	-47.728480
781.894715	-47.550392
782.098695	-47.383988
782.302783	-47.231668
782.506976	-47.095117
782.711277	-46.974760
782.915684	-46.869744
783.120198	-46.778795
783.324818	-46.700862
783.529546	-46.635657
783.734381	-46.583336
783.939322	-46.543542
784.144372	-46.514924
784.349528	-46.495236
784.554792	-46.481919
784.760163	-46.472860
784.965642	-46.466394
785.171228	-46.461059
785.376922	-46.455139
785.582724	-46.446375
785.788634	-46.432398
785.994651	-46.410847
786.200777	-46.379896
786.407011	-46.338440
786.613353	-46.286461
786.819804	-46.224826
787.026363	-46.154622
787.233030	-46.076519
787.439806	-45.990833
787.646691	-45.898153
787.853684	-45.799977
788.060786	-45.698483
788.267997	-45.595997
788.475317	-45.494186
788.682746	-45.394065
788.890285	-45.296576
789.097932	-45.202748
789.305689	-45.113739
789.513555	-45.030580
789.721531	-44.953624
789.929617	-44.882962
790.137812	-44.818257
790.346117	-44.759193
790.554531	-44.705335
790.763056	-44.656240
790.971691	-44.611249
791.180436	-44.569599
791.389291	-44.530418
791.598256	-44.492700
791.807332	-44.455420
792.016518	-44.417831
792.225815	-44.379431
792.435222	-44.340210
792.644740	-44.300234
792.854369	-44.259306
793.064109	-44.217066
793.273960	-44.173406
793.483922	-44.128710
793.693995	-44.083879
793.904180	-44.039671
794.114475	-43.996514
794.324882	-43.954519
794.535401	-43.913768
794.746031	-43.874335
794.956774	-43.836273
795.167627	-43.799444
795.378593	-43.763339
795.589671	-43.727061
795.800861	-43.689565
796.012162	-43.649638
796.223577	-43.606410
796.435103	-43.558873
796.646742	-43.506222
796.858493	-43.447719
797.070357	-43.382801
797.282334	-43.311012
797.494423	-43.232247
797.706626	-43.146997
797.918941	-43.056189
798.131369	-42.961031
798.343911	-42.862902
798.556566	-42.763477
798.769334	-42.664650
798.982215	-42.568304
799.195210	-42.476269
799.408319	-42.390345
799.621541	-42.312161
799.834877	-42.242950
800.048327	-42.183587
800.261890	-42.134639
800.475568	-42.096347
800.689360	-42.068490
800.903266	-42.050207
801.117287	-42.040209
801.331422	-42.036637
801.545671	-42.037312
801.760036	-42.039700
801.974514	-42.040934
802.189108	-42.037760
802.403816	-42.026762
802.618640	-42.004666
802.833578	-41.968687
803.048632	-41.916803
803.263800	-41.847876
803.479085	-41.761771
803.694484	-41.659480
803.909999	-41.542935
804.125630	-41.414907
804.341376	-41.278705
804.557239	-41.138031
804.773217	-40.996574
804.989311	-40.858041
805.205521	-40.726130
805.421847	-40.604315
805.638290	-40.495507
805.854849	-40.401762
806.071524	-40.324454
806.288316	-40.264136
806.505225	-40.220707
806.722250	-40.193408
806.939393	-40.181022
807.156652	-40.181679
807.374028	-40.192656
807.591521	-40.210274
807.809132	-40.230325
808.026859	-40.248187
808.244705	-40.259125
808.462667	-40.258467
808.680748	-40.241967
808.898946	-40.206399
809.117261	-40.149834
809.335695	-40.072070
809.554246	-39.974555
809.772916	-39.860006
809.991704	-39.731970
810.210610	-39.594632
810.429634	-39.452813
810.648777	-39.311827
810.868039	-39.176811
811.087419	-39.052287
811.306918	-38.942024
811.526535	-38.848924
811.746272	-38.774847
811.966127	-38.720879
812.186102	-38.687249
812.406196	-38.673310
812.626409	-38.677330
812.846742	-38.696599
813.067194	-38.727716
813.287766	-38.766630
813.508457	-38.808499
813.729269	-38.847659
813.950200	-38.878094
814.171251	-38.894171
814.392422	-38.891096
814.613714	-38.865509
814.835126	-38.815845
815.056658	-38.742430
815.278311	-38.647254
815.500084	-38.533754
815.721978	-38.406864
815.943993	-38.272737
816.166128	-38.137636
816.388385	-38.006979
816.610762	-37.885269
816.833261	-37.776490
817.055881	-37.684146
817.278623	-37.610816
817.501486	-37.558013
817.724471	-37.526098
817.947577	-37.514069
818.170805	-37.519590
818.394155	-37.539467
818.617627	-37.570170
818.841221	-37.607562
819.064937	-37.646508
819.288775	-37.681401
819.512736	-37.707056
819.736819	-37.719038
819.961025	-37.713869
820.185354	-37.689408
820.409805	-37.645259
820.634379	-37.582660
820.859076	-37.504070
821.083897	-37.413316
821.308840	-37.315485
821.533907	-37.216077
821.759097	-37.120147
821.984411	-37.031978
822.209848	-36.955220
822.435409	-36.892638
822.661093	-36.845776
822.886902	-36.815074
823.112834	-36.800167
823.338891	-36.799762
823.565072	-36.811429
823.791377	-36.831970
824.017807	-36.857754
824.244361	-36.884740
824.471039	-36.908336
824.697843	-36.924159
824.924771	-36.928820
825.151824	-36.920146
825.379002	-36.896892
825.606306	-36.859092
825.833734	-36.808189
826.061288	-36.746582
826.288967	-36.677155
826.516772	-36.603318
826.744703	-36.529047
826.972759	-36.458053
827.200941	-36.393255
827.429249	-36.336912
827.657683	-36.290415
827.886243	-36.254145
828.114930	-36.227570
828.343743	-36.209673
828.572682	-36.198936
828.801748	-36.193205
829.030941	-36.190022
829.260260	-36.186965
829.489706	-36.181709
829.719280	-36.172289
829.948980	-36.157512
830.178808	-36.136874
830.408763	-36.110251
830.638845	-36.078122
830.869055	-36.041890
831.099393	-36.003444
831.329858	-35.964427
831.560451	-35.926129
831.791173	-35.889502
832.022022	-35.855209
832.252999	-35.823510
832.484105	-35.794328
832.715339	-35.767053
832.946702	-35.740331
833.178193	-35.712464
833.409813	-35.682141
833.641561	-35.648512
833.873439	-35.610750
834.105445	-35.568193
834.337581	-35.520919
834.569846	-35.470214
834.802241	-35.418205
835.034764	-35.367203
835.267418	-35.319165
835.500201	-35.275465
835.733114	-35.237276
835.966157	-35.205816
836.199329	-35.181949
836.432632	-35.165432
836.666065	-35.154523
836.899629	-35.146599
837.133323	-35.138776
837.367147	-35.128109
837.601102	-35.111587
837.835188	-35.086372
838.069405	-35.050378
838.303752	-35.002914
838.538231	-34.944792
838.772841	-34.877890
839.007582	-34.804789
839.242455	-34.728893
839.477459	-34.654581
839.712595	-34.586554
839.947863	-34.528796
840.183263	-34.483812
840.418794	-34.452715
840.654458	-34.435620
840.890254	-34.431756
841.126182	-34.438927
841.362242	-34.453131
841.598435	-34.468949
841.834761	-34.480550
842.071220	-34.482492
842.307811	-34.469998
842.544536	-34.439511
842.781393	-34.389290
843.018384	-34.320160
843.255508	-34.235595
843.492765	-34.140856
843.730156	-34.042130
843.967681	-33.945951
844.205339	-33.858856
844.443132	-33.786597
844.681058	-33.733252
844.919118	-33.700601
845.157313	-33.688393
845.395642	-33.694663
845.634105	-33.715838
845.872703	-33.746593
846.111436	-33.779755
846.350303	-33.807077
846.589306	-33.820601
846.828443	-33.813913
847.067716	-33.783244
847.307124	-33.727879
847.546667	-33.650266
847.786345	-33.555819
848.026160	-33.452018
848.266110	-33.347189
848.506195	-33.249526
848.746417	-33.166423
848.986775	-33.103795
849.227269	-33.065225
849.467899	-33.051517
849.708666	-33.060706
849.949569	-33.088448
850.190609	-33.128394
850.431785	-33.172605
850.673099	-33.212131
850.914549	-33.237828
851.156137	-33.241944
851.397861	-33.219656
851.639723	-33.169814
851.881723	-33.095352
852.123860	-33.002836
852.366135	-32.901041
852.608547	-32.799337
852.851098	-32.706494
853.093786	-32.630071
853.336613	-32.575818
853.579578	-32.546970
853.822681	-32.543631
854.065923	-32.562643
854.309304	-32.598042
854.552823	-32.642147
854.796481	-32.686346
855.040278	-32.721530
855.284215	-32.739213
855.528290	-32.733175
855.772505	-32.700744
856.016859	-32.643402
856.261353	-32.566408
856.505987	-32.477703
856.750760	-32.386448
856.995673	-32.301562
857.240727	-32.230675
857.485920	-32.179446
857.731254	-32.150886
857.976729	-32.145095
858.222343	-32.159391
858.468099	-32.188824
858.713995	-32.226473
858.960032	-32.264020
859.206211	-32.293013
859.452530	-32.306420
859.698991	-32.299796
859.945593	-32.271893
860.192336	-32.224817
860.439222	-32.163478
860.686248	-32.094656
860.933417	-32.025821
861.180728	-31.964001
861.428181	-31.914795
861.675776	-31.881886
861.923514	-31.866632
862.171394	-31.867962
862.419417	-31.882537
862.667582	-31.905167
862.915890	-31.929764
863.164342	-31.950409
863.412936	-31.962235
863.661674	-31.961956
863.910555	-31.948184
864.159579	-31.921666
864.408747	-31.885405
864.658059	-31.844070
864.907515	-31.802723
865.157114	-31.765639
865.406858	-31.735856
865.656746	-31.715183
865.906778	-31.704012
866.156955	-31.701197
866.407277	-31.704329
866.657743	-31.710312
866.908354	-31.715939
867.159110	-31.718665
867.410011	-31.716988
867.661057	-31.710329
867.912249	-31.699036
868.163586	-31.684496
868.415069	-31.668667
868.666697	-31.653205
868.918472	-31.639313
869.170392	-31.627809
869.422458	-31.618721
869.674671	-31.610745
869.927030	-31.601943
870.179536	-31.590939
870.432188	-31.577370
870.684987	-31.561434
870.937933	-31.544030
871.191026	-31.526865
871.444266	-31.511993
871.697653	-31.501380
871.951188	-31.496774
872.204870	-31.498930
872.458700	-31.506775
872.712677	-31.517565
872.966803	-31.527782
873.221076	-31.533712
873.475498	-31.531745
873.730068	-31.519087
873.984787	-31.494833
874.239654	-31.460560
874.494669	-31.420164
874.749834	-31.379107
875.005147	-31.343165
875.260610	-31.317418
875.516222	-31.305716
875.771983	-31.310047
876.027894	-31.329453
876.283954	-31.359410
876.540164	-31.392619
876.796524	-31.420927
877.053033	-31.437007
877.309693	-31.435149
877.566503	-31.412255
877.823464	-31.369272
878.080575	-31.311823
878.337837	-31.248958
878.595249	-31.190836
878.852813	-31.146749
879.110528	-31.123701
879.368393	-31.125112
879.626410	-31.150082
879.884579	-31.193361
880.142899	-31.245863
880.401371	-31.295528
880.659994	-31.329674
880.918770	-31.338492
881.177698	-31.317304
881.436778	-31.267032
881.696010	-31.194576
881.955395	-31.112407
882.214933	-31.035684
882.474623	-30.977727
882.734467	-30.947545
882.994463	-30.949416
883.254613	-30.982331
883.514916	-31.039194
883.775372	-31.107598
884.035982	-31.172035
884.296746	-31.216053
884.557664	-31.225849
884.818735	-31.195135
885.079961	-31.128017
885.341341	-31.036842
885.602876	-30.938034
885.864565	-30.848815
886.126409	-30.784650
886.388407	-30.756241
886.650561	-30.767563
886.912870	-30.814971
887.175334	-30.887212
887.437953	-30.966851
887.700728	-31.033918
887.963658	-31.070337
888.226745	-31.063929
888.489987	-31.011708
888.753385	-30.922090
889.016940	-30.812892
889.280651	-30.705576
889.544518	-30.619798
889.808543	-30.570124
890.072723	-30.563815
890.337061	-30.599601
890.601556	-30.667832
890.866208	-30.751938
891.131017	-30.830327
891.395984	-30.880267
891.661109	-30.884872
891.926391	-30.839247
892.191831	-30.751381
892.457429	-30.638559
892.723186	-30.522721
892.989100	-30.425995
893.255173	-30.365882
893.521405	-30.351625
893.787796	-30.382658
894.054345	-30.448732
894.321053	-30.531495
894.587921	-30.608138
894.854948	-30.656453
895.122134	-30.659927
895.389480	-30.612465
895.656986	-30.521476
895.924651	-30.406278
896.192477	-30.291292
896.460463	-30.198581
896.728609	-30.143401
896.996915	-30.132503
897.265382	-30.163368
897.534010	-30.224454
897.802799	-30.296478
898.071749	-30.356027
898.340860	-30.381705
898.610132	-30.361193
898.879566	-30.294964
899.149162	-30.195194
899.418919	-30.081871
899.688838	-29.977613
899.958919	-29.901713
900.229162	-29.865274
900.499568	-29.869515
900.770136	-29.906630
901.040867	-29.961530
901.311761	-30.014384
901.582817	-30.044904
901.854037	-30.038266
902.125420	-29.990181
902.396966	-29.908512
902.668676	-29.810204
902.940550	-29.715294
903.212587	-29.641286
903.484788	-29.599504
903.757153	-29.593213
904.029683	-29.617125
904.302377	-29.658557
904.575236	-29.700212
904.848259	-29.724561
905.121447	-29.719166
905.394800	-29.680797
905.668319	-29.616128
905.942002	-29.538845
906.215852	-29.465147
906.489866	-29.409149
906.764047	-29.379613
907.038393	-29.378163
907.312906	-29.399143
907.587584	-29.431034
907.862429	-29.459460
908.137441	-29.471581
908.412619	-29.459990
908.687964	-29.424827
908.963476	-29.373391
909.239155	-29.317373
909.515002	-29.268940
909.791015	-29.237030
910.067197	-29.225318
910.343546	-29.231593
910.620063	-29.248334
910.896748	-29.265057
911.173601	-29.271855
911.450623	-29.262831
911.727813	-29.237670
912.005171	-29.201132
912.282699	-29.161259
912.560395	-29.126930
912.838261	-29.104942
913.116296	-29.097129
913.394500	-29.099699
913.672874	-29.105635
913.951418	-29.107497
914.230131	-29.099272
914.509015	-29.078155
914.788068	-29.046501
915.067292	-29.011179
915.346687	-28.980222
915.626252	-28.959723
915.905988	-28.951999
916.185895	-28.954432
916.465973	-28.959876
916.746223	-28.959569
917.026644	-28.946442
917.307236	-28.917306
917.588000	-28.874485
917.868937	-28.826095
918.150045	-28.783249
918.431325	-28.755284
918.712778	-28.746444
918.994404	-28.754749
919.276202	-28.772245
919.558173	-28.786563
919.840317	-28.784825
920.122634	-28.758745
920.405125	-28.708470
920.687789	-28.642969
920.970627	-28.577007
921.253639	-28.526098
921.536824	-28.501375
921.820184	-28.505814
922.103718	-28.532836
922.387427	-28.567548
922.671310	-28.590823
922.955368	-28.586131
923.239601	-28.546231
923.524009	-28.476396
923.808592	-28.392647
924.093351	-28.316295
924.378285	-28.266554
924.663396	-28.254131
924.948682	-28.277931
925.234144	-28.325103
925.519782	-28.373761
925.805597	-28.399300
926.091589	-28.384062
926.377757	-28.325250
926.664102	-28.236038
926.950624	-28.140162
927.237323	-28.063659
927.524200	-28.026282
927.811255	-28.034874
928.098487	-28.081014
928.385897	-28.143473
928.673485	-28.194045
928.961251	-28.206565
929.249196	-28.167796
929.537319	-28.084200
929.825621	-27.979259
930.114102	-27.883303
930.402762	-27.822580
930.691601	-27.811230
930.980620	-27.847058
931.269818	-27.911649
931.559196	-27.975533
931.848753	-28.007762
932.138491	-27.987975
932.428409	-27.915846
932.718508	-27.811734
933.008787	-27.707491
933.299246	-27.633490
933.589887	-27.608593
933.880709	-27.634907
934.171712	-27.696910
934.462896	-27.765501
934.754262	-27.807780
935.045810	-27.800051
935.337539	-27.738455
935.629451	-27.640707
935.921545	-27.538086
936.213822	-27.462156
936.506281	-27.433331
936.798922	-27.454985
937.091747	-27.512761
937.384755	-27.578628
937.677946	-27.620282
937.971321	-27.614409
938.264879	-27.557403
938.558621	-27.466821
938.852547	-27.372869
939.146657	-27.305449
939.440952	-27.283130
939.735431	-27.307386
940.030095	-27.362545
940.324943	-27.421052
940.619977	-27.453383
940.915196	-27.440522
941.210600	-27.382814
941.506189	-27.299578
941.801965	-27.219550
942.097926	-27.168520
942.394074	-27.160025
942.690407	-27.191087
942.986927	-27.243419
943.283634	-27.290234
943.580527	-27.307096
943.877608	-27.282768
944.174875	-27.223980
944.472330	-27.151669
944.769972	-27.091169
945.067802	-27.061464
945.365820	-27.068057
945.664026	-27.101493
945.962420	-27.141612
946.261002	-27.165960
946.559773	-27.159391
946.858733	-27.120788
947.157881	-27.063113
947.457219	-27.006722
947.756746	-26.969931
948.056462	-26.961319
948.356368	-26.976956
948.656464	-27.002822
948.956749	-27.020960
949.257225	-27.017561
949.557891	-26.989233
949.858748	-26.944239
950.159796	-26.897603
950.461034	-26.863453
950.762463	-26.848985
951.064084	-26.852060
951.365896	-26.862657
951.667900	-26.867840
951.970095	-26.858316
952.272483	-26.832836
952.575063	-26.797915
952.877835	-26.763891
953.180799	-26.739389
953.483956	-26.727307
953.787307	-26.723546
954.090850	-26.719612
954.394586	-26.707564
954.698516	-26.684518
955.002640	-26.654050
955.306957	-26.624143
955.611469	-26.602472
955.916174	-26.591821
956.221074	-26.588288
956.526169	-26.583182
956.831458	-26.567837
957.136942	-26.538804
957.442622	-26.500255
957.748496	-26.462091
958.054567	-26.434858
958.360833	-26.424022
958.667294	-26.426460
958.973952	-26.431214
959.280806	-26.424712
959.587857	-26.398248
959.895104	-26.353403
960.202548	-26.301759
960.510189	-26.259260
960.818027	-26.238277
961.126062	-26.240766
961.434295	-26.256403
961.742726	-26.267131
962.051355	-26.255952
962.360182	-26.216158
962.669207	-26.155816
962.978431	-26.094487
963.287854	-26.053133
963.597475	-26.043204
963.907296	-26.060892
964.217315	-26.088373
964.527535	-26.101491
964.837954	-26.081998
965.148573	-26.028598
965.459392	-25.958362
965.770411	-25.897170
966.081630	-25.866527
966.393051	-25.873162
966.704672	-25.905232
967.016494	-25.936959
967.328517	-25.941489
967.640742	-25.905979
967.953169	-25.839423
968.265797	-25.767755
968.578627	-25.719726
968.891660	-25.711926
969.204895	-25.740559
969.518332	-25.782848
969.831972	-25.807706
970.145816	-25.792331
970.459862	-25.735892
970.774112	-25.660647
971.088565	-25.599046
971.403223	-25.575913
971.718084	-25.595852
972.033149	-25.641061
972.348419	-25.679706
972.663893	-25.682330
972.979572	-25.639322
973.295456	-25.567322
973.611546	-25.498942
973.927840	-25.463944
974.244340	-25.473753
974.561046	-25.515849
974.877958	-25.559518
975.195076	-25.572025
975.512401	-25.538048
975.829932	-25.469484
976.147670	-25.397998
976.465615	-25.355932
976.783767	-25.358596
977.102126	-25.396697
977.420693	-25.440878
977.739468	-25.456911
978.058451	-25.426383
978.377642	-25.358669
978.697041	-25.284677
979.016649	-25.237653
979.336466	-25.234669
979.656492	-25.267916
979.976727	-25.308434
980.297171	-25.322154
980.617825	-25.290574
980.938689	-25.222657
981.259763	-25.148742
981.581048	-25.101295
981.902542	-25.096294
982.224248	-25.124936
982.546164	-25.158216
982.868291	-25.163820
983.190630	-25.126117
983.513180	-25.056362
983.835942	-24.985174
984.158916	-24.942448
984.482101	-24.940194
984.805500	-24.966125
985.129110	-24.990574
985.452934	-24.984560
985.776970	-24.938065
986.101220	-24.866826
986.425683	-24.801491
986.750359	-24.767491
987.075250	-24.770706
987.400354	-24.794290
987.725673	-24.808547
988.051206	-24.789616
988.376954	-24.735066
988.702916	-24.665403
989.029094	-24.609762
989.355487	-24.587173
989.682095	-24.595886
990.008919	-24.614777
990.335959	-24.616320
990.663216	-24.584460
990.990688	-24.525501
991.318377	-24.463097
991.646283	-24.421831
991.974406	-24.412201
992.302746	-24.424222
992.631304	-24.434225
992.960079	-24.420325
993.289072	-24.376913
993.618283	-24.318372
993.947713	-24.268461
994.277361	-24.244272
994.607227	-24.245788
994.937313	-24.256410
995.267618	-24.254095
995.598142	-24.225930
995.928886	-24.177011
996.259849	-24.126196
996.591033	-24.092444
996.922437	-24.082489
997.254061	-24.087118
997.585906	-24.088015
997.917972	-24.070455
998.250260	-24.033162
998.582768	-23.988926
998.915498	-23.954277
999.248450	-23.937712
999.581624	-23.935030
999.915020	-23.932660
1000.248639	-23.917529
1000.582480	-23.886709
1000.916545	-23.848865
1001.250832	-23.817194
1001.585343	-23.799752
1001.920077	-23.793693
1002.255035	-23.788111
1002.590218	-23.772753
1002.925624	-23.745231
1003.261255	-23.712103
1003.597111	-23.684031
1003.933192	-23.667036
1004.269497	-23.657946
1004.606029	-23.647805
1004.942785	-23.629376
1005.279768	-23.602539
1005.616977	-23.574195
1005.954412	-23.552395
1006.292074	-23.539351
1006.629962	-23.529590
1006.968077	-23.514368
1007.306420	-23.489295
1007.644990	-23.458554
1007.983787	-23.431479
1008.322813	-23.414908
1008.662067	-23.407243
1009.001549	-23.399114
1009.341259	-23.380524
1009.681199	-23.349298
1010.021367	-23.313960
1010.361765	-23.286989
1010.702392	-23.274480
1011.043250	-23.271014
1011.384337	-23.263003
1011.725654	-23.239238
1012.067202	-23.200706
1012.408980	-23.160723
1012.750989	-23.134708
1013.093230	-23.127749
1013.435702	-23.129440
1013.778405	-23.121175
1014.121341	-23.090910
1014.464508	-23.043364
1014.807908	-22.997600
1015.151540	-22.972152
1015.495405	-22.970236
1015.839503	-22.976393
1016.183835	-22.967284
1016.528400	-22.930451
1016.873198	-22.875309
1017.218231	-22.825950
1017.563498	-22.802482
1017.908999	-22.805046
1018.254735	-22.812854
1018.600707	-22.799789
1018.946913	-22.755398
1019.293354	-22.694573
1019.640032	-22.645462
1019.986945	-22.626966
1020.334094	-22.634328
1020.681480	-22.641618
1021.029102	-22.622149
1021.376961	-22.570338
1021.725058	-22.506918
1022.073391	-22.462035
1022.421962	-22.450828
1022.770772	-22.461840
1023.119819	-22.465728
1023.469104	-22.438300
1023.818628	-22.381307
1024.168391	-22.320767
1024.518393	-22.284891
1024.868634	-22.282021
1025.219115	-22.293840
1025.569836	-22.290313
1025.920796	-22.254405
1026.271997	-22.196419
1026.623438	-22.144879
1026.975121	-22.122004
1027.327044	-22.126369
1027.679208	-22.134404
1028.031614	-22.120226
1028.384262	-22.077577
1028.737152	-22.024566
1029.090284	-21.987360
1029.443659	-21.977982
1029.797276	-21.985218
1030.151137	-21.984718
1030.505240	-21.959668
1030.859587	-21.915276
1031.214178	-21.873184
1031.569013	-21.852111
1031.924093	-21.852515
1032.279417	-21.856890
1032.634985	-21.845498
1032.990799	-21.813411
1033.346858	-21.774087
1033.703162	-21.746561
1034.059712	-21.738443
1034.416509	-21.740727
1034.773551	-21.736422
1035.130841	-21.715885
1035.488377	-21.684767
1035.846160	-21.657206
1036.204190	-21.642854
1036.562468	-21.638885
1036.920994	-21.633955
1037.279768	-21.619038
1037.638790	-21.595143
1037.998061	-21.571597
1038.357581	-21.555999
1038.717350	-21.547774
1039.077368	-21.539421
1039.437636	-21.524159
1039.798154	-21.502515
1040.158922	-21.480783
1040.519940	-21.464517
1040.881209	-21.453366
1041.242729	-21.441936
1041.604501	-21.425884
1041.966524	-21.405652
1042.328798	-21.384977
1042.691325	-21.366880
1043.054103	-21.350478
1043.417135	-21.333119
1043.780419	-21.314042
1044.143956	-21.295017
1044.507746	-21.277876
1044.871791	-21.261043
1045.236088	-21.240777
1045.600641	-21.215932
1045.965447	-21.189890
1046.330508	-21.168455
1046.695824	-21.153151
1047.061395	-21.138671
1047.427222	-21.117600
1047.793304	-21.087626
1048.159642	-21.055723
1048.526237	-21.030882
1048.893088	-21.015290
1049.260196	-21.001225
1049.627561	-20.977748
1049.995183	-20.943040
1050.363063	-20.906547
1050.731201	-20.880656
1051.099597	-20.867440
1051.468251	-20.854990
1051.837164	-20.829171
1052.206336	-20.788049
1052.575767	-20.745801
1052.945458	-20.719104
1053.315409	-20.709698
1053.685619	-20.701846
1054.056090	-20.676711
1054.426821	-20.632295
1054.797814	-20.586363
1055.169067	-20.558788
1055.540582	-20.551733
1055.912359	-20.546687
1056.284398	-20.522857
1056.656698	-20.478801
1057.029262	-20.434314
1057.402088	-20.409900
1057.775177	-20.405497
1058.148530	-20.400291
1058.522146	-20.374175
1058.896027	-20.329716
1059.270171	-20.289565
1059.644580	-20.272556
1060.019254	-20.273036
1060.394193	-20.266316
1060.769397	-20.235011
1061.144867	-20.188285
1061.520602	-20.152890
1061.896604	-20.143991
1062.272872	-20.148907
1062.649407	-20.139676
1063.026210	-20.102926
1063.403279	-20.055259
1063.780616	-20.025250
1064.158221	-20.022858
1064.536094	-20.028744
1064.914235	-20.014392
1065.292645	-19.973305
1065.671325	-19.928323
1066.050273	-19.906129
1066.429491	-19.908690
1066.808979	-19.910813
1067.188738	-19.887913
1067.568766	-19.843520
1067.949066	-19.805021
1068.329636	-19.793224
1068.710478	-19.798920
1069.091592	-19.793355
1069.472977	-19.759775
1069.854635	-19.713135
1070.236565	-19.683060
1070.618768	-19.680882
1071.001243	-19.687030
1071.383993	-19.671836
1071.767016	-19.628932
1072.150313	-19.582383
1072.533884	-19.560019
1072.917730	-19.562697
1073.301850	-19.563849
1073.686246	-19.538413
1074.070917	-19.491166
1074.455864	-19.450248
1074.841087	-19.435248
1075.226586	-19.435862
1075.612362	-19.424667
1075.998415	-19.388495
1076.384745	-19.343312
1076.771353	-19.314537
1077.158238	-19.307436
1077.545401	-19.301434
1077.932843	-19.274248
1078.320564	-19.228854
1078.708564	-19.190204
1079.096842	-19.175818
1079.485401	-19.174958
1079.874240	-19.160659
1080.263358	-19.120791
1080.652757	-19.073275
1081.042438	-19.044850
1081.432399	-19.040846
1081.822641	-19.038897
1082.213166	-19.014957
1082.603972	-18.971067
1082.995061	-18.932245
1083.386433	-18.916784
1083.778087	-18.915393
1084.170025	-18.903195
1084.562246	-18.869270
1084.954751	-18.829581
1085.347541	-18.806760
1085.740615	-18.802708
1086.133973	-18.796658
1086.527617	-18.769988
1086.921546	-18.729427
1087.315761	-18.698702
1087.710262	-18.690394
1088.105050	-18.690523
1088.500124	-18.674644
1088.895485	-18.636720
1089.291134	-18.596293
1089.687070	-18.575801
1090.083294	-18.574252
1090.479806	-18.568861
1090.876607	-18.541318
1091.273696	-18.499225
1091.671075	-18.466505
1092.068744	-18.454894
1092.466702	-18.451098
1092.864950	-18.432895
1093.263489	-18.396117
1093.662319	-18.358669
1094.061440	-18.338185
1094.460852	-18.330842
1094.860555	-18.317157
1095.260551	-18.286310
1095.660840	-18.248967
1096.061421	-18.223202
1096.462295	-18.212138
1096.863462	-18.201299
1097.264923	-18.177060
1097.666678	-18.142956
1098.068727	-18.114038
1098.471071	-18.098553
1098.873710	-18.089183
1099.276644	-18.072772
1099.679874	-18.045258
1100.083400	-18.015489
1100.487222	-17.994840
1100.891340	-17.985005
1101.295756	-17.975956
1101.700468	-17.956551
1102.105478	-17.927402
1102.510787	-17.901609
1102.916393	-17.889859
1103.322298	-17.886495
1103.728502	-17.874352
1104.135005	-17.846307
1104.541807	-17.815946
1104.948909	-17.801161
1105.356312	-17.800046
1105.764015	-17.792287
1106.172019	-17.765600
1106.580324	-17.732923
1106.988931	-17.714841
1107.397840	-17.712007
1107.807051	-17.704451
1108.216564	-17.678669
1108.626380	-17.645407
1109.036500	-17.624265
1109.446923	-17.617776
1109.857649	-17.608825
1110.268680	-17.583618
1110.680016	-17.549163
1111.091657	-17.523723
1111.503602	-17.513618
1111.915854	-17.505138
1112.328411	-17.481411
1112.741275	-17.444335
1113.154445	-17.413660
1113.567922	-17.401602
1113.981706	-17.395350
1114.395798	-17.372587
1114.810198	-17.332696
1115.224906	-17.299673
1115.639923	-17.288652
1116.055249	-17.283508
1116.470884	-17.259096
1116.886829	-17.218655
1117.303084	-17.189020
1117.719650	-17.180573
1118.136526	-17.172572
1118.553713	-17.145462
1118.971212	-17.109985
1119.389022	-17.088017
1119.807145	-17.079178
1120.225580	-17.064536
1120.644328	-17.038129
1121.063389	-17.013033
1121.482763	-16.997298
1121.902452	-16.982784
1122.322454	-16.962750
1122.742771	-16.942907
1123.163404	-16.927850
1123.584351	-16.911355
1124.005614	-16.889656
1124.427193	-16.870761
1124.849089	-16.859776
1125.271301	-16.847079
1125.693830	-16.824323
1126.116677	-16.800748
1126.539842	-16.788385
1126.963324	-16.780204
1127.387126	-16.761297
1127.811246	-16.734868
1128.235685	-16.716803
1128.660444	-16.707784
1129.085522	-16.692526
1129.510922	-16.666996
1129.936641	-16.644960
1130.362682	-16.632358
1130.789044	-16.617163
1131.215728	-16.592247
1131.642734	-16.568349
1132.070063	-16.553349
1132.497714	-16.537137
1132.925689	-16.511206
1133.353987	-16.485352
1133.782610	-16.469375
1134.211556	-16.453547
1134.640827	-16.426255
1135.070424	-16.397000
1135.500345	-16.380028
1135.930593	-16.367237
1136.361166	-16.341312
1136.792067	-16.307886
1137.223294	-16.287079
1137.654848	-16.277518
1138.086730	-16.257500
1138.518940	-16.223430
1138.951479	-16.196876
1139.384346	-16.186768
1139.817543	-16.173640
1140.251069	-16.144211
1140.684925	-16.114561
1141.119111	-16.100997
1141.553628	-16.091575
1141.988475	-16.068479
1142.423655	-16.039822
1142.859166	-16.023793
1143.295009	-16.015624
1143.731185	-15.997219
1144.167694	-15.970626
1144.604536	-15.953624
1145.041711	-15.946768
1145.479221	-15.932479
1145.917065	-15.907491
1146.355245	-15.888671
1146.793759	-15.882141
1147.232609	-15.872304
1147.671795	-15.850334
1148.111317	-15.829584
1148.551177	-15.820929
1148.991373	-15.813482
1149.431907	-15.795412
1149.872779	-15.774952
1150.313989	-15.764063
1150.755538	-15.756317
1151.197426	-15.740045
1151.639653	-15.720692
1152.082220	-15.709589
1152.525128	-15.701765
1152.968376	-15.685399
1153.411966	-15.665126
1153.855897	-15.653893
1154.300169	-15.647774
1154.744784	-15.632207
1155.189742	-15.609645
1155.635042	-15.596165
1156.080687	-15.591450
1156.526674	-15.578273
1156.973007	-15.554261
1157.419683	-15.537126
1157.866705	-15.532185
1158.314072	-15.521578
1158.761786	-15.497020
1159.209845	-15.475866
1159.658251	-15.469372
1160.107004	-15.461330
1160.556104	-15.437112
1161.005553	-15.411237
1161.455349	-15.401379
1161.905494	-15.395752
1162.355989	-15.373822
1162.806832	-15.343930
1163.258026	-15.328482
1163.709570	-15.323441
1164.161464	-15.305547
1164.613710	-15.274480
1165.066307	-15.253196
1165.519256	-15.246172
1165.972558	-15.231970
1166.426212	-15.202654
1166.880219	-15.177646
1167.334580	-15.167740
1167.789295	-15.155950
1168.244364	-15.129485
1168.699788	-15.103152
1169.155567	-15.091139
1169.611702	-15.081212
1170.068193	-15.057891
1170.525041	-15.031409
1170.982245	-15.018107
1171.439807	-15.010024
1171.897726	-14.990162
1172.356004	-14.964260
1172.814640	-14.949714
1173.273635	-14.942976
1173.732989	-14.926623
1174.192703	-14.902017
1174.652778	-14.886342
1175.113213	-14.880070
1175.574009	-14.866452
1176.035167	-14.843490
1176.496687	-14.827125
1176.958569	-14.820760
1177.420814	-14.809069
1177.883422	-14.787479
1178.346394	-14.770762
1178.809730	-14.764417
1179.273430	-14.754295
1179.737496	-14.733902
1180.201927	-14.716947
1180.666723	-14.710757
1181.131886	-14.702305
1181.597416	-14.683341
1182.063312	-14.666327
1182.529576	-14.660232
1182.996209	-14.653370
1183.463209	-14.636160
1183.930579	-14.619408
1184.398317	-14.613200
1184.866426	-14.607468
1185.334904	-14.591727
1185.803754	-14.575380
1186.272974	-14.568950
1186.742566	-14.563608
1187.212529	-14.548714
1187.682865	-14.532529
1188.153574	-14.525603
1188.624656	-14.520061
1189.096112	-14.505337
1189.567942	-14.488942
1190.040147	-14.481297
1190.512726	-14.475251
1190.985681	-14.460391
1191.459012	-14.443713
1191.932720	-14.435383
1192.406804	-14.428705
1192.881265	-14.413804
1193.356104	-14.397129
1193.831322	-14.388299
1194.306918	-14.381050
1194.782893	-14.366171
1195.259248	-14.349789
1195.735982	-14.340739
1196.213097	-14.332847
1196.690593	-14.317787
1197.168471	-14.301618
1197.646730	-14.292217
1198.125371	-14.283395
1198.604395	-14.267676
1199.083803	-14.251321
1199.563594	-14.241188
1200.043769	-14.230965
1200.524329	-14.214195
1201.005273	-14.197286
1201.486604	-14.186162
1201.968320	-14.174268
1202.450422	-14.156353
1202.932912	-14.138980
1203.415789	-14.126861
1203.899054	-14.113480
1204.382707	-14.094818
1204.866748	-14.077445
1205.351179	-14.064773
1205.836000	-14.050320
1206.321211	-14.031420
1206.806812	-14.014569
1207.292805	-14.001712
1207.779189	-13.986434
1208.265965	-13.967516
1208.753134	-13.951245
1209.240696	-13.938124
1209.728651	-13.922005
1210.217000	-13.902994
1210.705744	-13.887009
1211.194883	-13.873267
1211.684417	-13.856174
1212.174347	-13.837100
1212.664673	-13.821242
1213.155396	-13.806772
1213.646516	-13.788920
1214.138034	-13.770191
1214.629951	-13.754831
1215.122266	-13.739932
1215.614980	-13.721958
1216.108095	-13.704286
1216.601609	-13.689840
1217.095524	-13.674944
1217.589841	-13.657438
1218.084559	-13.641161
1218.579679	-13.627589
1219.075202	-13.612706
1219.571128	-13.595712
1220.067458	-13.580547
1220.564191	-13.567251
1221.061330	-13.551930
1221.558874	-13.535144
1222.056823	-13.520550
1222.555178	-13.506868
1223.053940	-13.490856
1223.553109	-13.474303
1224.052686	-13.460059
1224.552671	-13.445901
1225.053065	-13.429562
1225.553867	-13.413701
1226.055079	-13.399968
1226.556702	-13.385558
1227.058735	-13.369495
1227.561179	-13.354699
1228.064035	-13.341409
1228.567303	-13.326696
1229.070983	-13.311024
1229.575077	-13.296999
1230.079585	-13.283424
1230.584506	-13.267992
1231.089842	-13.252385
1231.595594	-13.238374
1232.101761	-13.223829
1232.608345	-13.207543
1233.115345	-13.191933
1233.622762	-13.177603
1234.130597	-13.162111
1234.638851	-13.145588
1235.147523	-13.130476
1235.656615	-13.116046
1236.166126	-13.100207
1236.676058	-13.084323
1237.186411	-13.070024
1237.697185	-13.055475
1238.208381	-13.039681
1238.719999	-13.024656
1239.232040	-13.010625
1239.744505	-12.995553
1240.257394	-12.979846
1240.770708	-12.965305
1241.284446	-12.950864
1241.798610	-12.935167
1242.313201	-12.919880
1242.828218	-12.905757
1243.343662	-12.890922
1243.859534	-12.875520
1244.375834	-12.861440
1244.892563	-12.847931
1245.409721	-12.833439
1245.927309	-12.819361
1246.445327	-12.806673
1246.963777	-12.793618
1247.482657	-12.779873
1248.001970	-12.767134
1248.521716	-12.754919
1249.041894	-12.741820
1249.562506	-12.728713
1250.083553	-12.716491
1250.605034	-12.703959
1251.126950	-12.690908
1251.649302	-12.678505
1252.172091	-12.666447
1252.695316	-12.653977
1253.218979	-12.641792
1253.743079	-12.630220
1254.267619	-12.618586
1254.792597	-12.606867
1255.318015	-12.595628
1255.843874	-12.584546
1256.370173	-12.573228
1256.896913	-12.561923
1257.424095	-12.550794
1257.951720	-12.539606
1258.479787	-12.528182
1259.008298	-12.516697
1259.537254	-12.505477
1260.066654	-12.494365
1260.596499	-12.482984
1261.126790	-12.471844
1261.657527	-12.461465
1262.188711	-12.450963
1262.720342	-12.440242
1263.252422	-12.430444
1263.784950	-12.421074
1264.317928	-12.410956
1264.851355	-12.401256
1265.385232	-12.392546
1265.919560	-12.383086
1266.454340	-12.373215
1266.989572	-12.364706
1267.525256	-12.356038
1268.061394	-12.346368
1268.597985	-12.338029
1269.135031	-12.330499
1269.672531	-12.321701
1270.210487	-12.313690
1270.748899	-12.307323
1271.287768	-12.299740
1271.827094	-12.291867
1272.366877	-12.286008
1272.907119	-12.279437
1273.447820	-12.271349
1273.988981	-12.265091
1274.530601	-12.259099
1275.072683	-12.250869
1275.615226	-12.243842
1276.158230	-12.238259
1276.701697	-12.230499
1277.245627	-12.222955
1277.790021	-12.217701
1278.334879	-12.210883
1278.880202	-12.203096
1279.425991	-12.197732
1279.972245	-12.191601
1280.518966	-12.183503
1281.066155	-12.177422
1281.613811	-12.171428
1282.161936	-12.163048
1282.710529	-12.156112
1283.259593	-12.150248
1283.809126	-12.142117
1284.359131	-12.134812
1284.909607	-12.129443
1285.460555	-12.122233
1286.011976	-12.115016
1286.563870	-12.110120
1287.116237	-12.103853
1287.669080	-12.096658
1288.222397	-12.091617
1288.776191	-12.085833
1289.330460	-12.078544
1289.885207	-12.073009
1290.440431	-12.067538
1290.996133	-12.060460
1291.552314	-12.054734
1292.108975	-12.049716
1292.666115	-12.043195
1293.223737	-12.037504
1293.781839	-12.032731
1294.340424	-12.026533
1294.899491	-12.020479
1295.459041	-12.015278
1296.019075	-12.008840
1296.579593	-12.002034
1297.140597	-11.996103
1297.702086	-11.989430
1298.264061	-11.982218
1298.826524	-11.975918
1299.389474	-11.969456
1299.952912	-11.962404
1300.516839	-11.956015
1301.081255	-11.949789
1301.646162	-11.942921
1302.211559	-11.936228
1302.777448	-11.929902
1303.343829	-11.923029
1303.910702	-11.916027
1304.478069	-11.909649
1305.045930	-11.903132
1305.614285	-11.896343
1306.183136	-11.890317
1306.752483	-11.884554
1307.322326	-11.878195
1307.892666	-11.872428
1308.463504	-11.867064
1309.034841	-11.860689
1309.606677	-11.854614
1310.179012	-11.849125
1310.751849	-11.842415
1311.325186	-11.835953
1311.899025	-11.830451
1312.473366	-11.823687
1313.048211	-11.817166
1313.623559	-11.811942
1314.199412	-11.805218
1314.775770	-11.798628
1315.352634	-11.793449
1315.930004	-11.786551
1316.507881	-11.779688
1317.086266	-11.774469
1317.665159	-11.767560
1318.244562	-11.760783
1318.824474	-11.755979
1319.404897	-11.749511
1319.985831	-11.743296
1320.567276	-11.739008
1321.149234	-11.732965
1321.731706	-11.727086
1322.314691	-11.722924
1322.898190	-11.716919
1323.482205	-11.711132
1324.066736	-11.706986
1324.651783	-11.701059
1325.237347	-11.695535
1325.823430	-11.691580
1326.410031	-11.685788
1326.997151	-11.680489
1327.584791	-11.676507
1328.172952	-11.670582
1328.761634	-11.665246
1329.350839	-11.661108
1329.940566	-11.655092
1330.530817	-11.649979
1331.121592	-11.646049
1331.712891	-11.640364
1332.304716	-11.635808
1332.897068	-11.632222
1333.489946	-11.626863
1334.083352	-11.622722
1334.677287	-11.619241
1335.271750	-11.614085
1335.866744	-11.610322
1336.462268	-11.607015
1337.058323	-11.602229
1337.654910	-11.598988
1338.252029	-11.595802
1338.849682	-11.591269
1339.447869	-11.588187
1340.046591	-11.584742
1340.645848	-11.580158
1341.245641	-11.577089
1341.845972	-11.573462
1342.446840	-11.569150
1343.048246	-11.566485
1343.650191	-11.563042
1344.252677	-11.559260
1344.855702	-11.557002
1345.459269	-11.553627
1346.063379	-11.550206
1346.668030	-11.548240
1347.273226	-11.544977
1347.878965	-11.542207
1348.485250	-11.540806
1349.092080	-11.537890
1349.699456	-11.535854
1350.307380	-11.534655
1350.915851	-11.531589
1351.524871	-11.529738
1352.134441	-11.528097
1352.744560	-11.524706
1353.355231	-11.523182
1353.966453	-11.521286
1354.578227	-11.518197
1355.190555	-11.517286
1355.803436	-11.515095
1356.416872	-11.512388
1357.030863	-11.511639
1357.645411	-11.508902
1358.260515	-11.506847
1358.876177	-11.506249
1359.492397	-11.503629
1360.109176	-11.502794
1360.726516	-11.502205
1361.344416	-11.499810
1361.962877	-11.499476
1362.581901	-11.497930
1363.201487	-11.495479
1363.821637	-11.495042
1364.442352	-11.492701
1365.063632	-11.490961
1365.685478	-11.490489
1366.307891	-11.487945
1366.930871	-11.486857
1367.554420	-11.485648
1368.178538	-11.482896
1368.803226	-11.482042
1369.428485	-11.480218
1370.054315	-11.478238
1370.680717	-11.477900
1371.307693	-11.476152
1371.935242	-11.474982
1372.563366	-11.474238
1373.192065	-11.471978
1373.821341	-11.470608
1374.451193	-11.468906
1375.081623	-11.466556
1375.712632	-11.465256
1376.344221	-11.463393
1376.976389	-11.461299
1377.609139	-11.459816
1378.242470	-11.457334
1378.876384	-11.454943
1379.510881	-11.452989
1380.145963	-11.450286
1380.781629	-11.448412
1381.417881	-11.446711
1382.054720	-11.444269
1382.692147	-11.442650
1383.330161	-11.440128
1383.968765	-11.437101
1384.607959	-11.434819
1385.247743	-11.431306
1385.888119	-11.428480
1386.529087	-11.425902
1387.170648	-11.422195
1387.812804	-11.419566
1388.455554	-11.415957
1389.098899	-11.411992
1389.742842	-11.409071
1390.387381	-11.404911
1391.032519	-11.401794
1391.678256	-11.398798
1392.324592	-11.394693
1392.971529	-11.391731
1393.619068	-11.387347
1394.267208	-11.382902
1394.915952	-11.379095
1395.565300	-11.373868
1396.215253	-11.369885
1396.865812	-11.365201
1397.516977	-11.359877
1398.168749	-11.355458
1398.821130	-11.349522
1399.474120	-11.344520
1400.127719	-11.339613
1400.781930	-11.334110
1401.436752	-11.329838
1402.092186	-11.324278
1402.748234	-11.318778
1403.404897	-11.313233
1404.062174	-11.306514
1404.720067	-11.300798
1405.378577	-11.294481
1406.037705	-11.288138
1406.697451	-11.282250
1407.357817	-11.275110
1408.018803	-11.268406
1408.680410	-11.261445
1409.342639	-11.254220
1410.005492	-11.248226
1410.668968	-11.241629
1411.333068	-11.235473
1411.997795	-11.229266
1412.663147	-11.221919
1413.329127	-11.215419
1413.995736	-11.208210
1414.662973	-11.201509
1415.330840	-11.195530
1415.999339	-11.188536
1416.668469	-11.182434
1417.338232	-11.175218
1418.008628	-11.168103
1418.679659	-11.161709
1419.351325	-11.154659
1420.023628	-11.148951
1420.696568	-11.142339
1421.370145	-11.135574
1422.044362	-11.128897
1422.719219	-11.121272
1423.394717	-11.114991
1424.070856	-11.108522
1424.747638	-11.102634
1425.425064	-11.097330
1426.103134	-11.091058
1426.781850	-11.085853
1427.461212	-11.080249
1428.141221	-11.075446
1428.821878	-11.071663
1429.503185	-11.067042
1430.185141	-11.063398
1430.867749	-11.058248
1431.551008	-11.053423
1432.234920	-11.048856
1432.919486	-11.043807
1433.604707	-11.040165
1434.290583	-11.035040
1434.977116	-11.030496
1435.664307	-11.025233
1436.352156	-11.019822
1437.040664	-11.015642
1437.729833	-11.010781
1438.419663	-11.007102
1439.110156	-11.002502
1439.801312	-10.998016
1440.493132	-10.994150
1441.185617	-10.990424
1441.878768	-10.988546
1442.572586	-10.986718
1443.267072	-10.985675
1443.962228	-10.984853
1444.658053	-10.983988
1445.354549	-10.984380
1446.051717	-10.984708
1446.749558	-10.985746
1447.448073	-10.986312
1448.147263	-10.986096
1448.847128	-10.985974
1449.547671	-10.984968
1450.248891	-10.984498
1450.950789	-10.982987
1451.653368	-10.980541
1452.356627	-10.976967
1453.060568	-10.971549
1453.765192	-10.965970
1454.470500	-10.958648
1455.176492	-10.950952
1455.883170	-10.941531
1456.590534	-10.930918
1457.298586	-10.919857
1458.007327	-10.907696
1458.716758	-10.896052
1459.426880	-10.882944
1460.137693	-10.869810
1460.849199	-10.855680
1461.561398	-10.841518
1462.274293	-10.827888
1462.987883	-10.813929
1463.702170	-10.800920
1464.417155	-10.787362
1465.132838	-10.775272
1465.849222	-10.763750
1466.566306	-10.753575
1467.284093	-10.744068
1468.002582	-10.734496
1468.721775	-10.725614
1469.441674	-10.716587
1470.162278	-10.708480
1470.883590	-10.699775
1471.605609	-10.690375
1472.328338	-10.679648
1473.051777	-10.667424
1473.775928	-10.654322
1474.500790	-10.638935
1475.226367	-10.621329
1475.952657	-10.599832
1476.679663	-10.575203
1477.407386	-10.547286
1478.135826	-10.516249
1478.864985	-10.481759
1479.594863	-10.442812
1480.325463	-10.400327
1481.056784	-10.354445
1481.788828	-10.306889
1482.521597	-10.257481
1483.255090	-10.206955
1483.989309	-10.156161
1484.724256	-10.106853
1485.459931	-10.061520
1486.196336	-10.020951
1486.933471	-9.986562
1487.671337	-9.958252
1488.409937	-9.937902
1489.149270	-9.926048
1489.889337	-9.923443
1490.630141	-9.929241
1491.371682	-9.942443
1492.113961	-9.962626
1492.856979	-9.988488
1493.600738	-10.018983
1494.345238	-10.050723
1495.090481	-10.081689
1495.836467	-10.109070
1496.583198	-10.131907
1497.330675	-10.147964
1498.078899	-10.155445
1498.827872	-10.152630
1499.577593	-10.138920
1500.328065	-10.114817
1501.079289	-10.079955
1501.831265	-10.034464
1502.583995	-9.977694
1503.337480	-9.911099
1504.091721	-9.835331
1504.846719	-9.751375
1505.602475	-9.658334
1506.358991	-9.555925
1507.116268	-9.444257
1507.874306	-9.324101
1508.633108	-9.196059
1509.392673	-9.059955
1510.153004	-8.916816
1510.914101	-8.768071
1511.675965	-8.617063
1512.438599	-8.466051
1513.202002	-8.318492
1513.966176	-8.177183
1514.731122	-8.046970
1515.496842	-7.931845
1516.263336	-7.836519
1517.030607	-7.764696
1517.798654	-7.721136
1518.567479	-7.710375
1519.337083	-7.737050
1520.107468	-7.805367
1520.878634	-7.919605
1521.650584	-8.084901
1522.423317	-8.306253
1523.196836	-8.589569
1523.971141	-8.940616
1524.746233	-9.367427
1525.522115	-9.878134
1526.298786	-10.483237
1527.076249	-11.193918
1527.854504	-12.026243
1528.633553	-12.999021
1529.413397	-14.135973
1530.194037	-15.462274
1530.975474	-17.002912
1531.757709	-18.759455
1532.540745	-20.634900
1533.324581	-22.256088
1534.109220	-22.897747
1534.894662	-22.227928
1535.680909	-20.838319
1536.467961	-19.372478
1537.255821	-18.093448
1538.044489	-17.058021
1538.833967	-16.256659
1539.624256	-15.669596
1540.415357	-15.281328
1541.207271	-15.079400
1542.000000	-15.055968
1542.793545	-15.209257
1543.587907	-15.546962
1544.383087	-16.080242
1545.179088	-16.824196
1545.975909	-17.795526
1546.773552	-19.009292
1547.572019	-20.434122
1548.371311	-21.881256
1549.171428	-22.809575
1549.972373	-22.521519
1550.774147	-21.088798
1551.576751	-19.236336
1552.380185	-17.440673
1553.184453	-15.846490
1553.989554	-14.466252
1554.795490	-13.278727
1555.602263	-12.258796
1556.409873	-11.380848
1557.218322	-10.623758
1558.027612	-9.971451
1558.837743	-9.411547
1559.648717	-8.931650
1560.460536	-8.521510
1561.273200	-8.173788
1562.086710	-7.882801
1562.901069	-7.641648
1563.716278	-7.444181
1564.532337	-7.286243
1565.349249	-7.164624
1566.167014	-7.074760
1566.985634	-7.012614
1567.805111	-6.975817
1568.625444	-6.962552
1569.446637	-6.969628
1570.268690	-6.994541
1571.091605	-7.036033
1571.915382	-7.093116
1572.740024	-7.163520
1573.565532	-7.246010
1574.391907	-7.339925
1575.219150	-7.444270
1576.047262	-7.556949
1576.876246	-7.677116
1577.706103	-7.803922
1578.536833	-7.935778
1579.368439	-8.070540
1580.200922	-8.207116
1581.034282	-8.343763
1581.868522	-8.478234
1582.703643	-8.608857
1583.539646	-8.734697
1584.376532	-8.853712
1585.214304	-8.964282
1586.052962	-9.066055
1586.892508	-9.158715
1587.732943	-9.241132
1588.574269	-9.314080
1589.416487	-9.379277
1590.259599	-9.437130
1591.103605	-9.487980
1591.948508	-9.534541
1592.794309	-9.578954
1593.641009	-9.621428
1594.488609	-9.663421
1595.337112	-9.707936
1596.186518	-9.755789
1597.036829	-9.806716
1597.888047	-9.862884
1598.740172	-9.925975
1599.593207	-9.995005
1600.447153	-10.069450
1601.302010	-10.151078
1602.157782	-10.239573
1603.014469	-10.333592
1603.872072	-10.433264
1604.730593	-10.538835
1605.590034	-10.648405
1606.450397	-10.761862
1607.311681	-10.880180
1608.173890	-11.002176
1609.037024	-11.126664
1609.901085	-11.254800
1610.766075	-11.386825
1611.631995	-11.521368
1612.498846	-11.659944
1613.366630	-11.803263
1614.235349	-11.949564
1615.105004	-12.099072
1615.975596	-12.254453
1616.847128	-12.414189
1617.719600	-12.576378
1618.593014	-12.743286
1619.467372	-12.914515
1620.342675	-13.086861
1621.218924	-13.261434
1622.096122	-13.439811
1622.974270	-13.617499
1623.853369	-13.793241
1624.733420	-13.969971
1625.614427	-14.145336
1626.496389	-14.315783
1627.379308	-14.483546
1628.263187	-14.648490
1629.148026	-14.806997
1630.033828	-14.960969
1630.920593	-15.111960
1631.808324	-15.257077
1632.697022	-15.396564
1633.586688	-15.532713
1634.477324	-15.664089
1635.368932	-15.791084
1636.261514	-15.915096
1637.155070	-16.033867
1638.049602	-16.148324
1638.945113	-16.260876
1639.841603	-16.369076
1640.739075	-16.472311
1641.637529	-16.573234
1642.536968	-16.669820
1643.437393	-16.761556
1644.338806	-16.851328
1645.241209	-16.936271
1646.144602	-17.015163
1647.048988	-17.091331
1647.954368	-17.162578
1648.860744	-17.227199
1649.768118	-17.288026
1650.676491	-17.342227
1651.585865	-17.388634
1652.496241	-17.431666
1653.407621	-17.467544
1654.320008	-17.493886
1655.233401	-17.516232
1656.147804	-17.532083
1657.063218	-17.538698
1657.979645	-17.541050
1658.897085	-17.536949
1659.815542	-17.524304
1660.735016	-17.508235
1661.655509	-17.486395
1662.577023	-17.457211
1663.499560	-17.425108
1664.423121	-17.387747
1665.347709	-17.345462
1666.273324	-17.301577
1667.199969	-17.252594
1668.127645	-17.200554
1669.056353	-17.148505
1669.986097	-17.092356
1670.916877	-17.034807
1671.848695	-16.977535
1672.781553	-16.916839
1673.715452	-16.856666
1674.650395	-16.796493
1675.586383	-16.732898
1676.523418	-16.670726
1677.461501	-16.608024
1678.400635	-16.542688
1679.340821	-16.478883
1680.282061	-16.413486
1681.224357	-16.346915
1682.167710	-16.282076
1683.112122	-16.215207
1684.057595	-16.148376
1685.004132	-16.082782
1685.951732	-16.016109
1686.900400	-15.950607
1687.850135	-15.884700
1688.800940	-15.819001
1689.752818	-15.755301
1690.705768	-15.690012
1691.659795	-15.626017
1692.614898	-15.563480
1693.571081	-15.499747
1694.528345	-15.438356
1695.486691	-15.376753
1696.446122	-15.315368
1697.406640	-15.256396
1698.368245	-15.196125
1699.330941	-15.137659
1700.294729	-15.079665
1701.259611	-15.021052
1702.225588	-14.965344
1703.192664	-14.907484
1704.160838	-14.851006
1705.130114	-14.797024
1706.100493	-14.740310
1707.071977	-14.686790
1708.044568	-14.633815
1709.018268	-14.580284
1709.993079	-14.529742
1710.969003	-14.478300
1711.946041	-14.428884
1712.924196	-14.380099
1713.903469	-14.331578
1714.883862	-14.285223
1715.865378	-14.237696
1716.848017	-14.192950
1717.831783	-14.147986
1718.816677	-14.103062
1719.802701	-14.060990
1720.789857	-14.017356
1721.778147	-13.976341
1722.767573	-13.935183
1723.758136	-13.894740
1724.749840	-13.856351
1725.742685	-13.816185
1726.736673	-13.779615
1727.731808	-13.741753
1728.728090	-13.704651
1729.725521	-13.669688
1730.724105	-13.632932
1731.723842	-13.599061
1732.724735	-13.564029
1733.726785	-13.530466
1734.729995	-13.497176
1735.734366	-13.464084
1736.739902	-13.432576
1737.746603	-13.399427
1738.754472	-13.369750
1739.763510	-13.337855
1740.773721	-13.307818
1741.785105	-13.278832
1742.797665	-13.248561
1743.811403	-13.221263
1744.826321	-13.192017
1745.842422	-13.165758
1746.859706	-13.137940
1747.878177	-13.111954
1748.897835	-13.086525
1749.918685	-13.060195
1750.940726	-13.036914
1751.963963	-13.011356
1752.988395	-12.988972
1754.014027	-12.965077
1755.040860	-12.943157
1756.068895	-12.920922
1757.098135	-12.899295
1758.128583	-12.878717
1759.160240	-12.856920
1760.193109	-12.838064
1761.227191	-12.816435
1762.262488	-12.797974
1763.299004	-12.777819
1764.336740	-12.759000
1765.375697	-12.739769
1766.415880	-12.721231
1767.457288	-12.702487
1768.499926	-12.683488
1769.543794	-12.665881
1770.588895	-12.646102
1771.635231	-12.629085
1772.682805	-12.609510
1773.731619	-12.592436
1774.781674	-12.573362
1775.832973	-12.556333
1776.885519	-12.537723
1777.939312	-12.520408
1778.994357	-12.502566
1780.050654	-12.484874
1781.108207	-12.467721
1782.167017	-12.450095
1783.227087	-12.433649
1784.288418	-12.416634
1785.351013	-12.400994
1786.414875	-12.384696
1787.480006	-12.370427
1788.546407	-12.354565
1789.614082	-12.341594
1790.683032	-12.326744
1791.753259	-12.314359
1792.824767	-12.300808
1793.897557	-12.289244
1794.971632	-12.276345
1796.046994	-12.265881
1797.123645	-12.253759
1798.201588	-12.243818
1799.280824	-12.232920
1800.361357	-12.223537
1801.443188	-12.213332
1802.526320	-12.205115
1803.610756	-12.195125
1804.696497	-12.187640
1805.783546	-12.178025
1806.871906	-12.170633
1807.961578	-12.161452
1809.052565	-12.154136
1810.144870	-12.145351
1811.238494	-12.138610
1812.333441	-12.130204
1813.429713	-12.124169
1814.527311	-12.116085
1815.626239	-12.110479
1816.726499	-12.102523
1817.828094	-12.097119
1818.931025	-12.089146
1820.035295	-12.084070
1821.140906	-12.076350
1822.247862	-12.071297
1823.356165	-12.063849
1824.465816	-12.058234
1825.576819	-12.050990
1826.689175	-12.044704
1827.802888	-12.036851
1828.917960	-12.033034
1830.034394	-12.027066
1831.152191	-12.019792
1832.271354	-12.013157
1833.391887	-12.006838
1834.513790	-12.001317
1835.637068	-11.994677
1836.761722	-11.989457
1837.887755	-11.982257
1839.015169	-11.977254
1840.143968	-11.970239
1841.274153	-11.965886
1842.405727	-11.959143
1843.538693	-11.955398
1844.673053	-11.949042
1845.808810	-11.945201
1846.945966	-11.939674
1848.084525	-11.935364
1849.224488	-11.931293
1850.365858	-11.926564
1851.508638	-11.923903
1852.652831	-11.919247
1853.798438	-11.917404
1854.945463	-11.913593
1856.093909	-11.912248
1857.243777	-11.909765
1858.395071	-11.908627
1859.547794	-11.907534
1860.701947	-11.906550
1861.857533	-11.906553
1863.014556	-11.905501
1864.173018	-11.906137
1865.332922	-11.905477
1866.494270	-11.906179
1867.657065	-11.906659
1868.821309	-11.906830
1869.987006	-11.908451
1871.154158	-11.907990
1872.322768	-11.909842
1873.492839	-11.909796
1874.664373	-11.911252
1875.837373	-11.912901
1877.011841	-11.913318
1878.187782	-11.915992
1879.365197	-11.915755
1880.544089	-11.918144
1881.724460	-11.919152
1882.906315	-11.920506
1884.089655	-11.923679
1885.274483	-11.924170
1886.460803	-11.928200
1887.648616	-11.929585
1888.837927	-11.932663
1890.028736	-11.936451
1891.221049	-11.938182
1892.414866	-11.943335
1893.610192	-11.945042
1894.807028	-11.949056
1896.005379	-11.952346
1897.205246	-11.954738
1898.406633	-11.959443
1899.609542	-11.962326
1900.813977	-11.966593
1902.019940	-11.971203
1903.227434	-11.974151
1904.436462	-11.978837
1905.647028	-11.982236
1906.859133	-11.985569
1908.072781	-11.990724
1909.287976	-11.994090
1910.504719	-11.999116
1911.723013	-12.004249
1912.942863	-12.007860
1914.164270	-12.013661
1915.387238	-12.018238
1916.611770	-12.022633
1917.837868	-12.029306
1919.065536	-12.033358
1920.294777	-12.039049
1921.525594	-12.045195
1922.757989	-12.049160
1923.991967	-12.056008
1925.227529	-12.061996
1926.464679	-12.067120
1927.703420	-12.075371
1928.943755	-12.081129
1930.185688	-12.087999
1931.429221	-12.096196
1932.674356	-12.103119
1933.921099	-12.110920
1935.169451	-12.120601
1936.419415	-12.128197
1937.670996	-12.137763
1938.924195	-12.148323
1940.179017	-12.157392
1941.435463	-12.168082
1942.693538	-12.180036
1943.953245	-12.189616
1945.214586	-12.201258
1946.477566	-12.214109
1947.742186	-12.223669
1949.008451	-12.236938
1950.276363	-12.249254
1951.545926	-12.259951
1952.817143	-12.272723
1954.090017	-12.285301
1955.364551	-12.296731
1956.640749	-12.309064
1957.918615	-12.323127
1959.198150	-12.334751
1960.479359	-12.347446
1961.762244	-12.362344
1963.046810	-12.374724
1964.333059	-12.388009
1965.620995	-12.403291
1966.910621	-12.417569
1968.201940	-12.430117
1969.494956	-12.446904
1970.789672	-12.461923
1972.086091	-12.475392
1973.384217	-12.491893
1974.684053	-12.507569
1975.985602	-12.521539
1977.288869	-12.536447
1978.593855	-12.552779
1979.900566	-12.567885
1981.209003	-12.581283
1982.519171	-12.597842
1983.831073	-12.613880
1985.144712	-12.627261
1986.460093	-12.643481
1987.777217	-12.660430
1989.096089	-12.675816
1990.416713	-12.690272
1991.739092	-12.706990
1993.063228	-12.724400
1994.389127	-12.739274
1995.716791	-12.755515
1997.046223	-12.775316
1998.377428	-12.792622
1999.710409	-12.809083
2001.045169	-12.828087
2002.381713	-12.847793
2003.720043	-12.866793
2005.060163	-12.884914
2006.402077	-12.906060
2007.745788	-12.928650
2009.091301	-12.949415
2010.438618	-12.970012
2011.787743	-12.993899
2013.138680	-13.018866
2014.491433	-13.041897
2015.846005	-13.064339
2017.202399	-13.089276
2018.560621	-13.114671
2019.920673	-13.138119
2021.282558	-13.162370
2022.646281	-13.187206
2024.011846	-13.215030
2025.379256	-13.240741
2026.748515	-13.265144
2028.119626	-13.291489
2029.492594	-13.319782
2030.867422	-13.347719
2032.244114	-13.373549
2033.622673	-13.400492
2035.003104	-13.430662
2036.385411	-13.461304
2037.769597	-13.490057
2039.155665	-13.517886
2040.543621	-13.547240
2041.933467	-13.579214
2043.325208	-13.610445
2044.718847	-13.638554
2046.114389	-13.667586
2047.511837	-13.698531
2048.911195	-13.730636
2050.312467	-13.761894
2051.715657	-13.790641
2053.120769	-13.819153
2054.527807	-13.850421
2055.936775	-13.882706
2057.347677	-13.913743
2058.760516	-13.942817
2060.175297	-13.971253
2061.592025	-14.002341
2063.010701	-14.035651
2064.431332	-14.067943
2065.853921	-14.098968
2067.278472	-14.128930
2068.704988	-14.160116
2070.133475	-14.194372
2071.563936	-14.230205
2072.996375	-14.264907
2074.430796	-14.298929
2075.867204	-14.332890
2077.305603	-14.368357
2078.745996	-14.406835
2080.188389	-14.445985
2081.632784	-14.484010
2083.079187	-14.521365
2084.527601	-14.558206
2085.978030	-14.596775
2087.430480	-14.638438
2088.884954	-14.681653
2090.341455	-14.724449
2091.799990	-14.766683
2093.260561	-14.808024
2094.723173	-14.849782
2096.187831	-14.894016
2097.654538	-14.940500
2099.123300	-14.988755
2100.594119	-15.037541
2102.067001	-15.084445
2103.541950	-15.129542
2105.018971	-15.174432
2106.498067	-15.220631
2107.979243	-15.269247
2109.462503	-15.320340
2110.947853	-15.372032
2112.435295	-15.422633
2113.924836	-15.472543
2115.416478	-15.520878
2116.910227	-15.568442
2118.406087	-15.617898
2119.904063	-15.669313
2121.404158	-15.721297
2122.906378	-15.774577
2124.410727	-15.828730
2125.917210	-15.881072
2127.425831	-15.931033
2128.936594	-15.980470
2130.449505	-16.028955
2131.964567	-16.077107
2133.481786	-16.126482
2135.001166	-16.177387
2136.522711	-16.229781
2138.046427	-16.283912
2139.572317	-16.338636
2141.100388	-16.392492
2142.630642	-16.445555
2144.163085	-16.497570
2145.697722	-16.548233
2147.234558	-16.599307
2148.773596	-16.652180
2150.314842	-16.705531
2151.858301	-16.759573
2153.403977	-16.815513
2154.951875	-16.873788
2156.502000	-16.934304
2158.054357	-16.997739
2159.608950	-17.063356
2161.165785	-17.129569
2162.724866	-17.196485
2164.286198	-17.264073
2165.849786	-17.331225
2167.415635	-17.398279
2168.983749	-17.466294
2170.554134	-17.534463
2172.126795	-17.602248
2173.701737	-17.669962
2175.278964	-17.737962
2176.858481	-17.805537
2178.440294	-17.872917
2180.024408	-17.940813
2181.610827	-18.008976
2183.199557	-18.077482
2184.790602	-18.146171
2186.383968	-18.214780
2187.979660	-18.284179
2189.577683	-18.355209
2191.178041	-18.426266
2192.780741	-18.496357
2194.385787	-18.570180
2195.993185	-18.642524
2197.602939	-18.717174
2199.215054	-18.793635
2200.829537	-18.869846
2202.446392	-18.947319
2204.065624	-19.026928
2205.687239	-19.107459
2207.311242	-19.187530
2208.937638	-19.267237
2210.566433	-19.347295
2212.197631	-19.427966
2213.831239	-19.509198
2215.467261	-19.590669
2217.105703	-19.672195
2218.746570	-19.753723
2220.389867	-19.835224
2222.035601	-19.916987
2223.683776	-19.998632
2225.334398	-20.078793
2226.987472	-20.157566
2228.643004	-20.236792
2230.300999	-20.317030
2231.961463	-20.396668
2233.624402	-20.474740
2235.289820	-20.552402
2236.957723	-20.631371
2238.628118	-20.712092
2240.301009	-20.795074
2241.976402	-20.880686
2243.654303	-20.968162
2245.334717	-21.057648
2247.017650	-21.150498
2248.703108	-21.247417
2250.391096	-21.347869
2252.081620	-21.451282
2253.774686	-21.556811
2255.470300	-21.663003
2257.168467	-21.769519
2258.869193	-21.876419
2260.572484	-21.981916
2262.278345	-22.083526
2263.986783	-22.181811
2265.697804	-22.279282
2267.411412	-22.377437
2269.127615	-22.476606
2270.846417	-22.577055
2272.567826	-22.679202
2274.291846	-22.782478
2276.018484	-22.884948
2277.747745	-22.983600
2279.479637	-23.076073
2281.214164	-23.163823
2282.951333	-23.249989
2284.691149	-23.335938
2286.433619	-23.421972
2288.178750	-23.509782
2289.926546	-23.601411
2291.677014	-23.696363
2293.430161	-23.793006
2295.185992	-23.888445
2296.944513	-23.978592
2298.705732	-24.062693
2300.469653	-24.144682
2302.236283	-24.228661
2304.005629	-24.316377
2305.777696	-24.409953
2307.552492	-24.510305
2309.330022	-24.613301
2311.110292	-24.713901
2312.893310	-24.811752
2314.679080	-24.909357
2316.467611	-25.008382
2318.258907	-25.110138
2320.052976	-25.213188
2321.849824	-25.310901
2323.649457	-25.399588
2325.451883	-25.486186
2327.257106	-25.582770
2329.065135	-25.696414
2330.875975	-25.824574
2332.689633	-25.957057
2334.506116	-26.084826
2336.325430	-26.208622
2338.147581	-26.335339
2339.972578	-26.468807
2341.800425	-26.607073
2343.631130	-26.742380
2345.464700	-26.865959
2347.301141	-26.980902
2349.140461	-27.103711
2350.982665	-27.242889
2352.827760	-27.386192
2354.675754	-27.517890
2356.526653	-27.637804
2358.380464	-27.757215
2360.237195	-27.886030
2362.096851	-28.014892
2363.959440	-28.124309
2365.824968	-28.212242
2367.693444	-28.289244
2369.564873	-28.370468
2371.439263	-28.450513
2373.316620	-28.513055
2375.196953	-28.561716
2377.080267	-28.616251
2378.966570	-28.682497
2380.855869	-28.747372
2382.748171	-28.802819
2384.643484	-28.859267
2386.541815	-28.928423
2388.443170	-29.005456
2390.347557	-29.081136
2392.254984	-29.162140
2394.165457	-29.260705
2396.078984	-29.370308
2397.995572	-29.475902
2399.915229	-29.584476
2401.837961	-29.716841
2403.763777	-29.867948
2405.692684	-30.013776
2407.624689	-30.157181
2409.559800	-30.319807
2411.498023	-30.497931
2413.439368	-30.671063
2415.383840	-30.839766
2417.331449	-31.016600
2419.282201	-31.193675
2421.236104	-31.355570
2423.193165	-31.512041
2425.153393	-31.675408
2427.116795	-31.827427
2429.083378	-31.961541
2431.053151	-32.108400
2433.026121	-32.266592
2435.002297	-32.399608
2436.981685	-32.519602
2438.964293	-32.650757
2440.950131	-32.762153
2442.939204	-32.846250
2444.931522	-32.938475
2446.927092	-33.025868
2448.925923	-33.090693
2450.928022	-33.169318
2452.933397	-33.263214
2454.942056	-33.346996
2456.954008	-33.450511
2458.969260	-33.580352
2460.987821	-33.696287
2463.009699	-33.814321
2465.034902	-33.941832
2467.063437	-34.029119
2469.095315	-34.097682
2471.130542	-34.187134
2473.169127	-34.262233
2475.211078	-34.334220
2477.256404	-34.432394
2479.305112	-34.520590
2481.357212	-34.622882
2483.412713	-34.767118
2485.471621	-34.892537
2487.533946	-35.011189
2489.599696	-35.150351
2491.668880	-35.268221
2493.741507	-35.402526
2495.817585	-35.563915
2497.897122	-35.720134
2499.980127	-35.927069
2502.066609	-36.146809
2504.156578	-36.340891
2506.250040	-36.578517
2508.347006	-36.814414
2510.447483	-37.053424
2512.551482	-37.325677
2514.659010	-37.567515
2516.770076	-37.831051
2518.884690	-38.082074
2521.002861	-38.304607
2523.124597	-38.566763
2525.249907	-38.763173
2527.378801	-38.981949
2529.511287	-39.154563
2531.647375	-39.294251
2533.787074	-39.474387
2535.930393	-39.595104
2538.077340	-39.707268
2540.227927	-39.802085
2542.382160	-39.862387
2544.540051	-39.935763
2546.701608	-39.954155
2548.866840	-40.004126
2551.035757	-40.033366
2553.208369	-40.061672
2555.384684	-40.088145
2557.564713	-40.103955
2559.748465	-40.164764
2561.935948	-40.166650
2564.127174	-40.189271
2566.322152	-40.198437
2568.520890	-40.242910
2570.723399	-40.281827
2572.929689	-40.313806
2575.139769	-40.353094
2577.353649	-40.375064
2579.571340	-40.453547
2581.792849	-40.512439
2584.018189	-40.661277
2586.247368	-40.781988
2588.480396	-40.914401
2590.717284	-41.045746
2592.958041	-41.239322
2595.202678	-41.443499
2597.451204	-41.683515
2599.703630	-41.940831
2601.959966	-42.216713
2604.220222	-42.525115
2606.484408	-42.808236
2608.752535	-43.171742
2611.024612	-43.495033
2613.300651	-43.813448
2615.580661	-44.138932
2617.864653	-44.528835
2620.152638	-44.858476
2622.444625	-45.214616
2624.740626	-45.503031
2627.040651	-45.815222
2629.344710	-46.063237
2631.652814	-46.340112
2633.964974	-46.536837
2636.281200	-46.719234
2638.601504	-46.901768
2640.925896	-47.058863
2643.254386	-47.177066
2645.586987	-47.293357
2647.923707	-47.436385
2650.264559	-47.498125
2652.609554	-47.631044
2654.958702	-47.684159
2657.312015	-47.784215
2659.669503	-47.722482
2662.031178	-47.686419
2664.397051	-47.647143
2666.767132	-47.640569
2669.141434	-47.498960
2671.519968	-47.354647
2673.902745	-47.274602
2676.289776	-47.160238
2678.681072	-47.112205
2681.076646	-47.033593
2683.476508	-47.103614
2685.880671	-47.167292
2688.289145	-47.245221
2690.701942	-47.353499
2693.119075	-47.521634
2695.540554	-47.762468
2697.966391	-47.946230
2700.396599	-48.231711
2702.831189	-48.435930
2705.270172	-48.621234
2707.713561	-48.853564
2710.161368	-49.179459
2712.613605	-49.621716
2715.070283	-49.836749
2717.531416	-50.003543
2719.997014	-50.333544
2722.467090	-50.582869
2724.941657	-50.841653
2727.420726	-51.131038
2729.904310	-51.483888
2732.392421	-51.752080
2734.885072	-51.931749
2737.382275	-52.300428
2739.884042	-52.671729
2742.390387	-52.954925
2744.901321	-53.393718
2747.416857	-53.849603
2749.937008	-54.305411
2752.461787	-54.871396
2754.991206	-55.513814
2757.525279	-56.201128
2760.064017	-56.490595
2762.607434	-56.615588
2765.155544	-57.257525
2767.708358	-57.393311
2770.265890	-56.935159
2772.828153	-56.873502
2775.395160	-56.696390
2777.966924	-56.084357
2780.543459	-55.729978
2783.124778	-55.766277
2785.710894	-55.564954
2788.301821	-55.272172
2790.897572	-55.306698
2793.498160	-55.340802
2796.103599	-55.304659
2798.713903	-55.367611
2801.329085	-55.407907
2803.949159	-55.375193
2806.574139	-55.360987
2809.204038	-55.436025
2811.838871	-55.566165
2814.478650	-55.690002
2817.123391	-55.695390
2819.773107	-55.636394
2822.427812	-55.717650
2825.087521	-55.695359
2827.752247	-55.767972
2830.422005	-55.920100
2833.096808	-55.857345
2835.776672	-55.705826
2838.461611	-56.042588
2841.151638	-56.244503
2843.846769	-56.272786
2846.547019	-56.391394
2849.252401	-56.839642
2851.962930	-57.388086
2854.678621	-57.977316
2857.399489	-58.698443
2860.125549	-59.504325
2862.856815	-60.508102
2865.593302	-62.150830
2868.335026	-63.998103
2871.082002	-65.113967
2873.834244	-66.714899
2876.591767	-68.830907
2879.354588	-69.236542
2882.122721	-67.700411
2884.896181	-66.703319
2887.674984	-66.336540
2890.459146	-65.981089
2893.248681	-65.069095
2896.043606	-63.974531
2898.843937	-63.758114
2901.649687	-64.140794
2904.460875	-63.690101
2907.277515	-63.495005
2910.099623	-63.617771
2912.927215	-63.663187
2915.760308	-64.462921
2918.598916	-64.636814
2921.443057	-64.026041
2924.292747	-64.629034
2927.148002	-65.627177
2930.008837	-65.956181
2932.875270	-65.467828
2935.747318	-65.168840
2938.624995	-65.450042
2941.508320	-65.074496
2944.397308	-64.308556
2947.291977	-63.898730
2950.192343	-64.150067
2953.098423	-63.389242
2956.010234	-62.405007
2958.927792	-62.434883
2961.851116	-62.564134
2964.780221	-62.343027
2967.715126	-62.280304
2970.655847	-62.944767
2973.602402	-63.330112
2976.554808	-63.880576
2979.513083	-65.375527
2982.477243	-65.907645
2985.447308	-66.157992
2988.423293	-67.656313
2991.405218	-68.409991
2994.393099	-68.241176
2997.386955	-69.402621
