# 2022-03-21_18.04.46
# shape = sech2
# FWHM_ps = 0.1
# carrier_nm = 1542
# frep_MHz = 12126
# pow_mW = 8000
# GDD = 0.0
# propa_len = 0.15222222222222223
# untap_len = 0.01
# taper_len = 0.09222222222222223
# waist_len = 0.02
# uptap_len = 0.02
# untap_scale = 1.0
# waist_scale = 0.1
# workingDir = NL_20110305_12 (Spirou)
# axis = slow
# window_ps = 10.0
# steps = 200
# points = 21700
# 
# wavelength [nm]	 power spectral density [dB]
600.043425	-89.575956
600.163550	-89.432160
600.283723	-88.143699
600.403943	-89.378666
600.524212	-89.039928
600.644529	-91.485871
600.764895	-87.683050
600.885308	-89.528950
601.005770	-91.693884
601.126280	-90.923465
601.246839	-95.098918
601.367446	-90.850097
601.488101	-98.054008
601.608804	-104.124979
601.729557	-93.920440
601.850357	-96.369345
601.971206	-90.758299
602.092104	-86.159488
602.213050	-88.523339
602.334045	-87.491218
602.455089	-87.079102
602.576181	-85.937040
602.697322	-85.790295
602.818511	-90.038715
602.939749	-86.251575
603.061036	-84.870157
603.182372	-87.326917
603.303757	-84.569598
603.425191	-83.550870
603.546673	-84.549079
603.668204	-85.347978
603.789785	-85.655915
603.911414	-83.597787
604.033092	-87.026513
604.154820	-90.327410
604.276596	-85.648807
604.398422	-86.631654
604.520297	-89.683055
604.642220	-90.812709
604.764193	-93.511756
604.886216	-88.476811
605.008287	-94.374035
605.130408	-95.907990
605.252578	-91.638355
605.374798	-96.260775
605.497066	-92.807957
605.619385	-99.684154
605.741752	-102.908098
605.864169	-95.584702
605.986636	-99.077117
606.109152	-94.571888
606.231718	-96.252401
606.354333	-98.010239
606.476998	-96.896842
606.599712	-92.676431
606.722476	-90.794596
606.845290	-88.408732
606.968154	-91.348520
607.091067	-94.020545
607.214030	-89.504484
607.337043	-97.429870
607.460106	-96.336260
607.583219	-91.350816
607.706381	-91.660446
607.829594	-96.808007
607.952856	-87.347671
608.076169	-84.736301
608.199531	-87.806297
608.322944	-86.471149
608.446407	-84.316657
608.569920	-84.040086
608.693483	-83.783162
608.817096	-87.036583
608.940759	-84.626516
609.064473	-83.625030
609.188237	-86.465164
609.312051	-86.581608
609.435916	-89.927922
609.559831	-93.622539
609.683796	-90.783412
609.807812	-109.965111
609.931878	-99.805006
610.055995	-95.964660
610.180162	-96.357683
610.304380	-101.142287
610.428648	-91.049523
610.552967	-91.518525
610.677337	-85.767590
610.801757	-86.392440
610.926228	-92.478110
611.050750	-85.054940
611.175323	-85.099934
611.299946	-89.403513
611.424620	-91.111244
611.549345	-87.208078
611.674121	-85.782652
611.798948	-86.382335
611.923826	-92.431708
612.048755	-92.070803
612.173734	-88.042201
612.298765	-87.226746
612.423847	-84.366221
612.548980	-92.820503
612.674165	-91.312148
612.799400	-85.970306
612.924687	-90.457948
613.050025	-85.801715
613.175414	-88.558486
613.300854	-96.963451
613.426346	-85.442964
613.551889	-85.513419
613.677484	-87.273301
613.803130	-84.415202
613.928827	-85.524562
614.054576	-86.210005
614.180377	-84.775164
614.306229	-90.798758
614.432132	-89.100720
614.558087	-89.901012
614.684094	-94.448688
614.810153	-86.670093
614.936263	-95.308582
615.062425	-91.851719
615.188639	-105.032087
615.314904	-99.980504
615.441222	-92.383261
615.567591	-94.190331
615.694012	-85.922699
615.820486	-88.751238
615.947011	-86.330162
616.073588	-87.536245
616.200217	-84.677389
616.326898	-83.663548
616.453632	-81.012609
616.580417	-87.097628
616.707255	-86.585135
616.834144	-86.721270
616.961086	-91.249031
617.088081	-88.392506
617.215127	-93.002553
617.342226	-92.165350
617.469378	-104.265315
617.596581	-103.955759
617.723837	-98.093981
617.851146	-85.563108
617.978507	-92.543994
618.105920	-88.789553
618.233386	-86.808592
618.360905	-84.057079
618.488476	-80.149597
618.616100	-79.504909
618.743777	-82.042711
618.871506	-81.961545
618.999288	-84.629671
619.127123	-84.121659
619.255011	-86.537088
619.382951	-89.095631
619.510945	-91.140696
619.638991	-83.535004
619.767090	-81.378278
619.895243	-81.939833
620.023448	-85.183773
620.151706	-83.067999
620.280017	-97.613106
620.408382	-85.186541
620.536799	-92.137705
620.665270	-90.601867
620.793794	-91.951524
620.922371	-85.836161
621.051002	-84.074981
621.179686	-84.355132
621.308423	-85.900198
621.437213	-85.877398
621.566057	-95.002568
621.694954	-88.432743
621.823905	-88.401103
621.952909	-90.548252
622.081967	-99.382262
622.211079	-108.878917
622.340244	-93.524103
622.469462	-88.000070
622.598735	-95.184717
622.728061	-84.608894
622.857441	-83.967013
622.986874	-85.532177
623.116361	-81.799294
623.245903	-89.798473
623.375498	-87.521239
623.505147	-90.957147
623.634850	-98.028584
623.764606	-92.714540
623.894417	-99.403379
624.024282	-91.336360
624.154201	-93.309203
624.284174	-91.299580
624.414202	-87.534857
624.544283	-93.902108
624.674419	-91.074025
624.804609	-95.162933
624.934853	-90.479068
625.065151	-93.063482
625.195504	-94.300411
625.325911	-86.403388
625.456373	-83.770690
625.586889	-83.696978
625.717460	-83.486211
625.848085	-81.053615
625.978764	-82.694114
626.109498	-78.885217
626.240287	-77.411731
626.371131	-79.842332
626.502029	-78.581752
626.632982	-80.188441
626.763989	-86.745346
626.895052	-93.151710
627.026169	-93.955473
627.157341	-87.975464
627.288568	-99.158743
627.419850	-89.777435
627.551187	-83.362796
627.682579	-84.560478
627.814026	-80.117024
627.945528	-83.157426
628.077085	-84.414515
628.208697	-81.527108
628.340364	-88.325859
628.472087	-88.128822
628.603865	-88.683079
628.735698	-87.221423
628.867586	-86.488778
628.999530	-85.871129
629.131529	-85.747467
629.263584	-88.032393
629.395694	-90.393519
629.527859	-91.140023
629.660080	-87.201042
629.792357	-91.857434
629.924689	-85.599773
630.057077	-101.270865
630.189520	-86.551630
630.322019	-84.239982
630.454574	-80.717162
630.587184	-80.829685
630.719851	-78.841242
630.852573	-81.748181
630.985351	-79.633101
631.118185	-82.258808
631.251075	-80.943815
631.384021	-85.205806
631.517023	-87.894171
631.650081	-86.099225
631.783195	-90.380278
631.916365	-97.951104
632.049592	-96.254639
632.182874	-89.321397
632.316213	-93.836516
632.449608	-97.208735
632.583059	-85.215715
632.716567	-89.309081
632.850131	-87.436701
632.983751	-84.441566
633.117428	-81.223274
633.251161	-90.643376
633.384951	-83.727875
633.518797	-82.233406
633.652700	-83.447683
633.786660	-85.280441
633.920676	-85.860456
634.054749	-88.916876
634.188879	-90.788620
634.323065	-89.913500
634.457308	-83.446086
634.591608	-88.828437
634.725965	-92.997998
634.860379	-89.176847
634.994850	-82.650196
635.129377	-86.869927
635.263962	-83.060648
635.398604	-82.491020
635.533303	-85.179819
635.668058	-84.676031
635.802872	-93.898346
635.937742	-92.750017
636.072669	-92.640888
636.207654	-91.344155
636.342696	-88.606178
636.477796	-89.461147
636.612953	-83.528347
636.748167	-87.197243
636.883439	-85.852362
637.018768	-94.061167
637.154155	-90.826426
637.289599	-86.161088
637.425101	-81.684176
637.560660	-85.264986
637.696277	-83.278921
637.831952	-93.547021
637.967685	-95.745579
638.103475	-86.616114
638.239324	-81.253585
638.375230	-80.989723
638.511194	-86.525900
638.647215	-84.260806
638.783295	-85.448651
638.919433	-90.518361
639.055629	-87.906211
639.191883	-83.207573
639.328195	-82.173032
639.464565	-84.968303
639.600994	-86.395583
639.737481	-101.955198
639.874025	-95.148274
640.010629	-85.883211
640.147290	-94.290189
640.284010	-86.431834
640.420789	-82.685940
640.557625	-81.258612
640.694521	-79.279511
640.831474	-78.477732
640.968487	-84.291409
641.105558	-85.679382
641.242687	-86.524015
641.379876	-82.991084
641.517123	-89.160549
641.654429	-80.366430
641.791793	-80.022442
641.929216	-82.636089
642.066699	-87.174454
642.204240	-86.001589
642.341840	-98.501123
642.479499	-99.092585
642.617217	-90.401420
642.754994	-87.245470
642.892830	-90.010364
643.030726	-89.581169
643.168680	-92.474176
643.306694	-84.862969
643.444767	-84.062876
643.582899	-85.957040
643.721091	-83.118742
643.859342	-81.842284
643.997652	-85.169097
644.136022	-83.097024
644.274451	-80.740781
644.412940	-83.791209
644.551488	-89.238835
644.690096	-87.345616
644.828763	-90.037764
644.967490	-85.342773
645.106277	-82.731109
645.245124	-79.329587
645.384030	-81.549551
645.522997	-82.762019
645.662023	-79.991055
645.801109	-78.428213
645.940255	-79.273597
646.079460	-79.019203
646.218726	-80.046238
646.358052	-84.182210
646.497438	-85.306864
646.636884	-92.564641
646.776391	-81.439393
646.915957	-82.089543
647.055584	-79.188953
647.195271	-77.571277
647.335019	-76.742174
647.474826	-79.912779
647.614695	-82.465287
647.754623	-90.175043
647.894612	-92.219819
648.034662	-102.158146
648.174772	-82.127983
648.314943	-87.397197
648.455174	-79.336861
648.595466	-77.655873
648.735819	-79.954807
648.876233	-77.460362
649.016707	-84.478421
649.157242	-87.137266
649.297838	-93.389216
649.438495	-91.687182
649.579213	-83.228530
649.719992	-82.548219
649.860832	-82.287665
650.001733	-84.766058
650.142695	-83.787160
650.283718	-82.526809
650.424803	-82.970692
650.565949	-84.667661
650.707156	-83.979709
650.848424	-83.087650
650.989754	-88.110009
651.131145	-93.839848
651.272597	-92.028308
651.414111	-84.075518
651.555687	-83.730103
651.697324	-89.331665
651.839022	-86.402634
651.980782	-83.334526
652.122604	-82.981700
652.264488	-86.162699
652.406433	-83.937075
652.548441	-86.562734
652.690510	-98.686852
652.832640	-82.405626
652.974833	-80.060958
653.117088	-74.767253
653.259405	-76.363337
653.401784	-74.991535
653.544224	-74.879320
653.686727	-76.102175
653.829293	-79.098927
653.971920	-80.090665
654.114609	-84.733371
654.257361	-85.106162
654.400175	-84.400986
654.543052	-82.085604
654.685991	-83.420657
654.828992	-80.995114
654.972056	-81.558792
655.115183	-79.160484
655.258372	-81.531086
655.401623	-81.634119
655.544937	-84.230856
655.688314	-88.069643
655.831754	-90.469718
655.975256	-83.636245
656.118822	-82.073542
656.262450	-80.218126
656.406141	-80.359676
656.549894	-78.600097
656.693711	-76.956029
656.837591	-75.174445
656.981534	-76.201812
657.125540	-76.059062
657.269610	-76.858323
657.413742	-80.425428
657.557938	-76.625773
657.702196	-75.397783
657.846519	-73.764653
657.990904	-71.513335
658.135353	-71.434405
658.279866	-71.281193
658.424441	-73.077923
658.569081	-74.427313
658.713784	-78.917905
658.858550	-79.534953
659.003381	-90.659636
659.148274	-94.414684
659.293232	-100.294780
659.438253	-106.740699
659.583339	-83.637473
659.728488	-88.725465
659.873701	-85.799268
660.018978	-89.026007
660.164318	-81.226418
660.309723	-100.373950
660.455192	-94.641883
660.600725	-80.681569
660.746323	-76.484022
660.891984	-75.750515
661.037710	-75.760867
661.183500	-77.437844
661.329354	-76.694506
661.475272	-89.425524
661.621255	-101.667203
661.767303	-84.801123
661.913415	-78.296392
662.059591	-77.237448
662.205833	-74.608409
662.352138	-75.231516
662.498509	-76.698316
662.644944	-81.424148
662.791443	-80.948582
662.938008	-84.513579
663.084638	-85.397482
663.231332	-84.637105
663.378091	-86.464668
663.524915	-79.238309
663.671804	-76.644115
663.818759	-75.664972
663.965778	-79.058527
664.112863	-78.503761
664.260012	-80.660024
664.407227	-80.182113
664.554507	-86.650246
664.701853	-73.836851
664.849264	-72.780137
664.996740	-70.052790
665.144282	-71.566342
665.291889	-71.493839
665.439561	-74.458588
665.587300	-78.864293
665.735103	-83.255348
665.882973	-85.231479
666.030908	-76.887661
666.178909	-75.699132
666.326976	-72.419026
666.475109	-72.052522
666.623307	-71.573858
666.771571	-73.530165
666.919902	-73.540342
667.068298	-73.903723
667.216761	-80.200052
667.365289	-78.219993
667.513884	-85.820460
667.662545	-89.610378
667.811272	-81.693470
667.960065	-79.796662
668.108925	-78.433951
668.257851	-77.072915
668.406843	-79.034358
668.555902	-77.770177
668.705027	-77.405495
668.854219	-75.494460
669.003478	-74.556664
669.152803	-76.846903
669.302195	-73.567508
669.451653	-75.323488
669.601179	-74.363598
669.750771	-80.588399
669.900430	-80.958131
670.050156	-80.000137
670.199949	-75.930284
670.349808	-75.741816
670.499735	-75.584870
670.649729	-76.006810
670.799790	-79.112154
670.949918	-82.163551
671.100114	-83.871683
671.250377	-75.984193
671.400707	-77.923288
671.551104	-73.316593
671.701569	-73.231269
671.852101	-73.313593
672.002700	-82.110395
672.153368	-76.192822
672.304102	-85.848792
672.454905	-75.528267
672.605775	-82.719649
672.756713	-75.247265
672.907718	-80.743392
673.058791	-82.504907
673.209933	-82.470109
673.361142	-81.642596
673.512419	-74.409477
673.663764	-78.816835
673.815177	-72.900213
673.966658	-76.116183
674.118207	-76.867683
674.269825	-79.636985
674.421510	-77.756645
674.573264	-72.751632
674.725086	-71.878690
674.876977	-74.218575
675.028936	-75.146224
675.180963	-81.051728
675.333059	-105.613178
675.485224	-83.518503
675.637457	-82.374911
675.789758	-75.772685
675.942129	-75.490129
676.094568	-75.819387
676.247075	-74.884566
676.399652	-76.484132
676.552298	-74.625566
676.705012	-77.957022
676.857795	-77.309034
677.010648	-70.877623
677.163569	-77.522318
677.316560	-75.768337
677.469619	-78.203950
677.622748	-82.895642
677.775946	-76.240397
677.929214	-73.904906
678.082551	-74.601755
678.235957	-71.405762
678.389432	-73.542310
678.542977	-72.585531
678.696592	-71.252349
678.850276	-74.144395
679.004030	-73.518134
679.157853	-74.543920
679.311746	-75.235000
679.465709	-75.269307
679.619742	-77.455044
679.773844	-80.749598
679.928017	-76.993889
680.082259	-77.142619
680.236571	-72.464340
680.390954	-74.707879
680.545406	-79.497417
680.699929	-81.338793
680.854522	-89.085581
681.009185	-74.963323
681.163918	-76.003341
681.318722	-77.435075
681.473596	-85.779966
681.628540	-77.663707
681.783555	-81.913953
681.938641	-75.978176
682.093797	-73.183443
682.249023	-72.655010
682.404321	-71.878361
682.559689	-69.758292
682.715128	-73.652097
682.870637	-75.835946
683.026218	-73.637375
683.181869	-74.385201
683.337591	-76.010537
683.493385	-74.511611
683.649249	-75.506577
683.805185	-79.224002
683.961191	-77.151882
684.117269	-80.637836
684.273418	-89.975317
684.429639	-73.497703
684.585930	-73.026830
684.742294	-74.753235
684.898728	-70.251566
685.055234	-71.467159
685.211812	-76.544283
685.368461	-72.771666
685.525182	-72.343822
685.681975	-72.831441
685.838839	-75.779127
685.995775	-69.544059
686.152783	-73.910578
686.309863	-75.476519
686.467014	-92.926796
686.624238	-80.777902
686.781534	-79.242885
686.938902	-74.442183
687.096342	-70.439120
687.253854	-72.442222
687.411438	-76.993463
687.569095	-72.251344
687.726824	-70.098937
687.884626	-76.425864
688.042499	-81.390791
688.200446	-74.943009
688.358465	-73.738230
688.516556	-82.663623
688.674720	-73.404021
688.832957	-75.789681
688.991266	-79.409561
689.149649	-85.614535
689.308104	-81.038423
689.466632	-73.886984
689.625233	-78.519651
689.783906	-98.662073
689.942653	-79.895053
690.101473	-79.587897
690.260367	-74.288977
690.419333	-69.106213
690.578372	-69.066270
690.737485	-69.274269
690.896672	-71.875240
691.055931	-70.196490
691.215264	-68.467328
691.374671	-70.080384
691.534151	-77.861504
691.693704	-80.975116
691.853332	-88.877083
692.013033	-81.409636
692.172807	-76.559216
692.332656	-85.480050
692.492578	-78.643975
692.652575	-76.184969
692.812645	-79.104562
692.972789	-72.253085
693.133007	-72.730546
693.293300	-73.060899
693.453666	-93.648579
693.614107	-74.783393
693.774622	-78.498203
693.935211	-71.781728
694.095875	-90.394558
694.256613	-77.345308
694.417426	-77.612143
694.578313	-76.730389
694.739274	-81.577273
694.900311	-84.053983
695.061421	-83.365651
695.222607	-76.146454
695.383868	-69.908891
695.545203	-70.579757
695.706613	-69.473461
695.868098	-73.961532
696.029658	-80.821648
696.191293	-72.017587
696.353003	-73.383145
696.514789	-70.587126
696.676649	-72.740881
696.838585	-70.881902
697.000596	-74.581307
697.162682	-69.105512
697.324844	-75.192604
697.487081	-73.366316
697.649394	-82.772821
697.811782	-81.747332
697.974246	-78.425367
698.136786	-85.994058
698.299401	-73.860230
698.462092	-72.242041
698.624859	-73.417172
698.787702	-76.177455
698.950621	-75.802728
699.113616	-74.747422
699.276686	-71.204105
699.439833	-75.663706
699.603056	-77.221473
699.766355	-70.472674
699.929731	-71.891586
700.093183	-73.913082
700.256711	-79.107974
700.420315	-75.535752
700.583996	-78.459733
700.747754	-75.194314
700.911588	-83.664791
701.075499	-80.783236
701.239486	-74.359142
701.403550	-74.456442
701.567691	-73.259840
701.731909	-76.570418
701.896203	-70.098894
702.060575	-73.264156
702.225024	-78.124701
702.389549	-74.386515
702.554152	-71.775399
702.718832	-72.593979
702.883589	-73.412996
703.048424	-73.320461
703.213335	-73.818318
703.378324	-72.898463
703.543391	-83.655710
703.708535	-69.026472
703.873757	-68.756472
704.039056	-68.130670
704.204433	-75.604615
704.369887	-95.365599
704.535420	-70.895420
704.701030	-70.405754
704.866718	-66.782578
705.032484	-69.629619
705.198328	-73.994533
705.364250	-87.145869
705.530250	-77.510397
705.696328	-70.186232
705.862485	-67.765483
706.028720	-68.387380
706.195033	-69.368233
706.361424	-78.031798
706.527894	-78.192374
706.694442	-70.446346
706.861069	-70.509407
707.027775	-69.199327
707.194559	-71.786288
707.361422	-74.082238
707.528363	-73.986542
707.695384	-72.130655
707.862483	-67.815917
708.029661	-69.712432
708.196918	-67.439189
708.364254	-73.421669
708.531670	-71.259792
708.699164	-70.382759
708.866738	-66.232329
709.034391	-66.055342
709.202123	-67.797280
709.369935	-74.588428
709.537826	-81.455136
709.705796	-66.589543
709.873847	-68.280319
710.041976	-68.752658
710.210186	-78.861646
710.378475	-73.325459
710.546844	-71.065813
710.715292	-68.069972
710.883821	-67.223609
711.052429	-70.098531
711.221118	-69.961646
711.389887	-73.114746
711.558735	-69.467851
711.727664	-70.657945
711.896673	-67.234440
712.065763	-68.214175
712.234932	-67.738097
712.404183	-68.087230
712.573513	-67.862521
712.742924	-65.059945
712.912416	-65.727677
713.081988	-64.450127
713.251641	-68.142019
713.421375	-69.200729
713.591190	-71.759793
713.761085	-70.122809
713.931061	-66.858969
714.101119	-69.640802
714.271257	-67.112785
714.441476	-72.019904
714.611777	-66.138808
714.782159	-66.981495
714.952622	-63.247215
715.123166	-63.592978
715.293792	-65.120729
715.464499	-67.078740
715.635288	-68.452511
715.806158	-65.204469
715.977110	-69.608884
716.148143	-64.711687
716.319259	-66.535300
716.490456	-63.732036
716.661735	-67.429257
716.833096	-68.023223
717.004538	-65.349748
717.176063	-63.569110
717.347670	-61.467057
717.519359	-64.831874
717.691130	-65.521193
717.862984	-69.137236
718.034920	-64.837999
718.206938	-64.914641
718.379039	-64.703589
718.551222	-63.173473
718.723488	-64.998246
718.895836	-64.445196
719.068267	-69.058006
719.240781	-66.189983
719.413377	-65.589690
719.586057	-62.496340
719.758819	-62.850366
719.931664	-65.445194
720.104593	-67.963326
720.277604	-66.926322
720.450699	-62.976158
720.623876	-64.204793
720.797137	-64.746095
720.970482	-64.640203
721.143910	-63.328834
721.317421	-64.014732
721.491016	-63.222582
721.664694	-64.142598
721.838456	-62.321181
722.012302	-61.959039
722.186231	-64.635876
722.360244	-63.067501
722.534342	-63.014495
722.708523	-59.820366
722.882788	-60.245745
723.057137	-61.137093
723.231570	-62.410039
723.406088	-64.237052
723.580689	-63.892518
723.755375	-64.245228
723.930146	-66.428529
724.105000	-65.922845
724.279940	-62.369706
724.454963	-62.341123
724.630072	-61.215611
724.805265	-62.820428
724.980543	-61.911199
725.155905	-60.617249
725.331353	-63.940400
725.506885	-64.967251
725.682503	-64.412854
725.858205	-61.665236
726.033993	-60.467136
726.209865	-60.596987
726.385823	-63.211183
726.561866	-62.631176
726.737995	-61.016860
726.914209	-64.360789
727.090508	-61.425637
727.266893	-63.014883
727.443364	-61.603734
727.619920	-63.172484
727.796562	-65.172560
727.973290	-65.435104
728.150103	-63.249799
728.327003	-59.898002
728.503988	-61.410398
728.681060	-59.916234
728.858218	-63.516158
729.035461	-63.714350
729.212791	-61.448288
729.390208	-63.249474
729.567710	-64.072538
729.745299	-65.135716
729.922975	-62.750381
730.100737	-64.794408
730.278586	-61.914672
730.456521	-59.893172
730.634543	-60.489348
730.812652	-61.329795
730.990848	-61.737803
731.169130	-62.595214
731.347500	-68.415733
731.525957	-60.902333
731.704500	-60.149513
731.883131	-62.250725
732.061850	-60.786121
732.240655	-61.335759
732.419548	-61.641806
732.598528	-61.670860
732.777596	-61.255129
732.956751	-63.723990
733.135994	-66.114424
733.315325	-64.077909
733.494744	-61.421854
733.674250	-59.690572
733.853844	-60.162360
734.033526	-59.321782
734.213296	-60.147704
734.393154	-65.222540
734.573101	-66.156212
734.753135	-60.568792
734.933258	-58.435077
735.113469	-57.605933
735.293769	-58.220068
735.474157	-59.473010
735.654633	-62.234251
735.835198	-63.990075
736.015852	-65.615242
736.196594	-63.759251
736.377426	-61.511287
736.558346	-60.896251
736.739355	-59.545188
736.920453	-61.146436
737.101640	-60.976670
737.282916	-62.570405
737.464282	-63.722654
737.645736	-64.415052
737.827280	-65.450029
738.008914	-62.326836
738.190637	-61.429227
738.372449	-60.546701
738.554351	-61.707543
738.736342	-62.359130
738.918424	-61.965669
739.100595	-60.955075
739.282855	-58.667647
739.465206	-58.819269
739.647647	-60.465276
739.830178	-66.145700
740.012799	-66.645476
740.195510	-61.931456
740.378311	-61.478423
740.561203	-61.118155
740.744185	-60.515344
740.927258	-59.923661
741.110421	-62.737577
741.293674	-65.376791
741.477018	-63.027256
741.660453	-61.485264
741.843979	-59.850910
742.027596	-60.594312
742.211303	-64.072333
742.395102	-65.670368
742.578991	-64.399308
742.762972	-61.030740
742.947044	-59.860673
743.131207	-59.297913
743.315461	-63.642523
743.499807	-63.703793
743.684244	-61.528211
743.868773	-63.476263
744.053394	-63.455885
744.238106	-66.035555
744.422910	-63.641091
744.607805	-63.959661
744.792793	-63.455928
744.977872	-63.324300
745.163044	-62.063347
745.348307	-58.601550
745.533663	-61.061226
745.719111	-61.543464
745.904651	-64.333309
746.090283	-65.451363
746.276008	-60.611844
746.461826	-58.889847
746.647735	-61.067767
746.833738	-63.874557
747.019833	-67.556566
747.206021	-65.039751
747.392302	-64.676683
747.578676	-61.332584
747.765143	-62.443140
747.951703	-60.561465
748.138356	-60.319056
748.325102	-65.091174
748.511941	-63.812398
748.698874	-61.921810
748.885900	-60.662214
749.073019	-59.584839
749.260232	-63.222373
749.447539	-66.124826
749.634939	-65.841599
749.822433	-61.494626
750.010021	-61.052720
750.197703	-59.881262
750.385479	-64.137516
750.573348	-64.566674
750.761312	-61.607383
750.949370	-65.663604
751.137523	-62.195031
751.325769	-63.293265
751.514110	-63.184236
751.702545	-62.465553
751.891075	-66.982585
752.079700	-62.777249
752.268419	-61.393284
752.457233	-61.560345
752.646142	-60.170251
752.835145	-61.186903
753.024244	-62.792072
753.213437	-61.363265
753.402726	-63.154660
753.592110	-62.051692
753.781589	-61.240381
753.971163	-64.587176
754.160833	-64.305718
754.350598	-66.103128
754.540459	-61.300412
754.730415	-59.313847
754.920467	-62.024804
755.110615	-60.887646
755.300858	-63.885816
755.491198	-60.569119
755.681633	-60.613020
755.872164	-62.107202
756.062792	-62.159092
756.253515	-67.463106
756.444335	-62.559752
756.635252	-63.612960
756.826264	-63.705182
757.017373	-63.369164
757.208579	-63.187417
757.399881	-59.671485
757.591280	-60.152910
757.782776	-59.915589
757.974368	-62.339345
758.166058	-62.385530
758.357844	-59.802148
758.549728	-61.186404
758.741708	-59.325041
758.933786	-62.013228
759.125961	-61.976564
759.318233	-64.523667
759.510603	-62.107686
759.703071	-58.601352
759.895635	-59.660455
760.088298	-60.054554
760.281058	-63.508397
760.473916	-59.742198
760.666872	-60.912385
760.859926	-58.807668
761.053078	-60.816910
761.246328	-59.397610
761.439676	-61.941399
761.633122	-61.657628
761.826667	-60.127458
762.020310	-60.697647
762.214052	-57.945073
762.407892	-60.705656
762.601831	-59.771569
762.795868	-64.502011
762.990004	-57.832210
763.184239	-60.385966
763.378573	-56.517172
763.573006	-60.084435
763.767538	-58.564344
763.962169	-61.269734
764.156900	-59.956035
764.351729	-58.828733
764.546658	-59.307034
764.741687	-60.892396
764.936815	-61.094132
765.132042	-59.427587
765.327370	-57.419092
765.522797	-57.033383
765.718324	-55.534252
765.913950	-58.561814
766.109677	-58.018398
766.305504	-59.977825
766.501431	-57.836792
766.697458	-59.189835
766.893586	-57.779184
767.089814	-59.551432
767.286142	-56.511560
767.482571	-59.039963
767.679100	-56.891933
767.875730	-60.181805
768.072461	-57.104316
768.269293	-58.047650
768.466225	-56.536941
768.663259	-57.129136
768.860393	-55.143682
769.057629	-58.307950
769.254966	-57.391129
769.452404	-58.846147
769.649944	-55.535148
769.847585	-54.994656
770.045328	-56.994398
770.243172	-55.517030
770.441118	-58.753632
770.639166	-55.772679
770.837315	-59.350372
771.035567	-54.561962
771.233920	-56.908226
771.432376	-54.623179
771.630934	-55.421619
771.829594	-57.657886
772.028356	-54.096599
772.227220	-57.624401
772.426188	-54.096412
772.625257	-57.166829
772.824430	-54.812566
773.023705	-56.040957
773.223083	-56.487425
773.422563	-54.205796
773.622147	-55.398019
773.821834	-53.294683
774.021624	-55.161545
774.221517	-55.885629
774.421513	-54.122694
774.621613	-55.375390
774.821816	-54.304561
775.022122	-54.597685
775.222532	-54.236491
775.423046	-53.718417
775.623664	-54.658719
775.824385	-53.372769
776.025211	-52.490962
776.226140	-56.159469
776.427173	-52.781194
776.628311	-55.092153
776.829553	-52.960392
777.030899	-52.186145
777.232350	-55.506963
777.433905	-52.542905
777.635564	-54.829625
777.837328	-54.630090
778.039197	-53.112944
778.241171	-54.134231
778.443250	-52.924577
778.645433	-51.610612
778.847722	-53.740591
779.050116	-52.240616
779.252615	-51.504985
779.455219	-54.612382
779.657929	-51.758179
779.860744	-52.192439
780.063665	-53.112358
780.266691	-51.441796
780.469823	-52.460037
780.673061	-53.536411
780.876405	-51.114611
781.079855	-51.414373
781.283410	-53.814707
781.487072	-50.757931
781.690840	-52.978361
781.894715	-53.239544
782.098695	-51.359284
782.302783	-51.355557
782.506976	-52.437059
782.711277	-51.270812
782.915684	-50.264360
783.120198	-53.126272
783.324818	-50.668173
783.529546	-50.858520
783.734381	-52.291094
783.939322	-51.103364
784.144372	-50.681581
784.349528	-51.539490
784.554792	-52.163597
784.760163	-49.841433
784.965642	-50.901080
785.171228	-51.047933
785.376922	-50.572930
785.582724	-50.265193
785.788634	-51.582650
785.994651	-50.320139
786.200777	-49.453977
786.407011	-51.831984
786.613353	-50.710584
786.819804	-50.846405
787.026363	-50.435491
787.233030	-51.252385
787.439806	-50.079101
787.646691	-49.751003
787.853684	-50.132299
788.060786	-49.236563
788.267997	-49.467065
788.475317	-49.556579
788.682746	-51.815012
788.890285	-49.980843
789.097932	-49.758152
789.305689	-49.239380
789.513555	-48.767584
789.721531	-49.764211
789.929617	-50.640578
790.137812	-50.509059
790.346117	-49.348722
790.554531	-50.030794
790.763056	-48.859552
790.971691	-49.264849
791.180436	-49.801876
791.389291	-49.968835
791.598256	-49.277996
791.807332	-49.301912
792.016518	-50.028643
792.225815	-48.950460
792.435222	-49.347241
792.644740	-49.298956
792.854369	-49.181043
793.064109	-48.239959
793.273960	-48.641758
793.483922	-48.878743
793.693995	-48.927165
793.904180	-48.965138
794.114475	-49.052766
794.324882	-48.851532
794.535401	-48.197680
794.746031	-49.835109
794.956774	-49.680150
795.167627	-48.667127
795.378593	-47.750632
795.589671	-48.677017
795.800861	-48.826937
796.012162	-48.615523
796.223577	-49.497259
796.435103	-48.749614
796.646742	-47.901039
796.858493	-47.527509
797.070357	-49.580922
797.282334	-48.775557
797.494423	-47.709940
797.706626	-48.228658
797.918941	-48.514805
798.131369	-48.873515
798.343911	-48.483670
798.556566	-49.472562
798.769334	-47.842560
798.982215	-48.222910
799.195210	-48.885902
799.408319	-47.896513
799.621541	-47.600903
799.834877	-47.763554
800.048327	-50.462358
800.261890	-47.585593
800.475568	-47.868524
800.689360	-46.861615
800.903266	-48.346237
801.117287	-47.405278
801.331422	-48.511875
801.545671	-48.906377
801.760036	-47.644598
801.974514	-48.136596
802.189108	-47.804656
802.403816	-48.393176
802.618640	-47.065976
802.833578	-48.058421
803.048632	-48.542807
803.263800	-48.169453
803.479085	-48.210368
803.694484	-47.237172
803.909999	-47.528820
804.125630	-47.066665
804.341376	-47.808150
804.557239	-47.961182
804.773217	-47.823294
804.989311	-47.924390
805.205521	-47.813691
805.421847	-47.611777
805.638290	-46.818942
805.854849	-47.948156
806.071524	-47.406657
806.288316	-48.401562
806.505225	-47.120241
806.722250	-47.653374
806.939393	-46.811562
807.156652	-48.078038
807.374028	-48.374559
807.591521	-47.648628
807.809132	-46.016569
808.026859	-46.509859
808.244705	-48.140839
808.462667	-48.084583
808.680748	-47.494304
808.898946	-47.428446
809.117261	-48.241460
809.335695	-46.873077
809.554246	-46.948452
809.772916	-47.114275
809.991704	-47.772281
810.210610	-46.647999
810.429634	-46.254191
810.648777	-46.655134
810.868039	-47.042263
811.087419	-48.119641
811.306918	-47.371152
811.526535	-47.295436
811.746272	-45.895556
811.966127	-47.249734
812.186102	-47.360420
812.406196	-47.275019
812.626409	-46.572800
812.846742	-46.872373
813.067194	-47.645233
813.287766	-46.120718
813.508457	-46.802043
813.729269	-46.832217
813.950200	-47.617372
814.171251	-45.828747
814.392422	-46.312581
814.613714	-46.243668
814.835126	-46.987328
815.056658	-47.546378
815.278311	-46.486939
815.500084	-46.243383
815.721978	-45.695325
815.943993	-47.365793
816.166128	-45.835120
816.388385	-46.068000
816.610762	-45.299630
816.833261	-46.236658
817.055881	-46.517681
817.278623	-46.487624
817.501486	-46.631228
817.724471	-46.115521
817.947577	-46.318068
818.170805	-45.409226
818.394155	-46.426002
818.617627	-45.138663
818.841221	-45.808000
819.064937	-45.637496
819.288775	-45.468738
819.512736	-45.627038
819.736819	-45.781868
819.961025	-46.163885
820.185354	-45.688758
820.409805	-45.799816
820.634379	-44.863149
820.859076	-45.680549
821.083897	-44.729515
821.308840	-46.007500
821.533907	-45.300609
821.759097	-44.732689
821.984411	-44.937165
822.209848	-44.929977
822.435409	-45.768562
822.661093	-45.130438
822.886902	-45.484146
823.112834	-45.046306
823.338891	-44.745325
823.565072	-44.298251
823.791377	-44.781993
824.017807	-44.194577
824.244361	-45.007681
824.471039	-44.761250
824.697843	-45.112506
824.924771	-44.197180
825.151824	-44.089826
825.379002	-44.521482
825.606306	-44.005112
825.833734	-44.744596
826.061288	-43.996583
826.288967	-44.574218
826.516772	-43.421401
826.744703	-44.633921
826.972759	-43.888097
827.200941	-43.999385
827.429249	-43.860243
827.657683	-43.794997
827.886243	-43.911294
828.114930	-43.387575
828.343743	-43.949645
828.572682	-43.130729
828.801748	-43.966460
829.030941	-43.202870
829.260260	-44.385576
829.489706	-43.037047
829.719280	-43.624252
829.948980	-43.116167
830.178808	-43.281295
830.408763	-42.863303
830.638845	-43.547979
830.869055	-43.227506
831.099393	-42.496369
831.329858	-42.992778
831.560451	-42.836769
831.791173	-43.275122
832.022022	-42.200463
832.252999	-43.207027
832.484105	-42.261200
832.715339	-42.670585
832.946702	-42.478688
833.178193	-43.143554
833.409813	-41.957442
833.641561	-42.555923
833.873439	-42.675149
834.105445	-42.389368
834.337581	-41.990461
834.569846	-42.108700
834.802241	-42.856500
835.034764	-41.848380
835.267418	-42.611821
835.500201	-41.684031
835.733114	-42.073962
835.966157	-41.440257
836.199329	-42.620907
836.432632	-41.844124
836.666065	-41.608746
836.899629	-41.556367
837.133323	-42.235809
837.367147	-42.055790
837.601102	-41.356084
837.835188	-41.621166
838.069405	-41.264882
838.303752	-41.715383
838.538231	-41.359734
838.772841	-42.215378
839.007582	-40.964766
839.242455	-41.057405
839.477459	-41.214318
839.712595	-41.552484
839.947863	-41.496373
840.183263	-41.318251
840.418794	-41.611549
840.654458	-40.634027
840.890254	-41.121533
841.126182	-41.119724
841.362242	-41.305372
841.598435	-41.057518
841.834761	-40.412881
842.071220	-40.999157
842.307811	-40.557149
842.544536	-41.053606
842.781393	-41.295558
843.018384	-40.651451
843.255508	-40.536477
843.492765	-40.277125
843.730156	-40.751883
843.967681	-40.853973
844.205339	-40.498945
844.443132	-40.758935
844.681058	-40.120806
844.919118	-40.339240
845.157313	-40.463623
845.395642	-40.776577
845.634105	-40.343168
845.872703	-40.448939
846.111436	-39.552783
846.350303	-40.868824
846.589306	-39.970861
846.828443	-41.002602
847.067716	-40.083264
847.307124	-39.938096
847.546667	-39.946014
847.786345	-40.097363
848.026160	-40.284500
848.266110	-40.230989
848.506195	-39.740852
848.746417	-39.617593
848.986775	-40.513120
849.227269	-39.769295
849.467899	-40.180653
849.708666	-39.828473
849.949569	-39.650147
850.190609	-39.554050
850.431785	-40.180357
850.673099	-39.711878
850.914549	-39.795612
851.156137	-39.816108
851.397861	-39.477981
851.639723	-39.544121
851.881723	-39.780729
852.123860	-39.794346
852.366135	-39.594818
852.608547	-39.294699
852.851098	-39.203418
853.093786	-39.683931
853.336613	-39.575191
853.579578	-39.601448
853.822681	-39.116341
854.065923	-39.317650
854.309304	-38.862313
854.552823	-39.928594
854.796481	-39.129272
855.040278	-39.301506
855.284215	-38.965241
855.528290	-39.133669
855.772505	-39.159060
856.016859	-39.609593
856.261353	-39.081706
856.505987	-39.070596
856.750760	-38.741857
856.995673	-38.882079
857.240727	-39.089667
857.485920	-38.944082
857.731254	-39.023054
857.976729	-38.137068
858.222343	-39.100521
858.468099	-38.717591
858.713995	-38.934590
858.960032	-38.788316
859.206211	-38.911668
859.452530	-38.144385
859.698991	-38.723270
859.945593	-38.546830
860.192336	-38.771342
860.439222	-38.556049
860.686248	-38.623673
860.933417	-38.045508
861.180728	-38.174786
861.428181	-38.622997
861.675776	-38.608746
861.923514	-38.490957
862.171394	-38.038408
862.419417	-38.301111
862.667582	-37.863925
862.915890	-38.470581
863.164342	-38.281705
863.412936	-38.076426
863.661674	-37.896070
863.910555	-37.984398
864.159579	-38.238930
864.408747	-37.996105
864.658059	-37.990469
864.907515	-37.572242
865.157114	-37.918057
865.406858	-37.756156
865.656746	-38.053987
865.906778	-37.815889
866.156955	-37.432752
866.407277	-37.170058
866.657743	-37.586876
866.908354	-37.582378
867.159110	-37.783541
867.410011	-37.436877
867.661057	-37.373597
867.912249	-37.181662
868.163586	-36.993832
868.415069	-37.818537
868.666697	-37.574470
868.918472	-37.129257
869.170392	-36.863813
869.422458	-37.296859
869.674671	-37.054607
869.927030	-36.992806
870.179536	-36.875746
870.432188	-37.113932
870.684987	-36.440530
870.937933	-36.872741
871.191026	-37.060572
871.444266	-36.989061
871.697653	-36.743426
871.951188	-36.508509
872.204870	-36.569082
872.458700	-36.781573
872.712677	-36.677508
872.966803	-36.742256
873.221076	-36.245157
873.475498	-36.221497
873.730068	-36.341952
873.984787	-36.462215
874.239654	-36.205011
874.494669	-36.026480
874.749834	-36.174898
875.005147	-36.065510
875.260610	-36.297567
875.516222	-36.001821
875.771983	-36.162532
876.027894	-35.687743
876.283954	-35.940233
876.540164	-35.807845
876.796524	-36.006671
877.053033	-35.792610
877.309693	-35.689937
877.566503	-35.555072
877.823464	-35.531560
878.080575	-35.722417
878.337837	-35.513380
878.595249	-35.410682
878.852813	-35.149298
879.110528	-35.502742
879.368393	-35.607787
879.626410	-35.074634
879.884579	-34.980087
880.142899	-35.004208
880.401371	-35.089365
880.659994	-35.378578
880.918770	-35.195559
881.177698	-34.851420
881.436778	-34.767213
881.696010	-34.792222
881.955395	-34.769134
882.214933	-34.786974
882.474623	-34.564434
882.734467	-34.380409
882.994463	-34.502856
883.254613	-34.619722
883.514916	-34.574044
883.775372	-34.554756
884.035982	-34.332234
884.296746	-34.142871
884.557664	-34.263941
884.818735	-34.395472
885.079961	-34.135962
885.341341	-34.220701
885.602876	-34.017877
885.864565	-34.003159
886.126409	-34.090661
886.388407	-34.020684
886.650561	-33.866486
886.912870	-33.685744
887.175334	-33.745268
887.437953	-33.688634
887.700728	-33.742520
887.963658	-33.707325
888.226745	-33.482456
888.489987	-33.475930
888.753385	-33.611409
889.016940	-33.310610
889.280651	-33.490522
889.544518	-33.266769
889.808543	-33.376489
890.072723	-33.289727
890.337061	-33.413937
890.601556	-32.928379
890.866208	-33.138460
891.131017	-33.037210
891.395984	-33.116384
891.661109	-33.001841
891.926391	-32.897564
892.191831	-32.649706
892.457429	-32.929045
892.723186	-32.751093
892.989100	-32.779019
893.255173	-32.567538
893.521405	-32.554640
893.787796	-32.496430
894.054345	-32.609806
894.321053	-32.519447
894.587921	-32.376286
894.854948	-32.355082
895.122134	-32.346072
895.389480	-32.386401
895.656986	-32.382898
895.924651	-32.186036
896.192477	-32.095663
896.460463	-32.148036
896.728609	-32.295860
896.996915	-32.126714
897.265382	-31.965747
897.534010	-31.909422
897.802799	-31.912834
898.071749	-32.049461
898.340860	-31.918918
898.610132	-31.800071
898.879566	-31.799914
899.149162	-31.642222
899.418919	-31.848548
899.688838	-31.811770
899.958919	-31.673932
900.229162	-31.526459
900.499568	-31.626870
900.770136	-31.636690
901.040867	-31.784355
901.311761	-31.448026
901.582817	-31.445660
901.854037	-31.418366
902.125420	-31.664626
902.396966	-31.383569
902.668676	-31.517217
902.940550	-31.086183
903.212587	-31.428018
903.484788	-31.365723
903.757153	-31.305643
904.029683	-31.177374
904.302377	-31.191923
904.575236	-31.133433
904.848259	-31.188516
905.121447	-31.230015
905.394800	-30.967812
905.668319	-31.056553
905.942002	-31.029920
906.215852	-31.006869
906.489866	-31.103009
906.764047	-30.889391
907.038393	-30.869664
907.312906	-30.906181
907.587584	-30.867319
907.862429	-30.857040
908.137441	-30.908080
908.412619	-30.647877
908.687964	-30.754021
908.963476	-30.878506
909.239155	-30.571294
909.515002	-30.797871
909.791015	-30.625704
910.067197	-30.567338
910.343546	-30.869360
910.620063	-30.504919
910.896748	-30.472389
911.173601	-30.743934
911.450623	-30.382056
911.727813	-30.695927
912.005171	-30.523486
912.282699	-30.322081
912.560395	-30.653450
912.838261	-30.373135
913.116296	-30.378707
913.394500	-30.510104
913.672874	-30.182354
913.951418	-30.510257
914.230131	-30.252586
914.509015	-30.175840
914.788068	-30.403340
915.067292	-29.970010
915.346687	-30.372992
915.626252	-30.103281
915.905988	-30.079840
916.185895	-30.167454
916.465973	-30.002151
916.746223	-30.216624
917.026644	-29.912516
917.307236	-29.971380
917.588000	-30.035883
917.868937	-29.839285
918.150045	-30.263832
918.431325	-29.645977
918.712778	-30.080642
918.994404	-29.789128
919.276202	-29.980211
919.558173	-29.924109
919.840317	-29.683449
920.122634	-29.889938
920.405125	-29.703136
920.687789	-30.012821
920.970627	-29.584742
921.253639	-29.832639
921.536824	-29.625531
921.820184	-29.790185
922.103718	-29.777862
922.387427	-29.619116
922.671310	-29.682013
922.955368	-29.576367
923.239601	-29.882709
923.524009	-29.557386
923.808592	-29.679987
924.093351	-29.543884
924.378285	-29.776100
924.663396	-29.629562
924.948682	-29.666605
925.234144	-29.434532
925.519782	-29.679962
925.805597	-29.664961
926.091589	-29.597030
926.377757	-29.455297
926.664102	-29.529837
926.950624	-29.529545
927.237323	-29.611346
927.524200	-29.477375
927.811255	-29.370420
928.098487	-29.438118
928.385897	-29.458925
928.673485	-29.538407
928.961251	-29.358583
929.249196	-29.304555
929.537319	-29.413425
929.825621	-29.410411
930.114102	-29.450364
930.402762	-29.319126
930.691601	-29.203816
930.980620	-29.503608
931.269818	-29.354594
931.559196	-29.394524
931.848753	-29.244609
932.138491	-29.255069
932.428409	-29.546088
932.718508	-29.319377
933.008787	-29.221102
933.299246	-29.273368
933.589887	-29.404297
933.880709	-29.399771
934.171712	-29.211540
934.462896	-29.147169
934.754262	-29.442849
935.045810	-29.278069
935.337539	-29.395117
935.629451	-29.010863
935.921545	-29.379530
936.213822	-29.219981
936.506281	-29.488425
936.798922	-29.165725
937.091747	-29.182263
937.384755	-29.310195
937.677946	-29.337775
937.971321	-29.415044
938.264879	-29.091995
938.558621	-29.382157
938.852547	-29.282668
939.146657	-29.412197
939.440952	-29.178949
939.735431	-29.227920
940.030095	-29.386226
940.324943	-29.269670
940.619977	-29.298311
940.915196	-29.030289
941.210600	-29.302011
941.506189	-29.208147
941.801965	-29.262557
942.097926	-29.079960
942.394074	-29.016210
942.690407	-29.234284
942.986927	-29.086858
943.283634	-29.079978
943.580527	-28.870363
943.877608	-29.229860
944.174875	-29.032779
944.472330	-28.873500
944.769972	-29.012222
945.067802	-28.895860
945.365820	-29.158727
945.664026	-28.856651
945.962420	-28.893994
946.261002	-28.911188
946.559773	-28.957639
946.858733	-29.009257
947.157881	-28.701906
947.457219	-28.935360
947.756746	-28.901893
948.056462	-28.957521
948.356368	-28.713176
948.656464	-28.808833
948.956749	-28.790285
949.257225	-28.936074
949.557891	-28.675459
949.858748	-28.789912
950.159796	-28.644862
950.461034	-28.851942
950.762463	-28.668667
951.064084	-28.657761
951.365896	-28.626467
951.667900	-28.674703
951.970095	-28.783995
952.272483	-28.562910
952.575063	-28.572837
952.877835	-28.559646
953.180799	-28.797428
953.483956	-28.570913
953.787307	-28.483381
954.090850	-28.595726
954.394586	-28.838244
954.698516	-28.511298
955.002640	-28.453810
955.306957	-28.699762
955.611469	-28.644088
955.916174	-28.644038
956.221074	-28.434289
956.526169	-28.677994
956.831458	-28.646024
957.136942	-28.534549
957.442622	-28.606090
957.748496	-28.407553
958.054567	-28.638541
958.360833	-28.646586
958.667294	-28.454323
958.973952	-28.379447
959.280806	-28.655570
959.587857	-28.507842
959.895104	-28.355405
960.202548	-28.403528
960.510189	-28.421046
960.818027	-28.485317
961.126062	-28.333673
961.434295	-28.314480
961.742726	-28.289681
962.051355	-28.527783
962.360182	-28.214110
962.669207	-28.221322
962.978431	-28.325493
963.287854	-28.352415
963.597475	-28.215275
963.907296	-28.221300
964.217315	-28.209251
964.527535	-28.257983
964.837954	-28.314840
965.148573	-27.986285
965.459392	-28.247662
965.770411	-28.147216
966.081630	-28.164560
966.393051	-28.015672
966.704672	-28.014903
967.016494	-28.095256
967.328517	-28.050906
967.640742	-27.879360
967.953169	-27.876433
968.265797	-27.993482
968.578627	-27.838784
968.891660	-27.771488
969.204895	-27.718410
969.518332	-27.759132
969.831972	-27.802240
970.145816	-27.453800
970.459862	-27.667841
970.774112	-27.534484
971.088565	-27.622605
971.403223	-27.345867
971.718084	-27.399131
972.033149	-27.512290
972.348419	-27.334019
972.663893	-27.294785
972.979572	-27.255458
973.295456	-27.341341
973.611546	-27.261715
973.927840	-27.092967
974.244340	-27.219055
974.561046	-27.205314
974.877958	-27.078086
975.195076	-27.062363
975.512401	-27.064550
975.829932	-27.053343
976.147670	-27.041824
976.465615	-26.899802
976.783767	-26.952057
977.102126	-26.968505
977.420693	-26.883548
977.739468	-26.830771
978.058451	-26.768321
978.377642	-26.919152
978.697041	-26.742178
979.016649	-26.654961
979.336466	-26.702894
979.656492	-26.794851
979.976727	-26.564542
980.297171	-26.542856
980.617825	-26.667627
980.938689	-26.530895
981.259763	-26.508016
981.581048	-26.430051
981.902542	-26.489121
982.224248	-26.447511
982.546164	-26.343694
982.868291	-26.304961
983.190630	-26.349868
983.513180	-26.365870
983.835942	-26.144189
984.158916	-26.214356
984.482101	-26.265989
984.805500	-26.138670
985.129110	-26.092687
985.452934	-26.058470
985.776970	-26.142012
986.101220	-26.006050
986.425683	-25.971726
986.750359	-25.911416
987.075250	-26.033307
987.400354	-25.870384
987.725673	-25.768252
988.051206	-25.902482
988.376954	-25.801959
988.702916	-25.755381
989.029094	-25.635238
989.355487	-25.725588
989.682095	-25.713306
990.008919	-25.536804
990.335959	-25.513640
990.663216	-25.584744
990.990688	-25.523846
991.318377	-25.342610
991.646283	-25.384826
991.974406	-25.427953
992.302746	-25.277099
992.631304	-25.225361
992.960079	-25.166122
993.289072	-25.285647
993.618283	-25.060083
993.947713	-25.004828
994.277361	-25.087402
994.607227	-25.015410
994.937313	-24.897533
995.267618	-24.827943
995.598142	-24.906498
995.928886	-24.847815
996.259849	-24.661293
996.591033	-24.711206
996.922437	-24.730128
997.254061	-24.631977
997.585906	-24.486643
997.917972	-24.564635
998.250260	-24.562764
998.582768	-24.413164
998.915498	-24.350327
999.248450	-24.414913
999.581624	-24.401706
999.915020	-24.211984
1000.248639	-24.228371
1000.582480	-24.290481
1000.916545	-24.191831
1001.250832	-24.073089
1001.585343	-24.112733
1001.920077	-24.149799
1002.255035	-23.997660
1002.590218	-23.937666
1002.925624	-24.035592
1003.261255	-23.938781
1003.597111	-23.864456
1003.933192	-23.809337
1004.269497	-23.899518
1004.606029	-23.796565
1004.942785	-23.661035
1005.279768	-23.740282
1005.616977	-23.705181
1005.954412	-23.645482
1006.292074	-23.509722
1006.629962	-23.619621
1006.968077	-23.566247
1007.306420	-23.403723
1007.644990	-23.451612
1007.983787	-23.451687
1008.322813	-23.383750
1008.662067	-23.252977
1009.001549	-23.355565
1009.341259	-23.327107
1009.681199	-23.183084
1010.021367	-23.216719
1010.361765	-23.233249
1010.702392	-23.185851
1011.043250	-23.108221
1011.384337	-23.117241
1011.725654	-23.196424
1012.067202	-23.037861
1012.408980	-23.037628
1012.750989	-23.117287
1013.093230	-23.037392
1013.435702	-23.001031
1013.778405	-22.966760
1014.121341	-23.051412
1014.464508	-22.933715
1014.807908	-22.900309
1015.151540	-22.950917
1015.495405	-22.911778
1015.839503	-22.821328
1016.183835	-22.820201
1016.528400	-22.858777
1016.873198	-22.776609
1017.218231	-22.681407
1017.563498	-22.747815
1017.908999	-22.700167
1018.254735	-22.609749
1018.600707	-22.583783
1018.946913	-22.623153
1019.293354	-22.539024
1019.640032	-22.447213
1019.986945	-22.499880
1020.334094	-22.474907
1020.681480	-22.355241
1021.029102	-22.355494
1021.376961	-22.367855
1021.725058	-22.297415
1022.073391	-22.203321
1022.421962	-22.247465
1022.770772	-22.217485
1023.119819	-22.088345
1023.469104	-22.082042
1023.818628	-22.093320
1024.168391	-22.007434
1024.518393	-21.922832
1024.868634	-21.925222
1025.219115	-21.909959
1025.569836	-21.764219
1025.920796	-21.765908
1026.271997	-21.754011
1026.623438	-21.659375
1026.975121	-21.592070
1027.327044	-21.580972
1027.679208	-21.562298
1028.031614	-21.435703
1028.384262	-21.428783
1028.737152	-21.467121
1029.090284	-21.321091
1029.443659	-21.317999
1029.797276	-21.323513
1030.151137	-21.295455
1030.505240	-21.208117
1030.859587	-21.224827
1031.214178	-21.276426
1031.569013	-21.147178
1031.924093	-21.171667
1032.279417	-21.230220
1032.634985	-21.170310
1032.990799	-21.150953
1033.346858	-21.194143
1033.703162	-21.222475
1034.059712	-21.143836
1034.416509	-21.179438
1034.773551	-21.263876
1035.130841	-21.182180
1035.488377	-21.193312
1035.846160	-21.275503
1036.204190	-21.238006
1036.562468	-21.212238
1036.920994	-21.273265
1037.279768	-21.307107
1037.638790	-21.240107
1037.998061	-21.259609
1038.357581	-21.346250
1038.717350	-21.246529
1039.077368	-21.250613
1039.437636	-21.325554
1039.798154	-21.262386
1040.158922	-21.216707
1040.519940	-21.261737
1040.881209	-21.245022
1041.242729	-21.160183
1041.604501	-21.150659
1041.966524	-21.175347
1042.328798	-21.081842
1042.691325	-21.008124
1043.054103	-21.048616
1043.417135	-20.946736
1043.780419	-20.854264
1044.143956	-20.875571
1044.507746	-20.809384
1044.871791	-20.697125
1045.236088	-20.667809
1045.600641	-20.645085
1045.965447	-20.540625
1046.330508	-20.461826
1046.695824	-20.487131
1047.061395	-20.369947
1047.427222	-20.292758
1047.793304	-20.318222
1048.159642	-20.229764
1048.526237	-20.160821
1048.893088	-20.160515
1049.260196	-20.123131
1049.627561	-20.053367
1049.995183	-20.015043
1050.363063	-20.051922
1050.731201	-19.965157
1051.099597	-19.933502
1051.468251	-19.981490
1051.837164	-19.900556
1052.206336	-19.897550
1052.575767	-19.925665
1052.945458	-19.893231
1053.315409	-19.863026
1053.685619	-19.874870
1054.056090	-19.898737
1054.426821	-19.850081
1054.797814	-19.856619
1055.169067	-19.908605
1055.540582	-19.854471
1055.912359	-19.859962
1056.284398	-19.908486
1056.656698	-19.874375
1057.029262	-19.862168
1057.402088	-19.907181
1057.775177	-19.896160
1058.148530	-19.865609
1058.522146	-19.884892
1058.896027	-19.913619
1059.270171	-19.859519
1059.644580	-19.868285
1060.019254	-19.915253
1060.394193	-19.839451
1060.769397	-19.841326
1061.144867	-19.884768
1061.520602	-19.809280
1061.896604	-19.815947
1062.272872	-19.844863
1062.649407	-19.790368
1063.026210	-19.778308
1063.403279	-19.789145
1063.780616	-19.752497
1064.158221	-19.703754
1064.536094	-19.725618
1064.914235	-19.696466
1065.292645	-19.624357
1065.671325	-19.651492
1066.050273	-19.622987
1066.429491	-19.535312
1066.808979	-19.564763
1067.188738	-19.530543
1067.568766	-19.455486
1067.949066	-19.464508
1068.329636	-19.442061
1068.710478	-19.379692
1069.091592	-19.370128
1069.472977	-19.354683
1069.854635	-19.301161
1070.236565	-19.269199
1070.618768	-19.273147
1071.001243	-19.223335
1071.383993	-19.170822
1071.767016	-19.192419
1072.150313	-19.145503
1072.533884	-19.090591
1072.917730	-19.110737
1073.301850	-19.052031
1073.686246	-19.010219
1074.070917	-19.015871
1074.455864	-18.978835
1074.841087	-18.936189
1075.226586	-18.937186
1075.612362	-18.927914
1075.998415	-18.877584
1076.384745	-18.879380
1076.771353	-18.873491
1077.158238	-18.827360
1077.545401	-18.819294
1077.932843	-18.834486
1078.320564	-18.778285
1078.708564	-18.776343
1079.096842	-18.799967
1079.485401	-18.735876
1079.874240	-18.738814
1080.263358	-18.761571
1080.652757	-18.699390
1081.042438	-18.705805
1081.432399	-18.719386
1081.822641	-18.663283
1082.213166	-18.671556
1082.603972	-18.689433
1082.995061	-18.647241
1083.386433	-18.645959
1083.778087	-18.669916
1084.170025	-18.635244
1084.562246	-18.628082
1084.954751	-18.636552
1085.347541	-18.614922
1085.740615	-18.587146
1086.133973	-18.614400
1086.527617	-18.579700
1086.921546	-18.537246
1087.315761	-18.576521
1087.710262	-18.522400
1088.105050	-18.483196
1088.500124	-18.501737
1088.895485	-18.446680
1089.291134	-18.418880
1089.687070	-18.425911
1090.083294	-18.378790
1090.479806	-18.345912
1090.876607	-18.364365
1091.273696	-18.306912
1091.671075	-18.283358
1092.068744	-18.289059
1092.466702	-18.245198
1092.864950	-18.221416
1093.263489	-18.216216
1093.662319	-18.183530
1094.061440	-18.147282
1094.460852	-18.139285
1094.860555	-18.105182
1095.260551	-18.048797
1095.660840	-18.047266
1096.061421	-18.005760
1096.462295	-17.944027
1096.863462	-17.946196
1097.264923	-17.897635
1097.666678	-17.839187
1098.068727	-17.848108
1098.471071	-17.794492
1098.873710	-17.749437
1099.276644	-17.772723
1099.679874	-17.715651
1100.083400	-17.694180
1100.487222	-17.716696
1100.891340	-17.673752
1101.295756	-17.664819
1101.700468	-17.687038
1102.105478	-17.650304
1102.510787	-17.646790
1102.916393	-17.675961
1103.322298	-17.622776
1103.728502	-17.637136
1104.135005	-17.635561
1104.541807	-17.598664
1104.948909	-17.597724
1105.356312	-17.582154
1105.764015	-17.545367
1106.172019	-17.532621
1106.580324	-17.522778
1106.988931	-17.470739
1107.397840	-17.463047
1107.807051	-17.446648
1108.216564	-17.407846
1108.626380	-17.401624
1109.036500	-17.383983
1109.446923	-17.366751
1109.857649	-17.352080
1110.268680	-17.365805
1110.680016	-17.327353
1111.091657	-17.350709
1111.503602	-17.343854
1111.915854	-17.329936
1112.328411	-17.338170
1112.741275	-17.343483
1113.154445	-17.314646
1113.567922	-17.323526
1113.981706	-17.316434
1114.395798	-17.268937
1114.810198	-17.287494
1115.224906	-17.232683
1115.639923	-17.201335
1116.055249	-17.176578
1116.470884	-17.139433
1116.886829	-17.061813
1117.303084	-17.064043
1117.719650	-16.979320
1118.136526	-16.935884
1118.553713	-16.910776
1118.971212	-16.834724
1119.389022	-16.802217
1119.807145	-16.775021
1120.225580	-16.717782
1120.644328	-16.687778
1121.063389	-16.686972
1121.482763	-16.616556
1121.902452	-16.639166
1122.322454	-16.608013
1122.742771	-16.589943
1123.163404	-16.593184
1123.584351	-16.596697
1124.005614	-16.558569
1124.427193	-16.596002
1124.849089	-16.575846
1125.271301	-16.555246
1125.693830	-16.588909
1126.116677	-16.549224
1126.539842	-16.548263
1126.963324	-16.548396
1127.387126	-16.517998
1127.811246	-16.492505
1128.235685	-16.503713
1128.660444	-16.437059
1129.085522	-16.432006
1129.510922	-16.410077
1129.936641	-16.355184
1130.362682	-16.339593
1130.789044	-16.316784
1131.215728	-16.252631
1131.642734	-16.267619
1132.070063	-16.207264
1132.497714	-16.187753
1132.925689	-16.175945
1133.353987	-16.153815
1133.782610	-16.115044
1134.211556	-16.141826
1134.640827	-16.094781
1135.070424	-16.097466
1135.500345	-16.111462
1135.930593	-16.071775
1136.361166	-16.100343
1136.792067	-16.090204
1137.223294	-16.078344
1137.654848	-16.086841
1138.086730	-16.096827
1138.518940	-16.057194
1138.951479	-16.089080
1139.384346	-16.062614
1139.817543	-16.041189
1140.251069	-16.052675
1140.684925	-16.006550
1141.119111	-15.997155
1141.553628	-15.973371
1141.988475	-15.939993
1142.423655	-15.892657
1142.859166	-15.897955
1143.295009	-15.806146
1143.731185	-15.807430
1144.167694	-15.752784
1144.604536	-15.701568
1145.041711	-15.670271
1145.479221	-15.634474
1145.917065	-15.565152
1146.355245	-15.561366
1146.793759	-15.498691
1147.232609	-15.459098
1147.671795	-15.454615
1148.111317	-15.391171
1148.551177	-15.368383
1148.991373	-15.371028
1149.431907	-15.309307
1149.872779	-15.308471
1150.313989	-15.305032
1150.755538	-15.257737
1151.197426	-15.280437
1151.639653	-15.252443
1152.082220	-15.241234
1152.525128	-15.261342
1152.968376	-15.234683
1153.411966	-15.231513
1153.855897	-15.258262
1154.300169	-15.222897
1154.744784	-15.248153
1155.189742	-15.241630
1155.635042	-15.233299
1156.080687	-15.248680
1156.526674	-15.232038
1156.973007	-15.236545
1157.419683	-15.239133
1157.866705	-15.216415
1158.314072	-15.228699
1158.761786	-15.211348
1159.209845	-15.191910
1159.658251	-15.198437
1160.107004	-15.169924
1160.556104	-15.148944
1161.005553	-15.147876
1161.455349	-15.105380
1161.905494	-15.095447
1162.355989	-15.073941
1162.806832	-15.024219
1163.258026	-15.025085
1163.709570	-14.982137
1164.161464	-14.930150
1164.613710	-14.937939
1165.066307	-14.876675
1165.519256	-14.834627
1165.972558	-14.837137
1166.426212	-14.762142
1166.880219	-14.747539
1167.334580	-14.718523
1167.789295	-14.662172
1168.244364	-14.656530
1168.699788	-14.605444
1169.155567	-14.571615
1169.611702	-14.574769
1170.068193	-14.500361
1170.525041	-14.509498
1170.982245	-14.487343
1171.439807	-14.431388
1171.897726	-14.455862
1172.356004	-14.413742
1172.814640	-14.392866
1173.273635	-14.416686
1173.732989	-14.357016
1174.192703	-14.387162
1174.652778	-14.381792
1175.113213	-14.333296
1175.574009	-14.393593
1176.035167	-14.358304
1176.496687	-14.335422
1176.958569	-14.403344
1177.420814	-14.340185
1177.883422	-14.363766
1178.346394	-14.395738
1178.809730	-14.343824
1179.273430	-14.386290
1179.737496	-14.375686
1180.201927	-14.359827
1180.666723	-14.387072
1181.131886	-14.347307
1181.597416	-14.372955
1182.063312	-14.352669
1182.529576	-14.324944
1182.996209	-14.357701
1183.463209	-14.295121
1183.930579	-14.304858
1184.398317	-14.300613
1184.866426	-14.236106
1185.334904	-14.270470
1185.803754	-14.213693
1186.272974	-14.181679
1186.742566	-14.211182
1187.212529	-14.116505
1187.682865	-14.133687
1188.153574	-14.123620
1188.624656	-14.033436
1189.096112	-14.078168
1189.567942	-14.028438
1190.040147	-13.964007
1190.512726	-14.016340
1190.985681	-13.936083
1191.459012	-13.906303
1191.932720	-13.945282
1192.406804	-13.856343
1192.881265	-13.850416
1193.356104	-13.877460
1193.831322	-13.781306
1194.306918	-13.800688
1194.782893	-13.808119
1195.259248	-13.712550
1195.735982	-13.760238
1196.213097	-13.730618
1196.690593	-13.659080
1197.168471	-13.717872
1197.646730	-13.649566
1198.125371	-13.625642
1198.604395	-13.666432
1199.083803	-13.574536
1199.563594	-13.610597
1200.043769	-13.595587
1200.524329	-13.530979
1201.005273	-13.591034
1201.486604	-13.524597
1201.968320	-13.515661
1202.450422	-13.558367
1202.932912	-13.469687
1203.415789	-13.519435
1203.899054	-13.509501
1204.382707	-13.448167
1204.866748	-13.515652
1205.351179	-13.463033
1205.836000	-13.450715
1206.321211	-13.496469
1206.806812	-13.432587
1207.292805	-13.457472
1207.779189	-13.465599
1208.265965	-13.421390
1208.753134	-13.454911
1209.240696	-13.430413
1209.728651	-13.420659
1210.217000	-13.434645
1210.705744	-13.403447
1211.194883	-13.415916
1211.684417	-13.399202
1212.174347	-13.385915
1212.664673	-13.393617
1213.155396	-13.363109
1213.646516	-13.365483
1214.138034	-13.357658
1214.629951	-13.326846
1215.122266	-13.337554
1215.614980	-13.308868
1216.108095	-13.296238
1216.601609	-13.292184
1217.095524	-13.261858
1217.589841	-13.257051
1218.084559	-13.239996
1218.579679	-13.214592
1219.075202	-13.211321
1219.571128	-13.181007
1220.067458	-13.169145
1220.564191	-13.155205
1221.061330	-13.125242
1221.558874	-13.118644
1222.056823	-13.094830
1222.555178	-13.072137
1223.053940	-13.060708
1223.553109	-13.038844
1224.052686	-13.014626
1224.552671	-13.004160
1225.053065	-12.979962
1225.553867	-12.959776
1226.055079	-12.945645
1226.556702	-12.924963
1227.058735	-12.901406
1227.561179	-12.892914
1228.064035	-12.866598
1228.567303	-12.850046
1229.070983	-12.839653
1229.575077	-12.809693
1230.079585	-12.806223
1230.584506	-12.781300
1231.089842	-12.765760
1231.595594	-12.760046
1232.101761	-12.727951
1232.608345	-12.731200
1233.115345	-12.708590
1233.622762	-12.690571
1234.130597	-12.696178
1234.638851	-12.661055
1235.147523	-12.667771
1235.656615	-12.651190
1236.166126	-12.637251
1236.676058	-12.638179
1237.186411	-12.617344
1237.697185	-12.620228
1238.208381	-12.607451
1238.719999	-12.599487
1239.232040	-12.600895
1239.744505	-12.583401
1240.257394	-12.588582
1240.770708	-12.581004
1241.284446	-12.569793
1241.798610	-12.577326
1242.313201	-12.561179
1242.828218	-12.566528
1243.343662	-12.557137
1243.859534	-12.554683
1244.375834	-12.553675
1244.892563	-12.542835
1245.409721	-12.547860
1245.927309	-12.536010
1246.445327	-12.532931
1246.963777	-12.534505
1247.482657	-12.517723
1248.001970	-12.524612
1248.521716	-12.508478
1249.041894	-12.509903
1249.562506	-12.498888
1250.083553	-12.492199
1250.605034	-12.488884
1251.126950	-12.474044
1251.649302	-12.473210
1252.172091	-12.461558
1252.695316	-12.449677
1253.218979	-12.448037
1253.743079	-12.430958
1254.267619	-12.427720
1254.792597	-12.413630
1255.318015	-12.405162
1255.843874	-12.397682
1256.370173	-12.380874
1256.896913	-12.380575
1257.424095	-12.360175
1257.951720	-12.355604
1258.479787	-12.346644
1259.008298	-12.329646
1259.537254	-12.328154
1260.066654	-12.309373
1260.596499	-12.306983
1261.126790	-12.291160
1261.657527	-12.283265
1262.188711	-12.276659
1262.720342	-12.258106
1263.252422	-12.259767
1263.784950	-12.240293
1264.317928	-12.235920
1264.851355	-12.225788
1265.385232	-12.213223
1265.919560	-12.210148
1266.454340	-12.191077
1266.989572	-12.193507
1267.525256	-12.173524
1268.061394	-12.170576
1268.597985	-12.161182
1269.135031	-12.146872
1269.672531	-12.146435
1270.210487	-12.127341
1270.748899	-12.129585
1271.287768	-12.109401
1271.827094	-12.109714
1272.366877	-12.097701
1272.907119	-12.086223
1273.447820	-12.086210
1273.988981	-12.067132
1274.530601	-12.070792
1275.072683	-12.052118
1275.615226	-12.054058
1276.158230	-12.041132
1276.701697	-12.033594
1277.245627	-12.033997
1277.790021	-12.015548
1278.334879	-12.022945
1278.880202	-12.004162
1279.425991	-12.008925
1279.972245	-11.995384
1280.518966	-11.994662
1281.066155	-11.989652
1281.613811	-11.979923
1282.161936	-11.983264
1282.710529	-11.969508
1283.259593	-11.973613
1283.809126	-11.961523
1284.359131	-11.964690
1284.909607	-11.954056
1285.460555	-11.953885
1286.011976	-11.948497
1286.563870	-11.943621
1287.116237	-11.940802
1287.669080	-11.935005
1288.222397	-11.933280
1288.776191	-11.923841
1289.330460	-11.926394
1289.885207	-11.913750
1290.440431	-11.916510
1290.996133	-11.905350
1291.552314	-11.904913
1292.108975	-11.897824
1292.666115	-11.889788
1293.223737	-11.893436
1293.781839	-11.874012
1294.340424	-11.885324
1294.899491	-11.863955
1295.459041	-11.870588
1296.019075	-11.858438
1296.579593	-11.852964
1297.140597	-11.856946
1297.702086	-11.833317
1298.264061	-11.853084
1298.826524	-11.821375
1299.389474	-11.840055
1299.952912	-11.818233
1300.516839	-11.823607
1301.081255	-11.817654
1301.646162	-11.806618
1302.211559	-11.816655
1302.777448	-11.794727
1303.343829	-11.809110
1303.910702	-11.791068
1304.478069	-11.798884
1305.045930	-11.787313
1305.614285	-11.790792
1306.183136	-11.783527
1306.752483	-11.782750
1307.322326	-11.779724
1307.892666	-11.777536
1308.463504	-11.774551
1309.034841	-11.771807
1309.606677	-11.772189
1310.179012	-11.764498
1310.751849	-11.769914
1311.325186	-11.758885
1311.899025	-11.767541
1312.473366	-11.753801
1313.048211	-11.764184
1313.623559	-11.752115
1314.199412	-11.758173
1314.775770	-11.751633
1315.352634	-11.755627
1315.930004	-11.749241
1316.507881	-11.755036
1317.086266	-11.748938
1317.665159	-11.754546
1318.244562	-11.748914
1318.824474	-11.754911
1319.404897	-11.752564
1319.985831	-11.752360
1320.567276	-11.761087
1321.149234	-11.750744
1321.731706	-11.768817
1322.314691	-11.752379
1322.898190	-11.776031
1323.482205	-11.756938
1324.066736	-11.778071
1324.651783	-11.768659
1325.237347	-11.778283
1325.823430	-11.778644
1326.410031	-11.783223
1326.997151	-11.786825
1327.584791	-11.789176
1328.172952	-11.792682
1328.761634	-11.800009
1329.350839	-11.793075
1329.940566	-11.811526
1330.530817	-11.797822
1331.121592	-11.818582
1331.712891	-11.805871
1332.304716	-11.824816
1332.897068	-11.817797
1333.489946	-11.826667
1334.083352	-11.832333
1334.677287	-11.831515
1335.271750	-11.840639
1335.866744	-11.841125
1336.462268	-11.848561
1337.058323	-11.851673
1337.654910	-11.852833
1338.252029	-11.868135
1338.849682	-11.856735
1339.447869	-11.879298
1340.046591	-11.868912
1340.645848	-11.886042
1341.245641	-11.880415
1341.845972	-11.893686
1342.446840	-11.893924
1343.048246	-11.896288
1343.650191	-11.907076
1344.252677	-11.904921
1344.855702	-11.911561
1345.459269	-11.917669
1346.063379	-11.915965
1346.668030	-11.929681
1347.273226	-11.919640
1347.878965	-11.942933
1348.485250	-11.924887
1349.092080	-11.951554
1349.699456	-11.935848
1350.307380	-11.956627
1350.915851	-11.949031
1351.524871	-11.960595
1352.134441	-11.961720
1352.744560	-11.967712
1353.355231	-11.970335
1353.966453	-11.977163
1354.578227	-11.977296
1355.190555	-11.989368
1355.803436	-11.980137
1356.416872	-12.003906
1357.030863	-11.985377
1357.645411	-12.012544
1358.260515	-11.995895
1358.876177	-12.019976
1359.492397	-12.006577
1360.109176	-12.025188
1360.726516	-12.022821
1361.344416	-12.027888
1361.962877	-12.036586
1362.581901	-12.037841
1363.201487	-12.046326
1363.821637	-12.048556
1364.442352	-12.057973
1365.063632	-12.061566
1365.685478	-12.066006
1366.307891	-12.077610
1366.930871	-12.078098
1367.554420	-12.088213
1368.178538	-12.095007
1368.803226	-12.099646
1369.428485	-12.111657
1370.054315	-12.110609
1370.680717	-12.132260
1371.307693	-12.121743
1371.935242	-12.150538
1372.563366	-12.139561
1373.192065	-12.165612
1373.821341	-12.160195
1374.451193	-12.181132
1375.081623	-12.183828
1375.712632	-12.194803
1376.344221	-12.209804
1376.976389	-12.211709
1377.609139	-12.233291
1378.242470	-12.232691
1378.876384	-12.256769
1379.510881	-12.256098
1380.145963	-12.279288
1380.781629	-12.283800
1381.417881	-12.301716
1382.054720	-12.312205
1382.692147	-12.327778
1383.330161	-12.341126
1383.968765	-12.355391
1384.607959	-12.370456
1385.247743	-12.386101
1385.888119	-12.399371
1386.529087	-12.417287
1387.170648	-12.430475
1387.812804	-12.448480
1388.455554	-12.463504
1389.098899	-12.479840
1389.742842	-12.500232
1390.387381	-12.510817
1391.032519	-12.538681
1391.678256	-12.545016
1392.324592	-12.576606
1392.971529	-12.582169
1393.619068	-12.614046
1394.267208	-12.624096
1394.915952	-12.648725
1395.565300	-12.670121
1396.215253	-12.684290
1396.865812	-12.715593
1397.516977	-12.722002
1398.168749	-12.759946
1398.821130	-12.762006
1399.474120	-12.800024
1400.127719	-12.807742
1400.781930	-12.837502
1401.436752	-12.855501
1402.092186	-12.876374
1402.748234	-12.905408
1403.404897	-12.915756
1404.062174	-12.955122
1404.720067	-12.960045
1405.378577	-13.000810
1406.037705	-13.008407
1406.697451	-13.044912
1407.357817	-13.060431
1408.018803	-13.086836
1408.680410	-13.116134
1409.342639	-13.129814
1410.005492	-13.169240
1410.668968	-13.176233
1411.333068	-13.218425
1411.997795	-13.225410
1412.663147	-13.262544
1413.329127	-13.278080
1413.995736	-13.303457
1414.662973	-13.331349
1415.330840	-13.345889
1415.999339	-13.383889
1416.668469	-13.391709
1417.338232	-13.433526
1418.008628	-13.441380
1418.679659	-13.477516
1419.351325	-13.492485
1420.023628	-13.518589
1420.696568	-13.544417
1421.370145	-13.558607
1422.044362	-13.596103
1422.719219	-13.603421
1423.394717	-13.645045
1424.070856	-13.653954
1424.747638	-13.691091
1425.425064	-13.706728
1426.103134	-13.731314
1426.781850	-13.757853
1427.461212	-13.768596
1428.141221	-13.802314
1428.821878	-13.808410
1429.503185	-13.843942
1430.185141	-13.852437
1430.867749	-13.884474
1431.551008	-13.902664
1432.234920	-13.924241
1432.919486	-13.952706
1433.604707	-13.964739
1434.290583	-13.996781
1434.977116	-14.002635
1435.664307	-14.031392
1436.352156	-14.038108
1437.040664	-14.057361
1437.729833	-14.073197
1438.419663	-14.086314
1439.110156	-14.111432
1439.801312	-14.125162
1440.493132	-14.154378
1441.185617	-14.171643
1441.878768	-14.196814
1442.572586	-14.217676
1443.267072	-14.233849
1443.962228	-14.253345
1444.658053	-14.262311
1445.354549	-14.274935
1446.051717	-14.284070
1446.749558	-14.290633
1447.448073	-14.307444
1448.147263	-14.315113
1448.847128	-14.340431
1449.547671	-14.357117
1450.248891	-14.384721
1450.950789	-14.413789
1451.653368	-14.433370
1452.356627	-14.469267
1453.060568	-14.476650
1453.765192	-14.504255
1454.470500	-14.502912
1455.176492	-14.511833
1455.883170	-14.511037
1456.590534	-14.501583
1457.298586	-14.512275
1458.007327	-14.498182
1458.716758	-14.520341
1459.426880	-14.520977
1460.137693	-14.551867
1460.849199	-14.576045
1461.561398	-14.607020
1462.274293	-14.648695
1462.987883	-14.666917
1463.702170	-14.701609
1464.417155	-14.703920
1465.132838	-14.709064
1465.849222	-14.693225
1466.566306	-14.664926
1467.284093	-14.632378
1468.002582	-14.584059
1468.721775	-14.544313
1469.441674	-14.504493
1470.162278	-14.470194
1470.883590	-14.455916
1471.605609	-14.443757
1472.328338	-14.454675
1473.051777	-14.471522
1473.775928	-14.496177
1474.500790	-14.534174
1475.226367	-14.551633
1475.952657	-14.587264
1476.679663	-14.586038
1477.407386	-14.585690
1478.135826	-14.558578
1478.864985	-14.507906
1479.594863	-14.453903
1480.325463	-14.365015
1481.056784	-14.293942
1481.788828	-14.201293
1482.521597	-14.129239
1483.255090	-14.069623
1483.989309	-14.026260
1484.724256	-14.019791
1485.459931	-14.033102
1486.196336	-14.087137
1486.933471	-14.169972
1487.671337	-14.278036
1488.409937	-14.419375
1489.149270	-14.565682
1489.889337	-14.725735
1490.630141	-14.881879
1491.371682	-15.009295
1492.113961	-15.125236
1492.856979	-15.177865
1493.600738	-15.202187
1494.345238	-15.162038
1495.090481	-15.069278
1495.836467	-14.942321
1496.583198	-14.754643
1497.330675	-14.558932
1498.078899	-14.327107
1498.827872	-14.094702
1499.577593	-13.863884
1500.328065	-13.637820
1501.079289	-13.439333
1501.831265	-13.259049
1502.583995	-13.112330
1503.337480	-13.004815
1504.091721	-12.925268
1504.846719	-12.890488
1505.602475	-12.883167
1506.358991	-12.899035
1507.116268	-12.937204
1507.874306	-12.958332
1508.633108	-12.972156
1509.392673	-12.926917
1510.153004	-12.820689
1510.914101	-12.633823
1511.675965	-12.347221
1512.438599	-11.989097
1513.202002	-11.552571
1513.966176	-11.075351
1514.731122	-10.574850
1515.496842	-10.072153
1516.263336	-9.591665
1517.030607	-9.142427
1517.798654	-8.736929
1518.567479	-8.387752
1519.337083	-8.091013
1520.107468	-7.862721
1520.878634	-7.696831
1521.650584	-7.600248
1522.423317	-7.579210
1523.196836	-7.627303
1523.971141	-7.762466
1524.746233	-7.974397
1525.522115	-8.282755
1526.298786	-8.687129
1527.076249	-9.200988
1527.854504	-9.842184
1528.633553	-10.624470
1529.413397	-11.582541
1530.194037	-12.754271
1530.975474	-14.194716
1531.757709	-16.007071
1532.540745	-18.298608
1533.324581	-21.197092
1534.109220	-24.085764
1534.894662	-24.085508
1535.680909	-21.120706
1536.467961	-18.179637
1537.255821	-15.820709
1538.044489	-13.959274
1538.833967	-12.467133
1539.624256	-11.246522
1540.415357	-10.247679
1541.207271	-9.421937
1542.000000	-8.744422
1542.793545	-8.194698
1543.587907	-7.753323
1544.383087	-7.413156
1545.179088	-7.161559
1545.975909	-6.989781
1546.773552	-6.897468
1547.572019	-6.869233
1548.371311	-6.912288
1549.171428	-7.011706
1549.972373	-7.171608
1550.774147	-7.385592
1551.576751	-7.649651
1552.380185	-7.965390
1553.184453	-8.324672
1553.989554	-8.729238
1554.795490	-9.176038
1555.602263	-9.658921
1556.409873	-10.179986
1557.218322	-10.733670
1558.027612	-11.313639
1558.837743	-11.925988
1559.648717	-12.550383
1560.460536	-13.202756
1561.273200	-13.857671
1562.086710	-14.522392
1562.901069	-15.186429
1563.716278	-15.831754
1564.532337	-16.458372
1565.349249	-17.039351
1566.167014	-17.558949
1566.985634	-17.998254
1567.805111	-18.331298
1568.625444	-18.541933
1569.446637	-18.634710
1570.268690	-18.587275
1571.091605	-18.447394
1571.915382	-18.205942
1572.740024	-17.898234
1573.565532	-17.554034
1574.391907	-17.168478
1575.219150	-16.781983
1576.047262	-16.385441
1576.876246	-15.996035
1577.706103	-15.618065
1578.536833	-15.253682
1579.368439	-14.905095
1580.200922	-14.582689
1581.034282	-14.273004
1581.868522	-13.995377
1582.703643	-13.738697
1583.539646	-13.504642
1584.376532	-13.304447
1585.214304	-13.121298
1586.052962	-12.972121
1586.892508	-12.844635
1587.732943	-12.744638
1588.574269	-12.670378
1589.416487	-12.620272
1590.259599	-12.593150
1591.103605	-12.592339
1591.948508	-12.608220
1592.794309	-12.648785
1593.641009	-12.707549
1594.488609	-12.779718
1595.337112	-12.875368
1596.186518	-12.975662
1597.036829	-13.095185
1597.888047	-13.219920
1598.740172	-13.351929
1599.593207	-13.490405
1600.447153	-13.628691
1601.302010	-13.766211
1602.157782	-13.903936
1603.014469	-14.032851
1603.872072	-14.157257
1604.730593	-14.277175
1605.590034	-14.380368
1606.450397	-14.486191
1607.311681	-14.573052
1608.173890	-14.657843
1609.037024	-14.734639
1609.901085	-14.802187
1610.766075	-14.868830
1611.631995	-14.930055
1612.498846	-14.988603
1613.366630	-15.048321
1614.235349	-15.108017
1615.105004	-15.165688
1615.975596	-15.233419
1616.847128	-15.293800
1617.719600	-15.367343
1618.593014	-15.440158
1619.467372	-15.515762
1620.342675	-15.602057
1621.218924	-15.684043
1622.096122	-15.774016
1622.974270	-15.863665
1623.853369	-15.952527
1624.733420	-16.037843
1625.614427	-16.124137
1626.496389	-16.195495
1627.379308	-16.267797
1628.263187	-16.325290
1629.148026	-16.370202
1630.033828	-16.410608
1630.920593	-16.426909
1631.808324	-16.439474
1632.697022	-16.433416
1633.586688	-16.415437
1634.477324	-16.386916
1635.368932	-16.349081
1636.261514	-16.299199
1637.155070	-16.248399
1638.049602	-16.189393
1638.945113	-16.125939
1639.841603	-16.067934
1640.739075	-15.998076
1641.637529	-15.939375
1642.536968	-15.874000
1643.437393	-15.810889
1644.338806	-15.751527
1645.241209	-15.688531
1646.144602	-15.627030
1647.048988	-15.565994
1647.954368	-15.500913
1648.860744	-15.432846
1649.768118	-15.367275
1650.676491	-15.289165
1651.585865	-15.218547
1652.496241	-15.138939
1653.407621	-15.059302
1654.320008	-14.983175
1655.233401	-14.901643
1656.147804	-14.826926
1657.063218	-14.752360
1657.979645	-14.680542
1658.897085	-14.612521
1659.815542	-14.549807
1660.735016	-14.485479
1661.655509	-14.431146
1662.577023	-14.373412
1663.499560	-14.319840
1664.423121	-14.270046
1665.347709	-14.214887
1666.273324	-14.167177
1667.199969	-14.114661
1668.127645	-14.064627
1669.056353	-14.015562
1669.986097	-13.967148
1670.916877	-13.918661
1671.848695	-13.875818
1672.781553	-13.830791
1673.715452	-13.790198
1674.650395	-13.753355
1675.586383	-13.712801
1676.523418	-13.680978
1677.461501	-13.644028
1678.400635	-13.611321
1679.340821	-13.579474
1680.282061	-13.546519
1681.224357	-13.515533
1682.167710	-13.485587
1683.112122	-13.454202
1684.057595	-13.425458
1685.004132	-13.398063
1685.951732	-13.367633
1686.900400	-13.344579
1687.850135	-13.316144
1688.800940	-13.292866
1689.752818	-13.269797
1690.705768	-13.245618
1691.659795	-13.225236
1692.614898	-13.202911
1693.571081	-13.181772
1694.528345	-13.161000
1695.486691	-13.141229
1696.446122	-13.119510
1697.406640	-13.102766
1698.368245	-13.082112
1699.330941	-13.065674
1700.294729	-13.049524
1701.259611	-13.031679
1702.225588	-13.018602
1703.192664	-13.001609
1704.160838	-12.987884
1705.130114	-12.973436
1706.100493	-12.960026
1707.071977	-12.946650
1708.044568	-12.935823
1709.018268	-12.923532
1709.993079	-12.913705
1710.969003	-12.904868
1711.946041	-12.893958
1712.924196	-12.888319
1713.903469	-12.878902
1714.883862	-12.873406
1715.865378	-12.867419
1716.848017	-12.861338
1717.831783	-12.857061
1718.816677	-12.852355
1719.802701	-12.848224
1720.789857	-12.844488
1721.778147	-12.842657
1722.767573	-12.838754
1723.758136	-12.839338
1724.749840	-12.836907
1725.742685	-12.836863
1726.736673	-12.837362
1727.731808	-12.835522
1728.728090	-12.836836
1729.725521	-12.835505
1730.724105	-12.836228
1731.723842	-12.836111
1732.724735	-12.837086
1733.726785	-12.837001
1734.729995	-12.838716
1735.734366	-12.838939
1736.739902	-12.839865
1737.746603	-12.842699
1738.754472	-12.842415
1739.763510	-12.846567
1740.773721	-12.847961
1741.785105	-12.850971
1742.797665	-12.854770
1743.811403	-12.857726
1744.826321	-12.862293
1745.842422	-12.866794
1746.859706	-12.871789
1747.878177	-12.876785
1748.897835	-12.883315
1749.918685	-12.887538
1750.940726	-12.895185
1751.963963	-12.900648
1752.988395	-12.906791
1754.014027	-12.915534
1755.040860	-12.920369
1756.068895	-12.929080
1757.098135	-12.936259
1758.128583	-12.942626
1759.160240	-12.950699
1760.193109	-12.958695
1761.227191	-12.965056
1762.262488	-12.974514
1763.299004	-12.983144
1764.336740	-12.990271
1765.375697	-13.001974
1766.415880	-13.009626
1767.457288	-13.019571
1768.499926	-13.030196
1769.543794	-13.039317
1770.588895	-13.050253
1771.635231	-13.061375
1772.682805	-13.073116
1773.731619	-13.084699
1774.781674	-13.098273
1775.832973	-13.110679
1776.885519	-13.123918
1777.939312	-13.137706
1778.994357	-13.151368
1780.050654	-13.165053
1781.108207	-13.179679
1782.167017	-13.195275
1783.227087	-13.208887
1784.288418	-13.226343
1785.351013	-13.241413
1786.414875	-13.256595
1787.480006	-13.274362
1788.546407	-13.288328
1789.614082	-13.304199
1790.683032	-13.319965
1791.753259	-13.334127
1792.824767	-13.349473
1793.897557	-13.365771
1794.971632	-13.380369
1796.046994	-13.397191
1797.123645	-13.413442
1798.201588	-13.427517
1799.280824	-13.444117
1800.361357	-13.457454
1801.443188	-13.472016
1802.526320	-13.486989
1803.610756	-13.500787
1804.696497	-13.516392
1805.783546	-13.531064
1806.871906	-13.545993
1807.961578	-13.560420
1809.052565	-13.574611
1810.144870	-13.587733
1811.238494	-13.601630
1812.333441	-13.615150
1813.429713	-13.628836
1814.527311	-13.644284
1815.626239	-13.658397
1816.726499	-13.674881
1817.828094	-13.690118
1818.931025	-13.705150
1820.035295	-13.720851
1821.140906	-13.734715
1822.247862	-13.750420
1823.356165	-13.765850
1824.465816	-13.782351
1825.576819	-13.799547
1826.689175	-13.816938
1827.802888	-13.833673
1828.917960	-13.850187
1830.034394	-13.866556
1831.152191	-13.881919
1832.271354	-13.899479
1833.391887	-13.915569
1834.513790	-13.932903
1835.637068	-13.950152
1836.761722	-13.965387
1837.887755	-13.982211
1839.015169	-13.996843
1840.143968	-14.012090
1841.274153	-14.027112
1842.405727	-14.040820
1843.538693	-14.054995
1844.673053	-14.067832
1845.808810	-14.080476
1846.945966	-14.092582
1848.084525	-14.104305
1849.224488	-14.114869
1850.365858	-14.125078
1851.508638	-14.134338
1852.652831	-14.142874
1853.798438	-14.152239
1854.945463	-14.160430
1856.093909	-14.169761
1857.243777	-14.178090
1858.395071	-14.185369
1859.547794	-14.192447
1860.701947	-14.197221
1861.857533	-14.202466
1863.014556	-14.206457
1864.173018	-14.210162
1865.332922	-14.213852
1866.494270	-14.216066
1867.657065	-14.218207
1868.821309	-14.219427
1869.987006	-14.220430
1871.154158	-14.221366
1872.322768	-14.221955
1873.492839	-14.222201
1874.664373	-14.222174
1875.837373	-14.221868
1877.011841	-14.220890
1878.187782	-14.220227
1879.365197	-14.218708
1880.544089	-14.217353
1881.724460	-14.215890
1882.906315	-14.213599
1884.089655	-14.211783
1885.274483	-14.208598
1886.460803	-14.205550
1887.648616	-14.202183
1888.837927	-14.197965
1890.028736	-14.194074
1891.221049	-14.188838
1892.414866	-14.183996
1893.610192	-14.179093
1894.807028	-14.173794
1896.005379	-14.168570
1897.205246	-14.162165
1898.406633	-14.155035
1899.609542	-14.147161
1900.813977	-14.138582
1902.019940	-14.129829
1903.227434	-14.120487
1904.436462	-14.110133
1905.647028	-14.098945
1906.859133	-14.086959
1908.072781	-14.074066
1909.287976	-14.061223
1910.504719	-14.047209
1911.723013	-14.032612
1912.942863	-14.017311
1914.164270	-14.000848
1915.387238	-13.985095
1916.611770	-13.968254
1917.837868	-13.950905
1919.065536	-13.932783
1920.294777	-13.913103
1921.525594	-13.893927
1922.757989	-13.873678
1923.991967	-13.853050
1925.227529	-13.832209
1926.464679	-13.809998
1927.703420	-13.788185
1928.943755	-13.765880
1930.185688	-13.743658
1931.429221	-13.722100
1932.674356	-13.699819
1933.921099	-13.678034
1935.169451	-13.655774
1936.419415	-13.633559
1937.670996	-13.612467
1938.924195	-13.591477
1940.179017	-13.571209
1941.435463	-13.550791
1942.693538	-13.530319
1943.953245	-13.510997
1945.214586	-13.491949
1946.477566	-13.473209
1947.742186	-13.454237
1949.008451	-13.434741
1950.276363	-13.415592
1951.545926	-13.396444
1952.817143	-13.377425
1954.090017	-13.358589
1955.364551	-13.339579
1956.640749	-13.320931
1957.918615	-13.302298
1959.198150	-13.283515
1960.479359	-13.264503
1961.762244	-13.244490
1963.046810	-13.224069
1964.333059	-13.203412
1965.620995	-13.182497
1966.910621	-13.161529
1968.201940	-13.139602
1969.494956	-13.117094
1970.789672	-13.094319
1972.086091	-13.071295
1973.384217	-13.048463
1974.684053	-13.025125
1975.985602	-13.001333
1977.288869	-12.977118
1978.593855	-12.952638
1979.900566	-12.928964
1981.209003	-12.905614
1982.519171	-12.882414
1983.831073	-12.859094
1985.144712	-12.835360
1986.460093	-12.812306
1987.777217	-12.790136
1989.096089	-12.768981
1990.416713	-12.748343
1991.739092	-12.727751
1993.063228	-12.707897
1994.389127	-12.688699
1995.716791	-12.670437
1997.046223	-12.652707
1998.377428	-12.635256
1999.710409	-12.618657
2001.045169	-12.602781
2002.381713	-12.587816
2003.720043	-12.573504
2005.060163	-12.559750
2006.402077	-12.546903
2007.745788	-12.534629
2009.091301	-12.522768
2010.438618	-12.510754
2011.787743	-12.498518
2013.138680	-12.486663
2014.491433	-12.475507
2015.846005	-12.464901
2017.202399	-12.454121
2018.560621	-12.442571
2019.920673	-12.430146
2021.282558	-12.417222
2022.646281	-12.404501
2024.011846	-12.392092
2025.379256	-12.379264
2026.748515	-12.365611
2028.119626	-12.351298
2029.492594	-12.337009
2030.867422	-12.323018
2032.244114	-12.308880
2033.622673	-12.294512
2035.003104	-12.279984
2036.385411	-12.265990
2037.769597	-12.252493
2039.155665	-12.239554
2040.543621	-12.227313
2041.933467	-12.215288
2043.325208	-12.203957
2044.718847	-12.193081
2046.114389	-12.183067
2047.511837	-12.173729
2048.911195	-12.165192
2050.312467	-12.157762
2051.715657	-12.150914
2053.120769	-12.145096
2054.527807	-12.140176
2055.936775	-12.136743
2057.347677	-12.134303
2058.760516	-12.132378
2060.175297	-12.130961
2061.592025	-12.130308
2063.010701	-12.130797
2064.431332	-12.132029
2065.853921	-12.133767
2067.278472	-12.135902
2068.704988	-12.138253
2070.133475	-12.140336
2071.563936	-12.142345
2072.996375	-12.144128
2074.430796	-12.146442
2075.867204	-12.148992
2077.305603	-12.151690
2078.745996	-12.153745
2080.188389	-12.155066
2081.632784	-12.155412
2083.079187	-12.155011
2084.527601	-12.154481
2085.978030	-12.153421
2087.430480	-12.152903
2088.884954	-12.153002
2090.341455	-12.154605
2091.799990	-12.156173
2093.260561	-12.157124
2094.723173	-12.157066
2096.187831	-12.156910
2097.654538	-12.156768
2099.123300	-12.157769
2100.594119	-12.160457
2102.067001	-12.165809
2103.541950	-12.172919
2105.018971	-12.181455
2106.498067	-12.190505
2107.979243	-12.199616
2109.462503	-12.208267
2110.947853	-12.217740
2112.435295	-12.228819
2113.924836	-12.241329
2115.416478	-12.255493
2116.910227	-12.271703
2118.406087	-12.290596
2119.904063	-12.311056
2121.404158	-12.332057
2122.906378	-12.351550
2124.410727	-12.368096
2125.917210	-12.381216
2127.425831	-12.392075
2128.936594	-12.401693
2130.449505	-12.411258
2131.964567	-12.422744
2133.481786	-12.438249
2135.001166	-12.458171
2136.522711	-12.482426
2138.046427	-12.510487
2139.572317	-12.541443
2141.100388	-12.573480
2142.630642	-12.605364
2144.163085	-12.636278
2145.697722	-12.665021
2147.234558	-12.690255
2148.773596	-12.710523
2150.314842	-12.726304
2151.858301	-12.738129
2153.403977	-12.747516
2154.951875	-12.753551
2156.502000	-12.758481
2158.054357	-12.763736
2159.608950	-12.772204
2161.165785	-12.783781
2162.724866	-12.799920
2164.286198	-12.820529
2165.849786	-12.846326
2167.415635	-12.876942
2168.983749	-12.912094
2170.554134	-12.950861
2172.126795	-12.993141
2173.701737	-13.038982
2175.278964	-13.086624
2176.858481	-13.136084
2178.440294	-13.187004
2180.024408	-13.240025
2181.610827	-13.293271
2183.199557	-13.347070
2184.790602	-13.400693
2186.383968	-13.454091
2187.979660	-13.505969
2189.577683	-13.555766
2191.178041	-13.602743
2192.780741	-13.645031
2194.385787	-13.682797
2195.993185	-13.715083
2197.602939	-13.741946
2199.215054	-13.762382
2200.829537	-13.778434
2202.446392	-13.792915
2204.065624	-13.806571
2205.687239	-13.820445
2207.311242	-13.836467
2208.937638	-13.858335
2210.566433	-13.887621
2212.197631	-13.925662
2213.831239	-13.973594
2215.467261	-14.030901
2217.105703	-14.095402
2218.746570	-14.163482
2220.389867	-14.233153
2222.035601	-14.300392
2223.683776	-14.362885
2225.334398	-14.421162
2226.987472	-14.475696
2228.643004	-14.528379
2230.300999	-14.580129
2231.961463	-14.634091
2233.624402	-14.691902
2235.289820	-14.751256
2236.957723	-14.811892
2238.628118	-14.874206
2240.301009	-14.938638
2241.976402	-15.004916
2243.654303	-15.073149
2245.334717	-15.143715
2247.017650	-15.215255
2248.703108	-15.287503
2250.391096	-15.358440
2252.081620	-15.425782
2253.774686	-15.489677
2255.470300	-15.550456
2257.168467	-15.608141
2258.869193	-15.664332
2260.572484	-15.720043
2262.278345	-15.777337
2263.986783	-15.835639
2265.697804	-15.893568
2267.411412	-15.951969
2269.127615	-16.012379
2270.846417	-16.074018
2272.567826	-16.136823
2274.291846	-16.200885
2276.018484	-16.266772
2277.747745	-16.336616
2279.479637	-16.411581
2281.214164	-16.489037
2282.951333	-16.568061
2284.691149	-16.649987
2286.433619	-16.736361
2288.178750	-16.826195
2289.926546	-16.918067
2291.677014	-17.012272
2293.430161	-17.108595
2295.185992	-17.205812
2296.944513	-17.304556
2298.705732	-17.404516
2300.469653	-17.502547
2302.236283	-17.600765
2304.005629	-17.698645
2305.777696	-17.795319
2307.552492	-17.890957
2309.330022	-17.984859
2311.110292	-18.076460
2312.893310	-18.165577
2314.679080	-18.252134
2316.467611	-18.336025
2318.258907	-18.416534
2320.052976	-18.494550
2321.849824	-18.572512
2323.649457	-18.649502
2325.451883	-18.726472
2327.257106	-18.803899
2329.065135	-18.881269
2330.875975	-18.964470
2332.689633	-19.051264
2334.506116	-19.138385
2336.325430	-19.228638
2338.147581	-19.323020
2339.972578	-19.422115
2341.800425	-19.524448
2343.631130	-19.629604
2345.464700	-19.738012
2347.301141	-19.851335
2349.140461	-19.968343
2350.982665	-20.083788
2352.827760	-20.200301
2354.675754	-20.321551
2356.526653	-20.445890
2358.380464	-20.570513
2360.237195	-20.693514
2362.096851	-20.816771
2363.959440	-20.942929
2365.824968	-21.069482
2367.693444	-21.192657
2369.564873	-21.313768
2371.439263	-21.435526
2373.316620	-21.553560
2375.196953	-21.665006
2377.080267	-21.772074
2378.966570	-21.870778
2380.855869	-21.963017
2382.748171	-22.051518
2384.643484	-22.134725
2386.541815	-22.214356
2388.443170	-22.296585
2390.347557	-22.383899
2392.254984	-22.472046
2394.165457	-22.562064
2396.078984	-22.662119
2397.995572	-22.768430
2399.915229	-22.876220
2401.837961	-22.990103
2403.763777	-23.112066
2405.692684	-23.238166
2407.624689	-23.362049
2409.559800	-23.496856
2411.498023	-23.640696
2413.439368	-23.780623
2415.383840	-23.920634
2417.331449	-24.066939
2419.282201	-24.218350
2421.236104	-24.366702
2423.193165	-24.512653
2425.153393	-24.664245
2427.116795	-24.820563
2429.083378	-24.973533
2431.053151	-25.120016
2433.026121	-25.267942
2435.002297	-25.413374
2436.981685	-25.546881
2438.964293	-25.669315
2440.950131	-25.785822
2442.939204	-25.896948
2444.931522	-25.989434
2446.927092	-26.066211
2448.925923	-26.139449
2450.928022	-26.208728
2452.933397	-26.277764
2454.942056	-26.351146
2456.954008	-26.434383
2458.969260	-26.528432
2460.987821	-26.626330
2463.009699	-26.738682
2465.034902	-26.862920
2467.063437	-26.986490
2469.095315	-27.119868
2471.130542	-27.265245
2473.169127	-27.415032
2475.211078	-27.566716
2477.256404	-27.730097
2479.305112	-27.900245
2481.357212	-28.061727
2483.412713	-28.237269
2485.471621	-28.426104
2487.533946	-28.604582
2489.599696	-28.776685
2491.668880	-28.966479
2493.741507	-29.163186
2495.817585	-29.345481
2497.897122	-29.522746
2499.980127	-29.707105
2502.066609	-29.872428
2504.156578	-30.012625
2506.250040	-30.152059
2508.347006	-30.271844
2510.447483	-30.353851
2512.551482	-30.417466
2514.659010	-30.486237
2516.770076	-30.529856
2518.884690	-30.541144
2521.002861	-30.574040
2523.124597	-30.641974
2525.249907	-30.711926
2527.378801	-30.783079
2529.511287	-30.881695
2531.647375	-30.993605
2533.787074	-31.104012
2535.930393	-31.233075
2538.077340	-31.385248
2540.227927	-31.526572
2542.382160	-31.667509
2544.540051	-31.848889
2546.701608	-32.044713
2548.866840	-32.213925
2551.035757	-32.417685
2553.208369	-32.654431
2555.384684	-32.846373
2557.564713	-33.060255
2559.748465	-33.330092
2561.935948	-33.554762
2564.127174	-33.797491
2566.322152	-34.101886
2568.520890	-34.346082
2570.723399	-34.553079
2572.929689	-34.823699
2575.139769	-35.018448
2577.353649	-35.137001
2579.571340	-35.270209
2581.792849	-35.329665
2584.018189	-35.334479
2586.247368	-35.362198
2588.480396	-35.338847
2590.717284	-35.296860
2592.958041	-35.305572
2595.202678	-35.330315
2597.451204	-35.374926
2599.703630	-35.434438
2601.959966	-35.478454
2604.220222	-35.551817
2606.484408	-35.649465
2608.752535	-35.718309
2611.024612	-35.776854
2613.300651	-35.925740
2615.580661	-36.069137
2617.864653	-36.162469
2620.152638	-36.331980
2622.444625	-36.545784
2624.740626	-36.727340
2627.040651	-36.942411
2629.344710	-37.205082
2631.652814	-37.462822
2633.964974	-37.781566
2636.281200	-38.095661
2638.601504	-38.418920
2640.925896	-38.837866
2643.254386	-39.278781
2645.586987	-39.628767
2647.923707	-39.974249
2650.264559	-40.387790
2652.609554	-40.629257
2654.958702	-40.716299
2657.312015	-40.873315
2659.669503	-40.910888
2662.031178	-40.835098
2664.397051	-40.836463
2666.767132	-40.882268
2669.141434	-40.900993
2671.519968	-40.919852
2673.902745	-40.923345
2676.289776	-40.964518
2678.681072	-40.943155
2681.076646	-40.860125
2683.476508	-40.863839
2685.880671	-40.885218
2688.289145	-40.828423
2690.701942	-40.848269
2693.119075	-40.884461
2695.540554	-40.882504
2697.966391	-40.920416
2700.396599	-40.974949
2702.831189	-41.069130
2705.270172	-41.223421
2707.713561	-41.403317
2710.161368	-41.619892
2712.613605	-41.987708
2715.070283	-42.361608
2717.531416	-42.754058
2719.997014	-43.239284
2722.467090	-43.678727
2724.941657	-44.105260
2727.420726	-44.593968
2729.904310	-44.979916
2732.392421	-45.285540
2734.885072	-45.564167
2737.382275	-45.886650
2739.884042	-46.066384
2742.390387	-46.330863
2744.901321	-46.764996
2747.416857	-46.937050
2749.937008	-47.280670
2752.461787	-47.568323
2754.991206	-47.567366
2757.525279	-47.758315
2760.064017	-47.880219
2762.607434	-47.777085
2765.155544	-47.809270
2767.708358	-47.702213
2770.265890	-47.394080
2772.828153	-47.243744
2775.395160	-47.011485
2777.966924	-46.654960
2780.543459	-46.517960
2783.124778	-46.376191
2785.710894	-46.215871
2788.301821	-46.290025
2790.897572	-46.405021
2793.498160	-46.571783
2796.103599	-46.895745
2798.713903	-47.218401
2801.329085	-47.570282
2803.949159	-47.971804
2806.574139	-48.329318
2809.204038	-48.612469
2811.838871	-48.744357
2814.478650	-48.932540
2817.123391	-48.960719
2819.773107	-49.214185
2822.427812	-49.496046
2825.087521	-49.775691
2827.752247	-50.303349
2830.422005	-50.649063
2833.096808	-51.156161
2835.776672	-51.557291
2838.461611	-52.054354
2841.151638	-52.798753
2843.846769	-53.452790
2846.547019	-54.382532
2849.252401	-55.347074
2851.962930	-55.870263
2854.678621	-56.101777
2857.399489	-56.220988
2860.125549	-55.519093
2862.856815	-55.027348
2865.593302	-54.343199
2868.335026	-53.835209
2871.082002	-53.678595
2873.834244	-53.261205
2876.591767	-53.327199
2879.354588	-53.401444
2882.122721	-53.662206
2884.896181	-53.943656
2887.674984	-54.368670
2890.459146	-54.653662
2893.248681	-54.786409
2896.043606	-54.562848
2898.843937	-54.524747
2901.649687	-54.563468
2904.460875	-54.556498
2907.277515	-54.600228
2910.099623	-54.625794
2912.927215	-54.695961
2915.760308	-54.555574
2918.598916	-54.288464
2921.443057	-54.329062
2924.292747	-54.352667
2927.148002	-54.655123
2930.008837	-55.024848
2932.875270	-55.554374
2935.747318	-56.354241
2938.624995	-57.209175
2941.508320	-58.467982
2944.397308	-59.685759
2947.291977	-60.924706
2950.192343	-61.848547
2953.098423	-62.309563
2956.010234	-62.276449
2958.927792	-61.960067
2961.851116	-61.403573
2964.780221	-61.095481
2967.715126	-60.767122
2970.655847	-61.030263
2973.602402	-61.762097
2976.554808	-62.040809
2979.513083	-62.276638
2982.477243	-62.160881
2985.447308	-62.135535
2988.423293	-62.394371
2991.405218	-62.339125
2994.393099	-63.699269
2997.386955	-64.242045
