# 2022-03-21_23.45.40
# shape = sech2
# FWHM_ps = 0.1
# carrier_nm = 1542
# frep_MHz = 12126
# pow_mW = 8000
# GDD = 0.0
# propa_len = 0.13244444444444445
# untap_len = 0.01
# taper_len = 0.07244444444444445
# waist_len = 0.02
# uptap_len = 0.02
# untap_scale = 1.0
# waist_scale = 0.1473684210526316
# workingDir = NL_20110305_12 (Spirou)
# axis = slow
# window_ps = 10.0
# steps = 200
# points = 21700
# 
# wavelength [nm]	 power spectral density [dB]
600.043425	-81.461224
600.163550	-83.360979
600.283723	-84.645869
600.403943	-87.106491
600.524212	-92.357088
600.644529	-90.224739
600.764895	-84.901715
600.885308	-81.322631
601.005770	-81.640666
601.126280	-82.695919
601.246839	-82.805538
601.367446	-86.674097
601.488101	-95.902729
601.608804	-92.982762
601.729557	-86.054577
601.850357	-82.450310
601.971206	-84.282904
602.092104	-87.139100
602.213050	-88.204058
602.334045	-89.679074
602.455089	-87.654226
602.576181	-85.654597
602.697322	-82.839130
602.818511	-82.268002
602.939749	-84.557379
603.061036	-88.978676
603.182372	-102.099141
603.303757	-90.469166
603.425191	-85.051719
603.546673	-81.862442
603.668204	-80.230248
603.789785	-80.925016
603.911414	-81.266241
604.033092	-81.806269
604.154820	-82.980288
604.276596	-82.110599
604.398422	-78.768238
604.520297	-76.392023
604.642220	-76.611800
604.764193	-77.098490
604.886216	-76.805302
605.008287	-79.301897
605.130408	-85.043793
605.252578	-86.362528
605.374798	-82.910455
605.497066	-82.491351
605.619385	-85.716981
605.741752	-83.447186
605.864169	-85.513871
605.986636	-92.109555
606.109152	-85.858924
606.231718	-88.218210
606.354333	-84.342000
606.476998	-83.488108
606.599712	-88.948443
606.722476	-89.913054
606.845290	-97.439918
606.968154	-88.641816
607.091067	-86.439216
607.214030	-83.223761
607.337043	-81.508952
607.460106	-83.211721
607.583219	-85.062563
607.706381	-88.954786
607.829594	-103.022519
607.952856	-89.015148
608.076169	-85.836116
608.199531	-82.689997
608.322944	-83.373660
608.446407	-86.342953
608.569920	-88.395920
608.693483	-94.692755
608.817096	-88.443442
608.940759	-84.223638
609.064473	-80.589988
609.188237	-80.236766
609.312051	-81.129961
609.435916	-81.776193
609.559831	-85.533236
609.683796	-90.466762
609.807812	-90.533845
609.931878	-87.602743
610.055995	-84.520120
610.180162	-85.726799
610.304380	-86.361039
610.428648	-89.585045
610.552967	-93.337859
610.677337	-92.297093
610.801757	-86.137925
610.926228	-83.549946
611.050750	-81.461395
611.175323	-79.909283
611.299946	-80.218902
611.424620	-81.266053
611.549345	-83.711539
611.674121	-89.339818
611.798948	-88.148810
611.923826	-82.473811
612.048755	-79.604420
612.173734	-79.544305
612.298765	-79.366005
612.423847	-81.070450
612.548980	-85.348839
612.674165	-86.779066
612.799400	-87.984658
612.924687	-83.514203
613.050025	-83.850695
613.175414	-85.591739
613.300854	-88.632461
613.426346	-103.844799
613.551889	-89.014704
613.677484	-84.594800
613.803130	-80.406508
613.928827	-80.909223
614.054576	-80.452527
614.180377	-81.293340
614.306229	-90.686104
614.432132	-86.480079
614.558087	-89.730644
614.684094	-80.797156
614.810153	-81.600762
614.936263	-85.089206
615.062425	-82.628000
615.188639	-98.691741
615.314904	-83.756272
615.441222	-86.716791
615.567591	-78.936654
615.694012	-78.076593
615.820486	-86.021556
615.947011	-81.083499
616.073588	-90.351489
616.200217	-82.835065
616.326898	-84.511156
616.453632	-82.093333
616.580417	-78.272516
616.707255	-87.491174
616.834144	-87.496537
616.961086	-89.813806
617.088081	-79.278744
617.215127	-80.309259
617.342226	-80.261466
617.469378	-76.659048
617.596581	-84.439290
617.723837	-82.823665
617.851146	-88.242566
617.978507	-82.404789
618.105920	-79.695006
618.233386	-82.303312
618.360905	-78.528524
618.488476	-83.255339
618.616100	-91.422261
618.743777	-101.899520
618.871506	-82.873563
618.999288	-80.181167
619.127123	-79.234038
619.255011	-76.913219
619.382951	-78.076701
619.510945	-78.504230
619.638991	-81.327352
619.767090	-87.396045
619.895243	-95.451207
620.023448	-84.436199
620.151706	-83.162685
620.280017	-79.858497
620.408382	-80.027457
620.536799	-82.845933
620.665270	-79.927956
620.793794	-85.706279
620.922371	-80.459128
621.051002	-83.776822
621.179686	-84.180503
621.308423	-82.636574
621.437213	-88.610239
621.566057	-80.630162
621.694954	-102.514526
621.823905	-80.567302
621.952909	-89.875793
622.081967	-78.713730
622.211079	-79.006506
622.340244	-81.658726
622.469462	-76.188288
622.598735	-86.278510
622.728061	-79.987332
622.857441	-86.077398
622.986874	-80.172407
623.116361	-79.982833
623.245903	-82.675244
623.375498	-76.889393
623.505147	-88.048849
623.634850	-83.530991
623.764606	-91.096261
623.894417	-78.406213
624.024282	-80.406444
624.154201	-77.973442
624.284174	-75.699486
624.414202	-84.268484
624.544283	-80.106029
624.674419	-92.985657
624.804609	-80.115456
624.934853	-80.371488
625.065151	-76.607736
625.195504	-74.914206
625.325911	-79.684053
625.456373	-82.158290
625.586889	-83.982534
625.717460	-79.784765
625.848085	-78.196211
625.978764	-75.764900
626.109498	-76.834054
626.240287	-82.087672
626.371131	-91.977898
626.502029	-83.913017
626.632982	-77.753415
626.763989	-75.481206
626.895052	-75.309964
627.026169	-77.022501
627.157341	-79.492037
627.288568	-87.604266
627.419850	-87.068145
627.551187	-78.581228
627.682579	-75.017996
627.814026	-75.061220
627.945528	-72.949544
628.077085	-73.769082
628.208697	-77.608291
628.340364	-77.919249
628.472087	-78.499235
628.603865	-78.135304
628.735698	-74.405695
628.867586	-70.767406
628.999530	-72.871316
629.131529	-73.001412
629.263584	-73.505466
629.395694	-81.385323
629.527859	-85.392818
629.660080	-75.113156
629.792357	-73.519200
629.924689	-76.797711
630.057077	-73.006095
630.189520	-77.077009
630.322019	-83.513778
630.454574	-84.429252
630.587184	-79.675724
630.719851	-78.188611
630.852573	-81.447686
630.985351	-75.976694
631.118185	-90.652593
631.251075	-78.082452
631.384021	-84.249954
631.517023	-76.619963
631.650081	-77.077523
631.783195	-87.985598
631.916365	-82.642601
632.049592	-82.413775
632.182874	-77.123314
632.316213	-78.850279
632.449608	-73.327815
632.583059	-76.776250
632.716567	-80.202785
632.850131	-81.713985
632.983751	-85.775755
633.117428	-82.476692
633.251161	-81.951947
633.384951	-77.002468
633.518797	-79.745515
633.652700	-74.540948
633.786660	-75.897504
633.920676	-77.222903
634.054749	-77.886630
634.188879	-90.578211
634.323065	-87.204494
634.457308	-80.155382
634.591608	-75.260596
634.725965	-77.946862
634.860379	-78.638448
634.994850	-81.485403
635.129377	-84.455859
635.263962	-80.395677
635.398604	-81.223162
635.533303	-76.681314
635.668058	-84.953746
635.802872	-80.867466
635.937742	-88.832480
636.072669	-77.784154
636.207654	-79.715807
636.342696	-77.915125
636.477796	-76.848150
636.612953	-83.297067
636.748167	-77.453864
636.883439	-88.262202
637.018768	-77.990619
637.154155	-91.904428
637.289599	-78.447366
637.425101	-85.932096
637.560660	-75.586050
637.696277	-77.268909
637.831952	-76.811020
637.967685	-75.277001
638.103475	-87.681678
638.239324	-80.421404
638.375230	-85.766358
638.511194	-77.233115
638.647215	-82.390020
638.783295	-73.950893
638.919433	-78.924095
639.055629	-76.197840
639.191883	-78.622940
639.328195	-86.081062
639.464565	-88.604496
639.600994	-77.488285
639.737481	-76.245240
639.874025	-77.909966
640.010629	-74.358405
640.147290	-83.109957
640.284010	-75.855534
640.420789	-83.495595
640.557625	-79.369731
640.694521	-86.716204
640.831474	-79.990837
640.968487	-82.942117
641.105558	-77.203260
641.242687	-76.986076
641.379876	-79.328898
641.517123	-75.970041
641.654429	-82.251619
641.791793	-76.954916
641.929216	-87.747270
642.066699	-84.166213
642.204240	-86.501451
642.341840	-75.560722
642.479499	-77.278182
642.617217	-74.327149
642.754994	-75.355773
642.892830	-79.986882
643.030726	-80.723756
643.168680	-84.257545
643.306694	-78.390373
643.444767	-81.351832
643.582899	-78.081162
643.721091	-83.781673
643.859342	-78.498573
643.997652	-82.052728
644.136022	-78.044850
644.274451	-79.708399
644.412940	-78.955898
644.551488	-78.522333
644.690096	-81.913947
644.828763	-81.009869
644.967490	-82.812776
645.106277	-76.812080
645.245124	-76.630766
645.384030	-72.824039
645.522997	-78.025988
645.662023	-78.371069
645.801109	-88.221800
645.940255	-79.751661
646.079460	-84.380673
646.218726	-75.568602
646.358052	-80.041214
646.497438	-75.505022
646.636884	-76.098972
646.776391	-76.300587
646.915957	-75.501085
647.055584	-87.781959
647.195271	-82.413804
647.335019	-79.322595
647.474826	-76.458734
647.614695	-77.607471
647.754623	-74.153886
647.894612	-90.090029
648.034662	-81.042977
648.174772	-81.164276
648.314943	-73.980962
648.455174	-79.923939
648.595466	-75.862382
648.735819	-88.236959
648.876233	-78.535210
649.016707	-84.432430
649.157242	-76.153373
649.297838	-80.613002
649.438495	-75.859970
649.579213	-77.716146
649.719992	-76.953807
649.860832	-78.845465
650.001733	-87.370255
650.142695	-85.785150
650.283718	-80.510237
650.424803	-77.284365
650.565949	-77.850148
650.707156	-75.246391
650.848424	-81.659391
650.989754	-79.008527
651.131145	-90.243163
651.272597	-76.538792
651.414111	-80.573185
651.555687	-76.333054
651.697324	-87.098322
651.839022	-78.796276
651.980782	-82.672586
652.122604	-73.584217
652.264488	-78.060800
652.406433	-75.172486
652.548441	-78.414241
652.690510	-78.953658
652.832640	-81.404705
652.974833	-80.956014
653.117088	-91.238954
653.259405	-74.460785
653.401784	-75.786960
653.544224	-73.805017
653.686727	-74.290104
653.829293	-84.039225
653.971920	-82.369437
654.114609	-78.349783
654.257361	-78.165833
654.400175	-73.223331
654.543052	-72.397963
654.685991	-77.861202
654.828992	-78.190214
654.972056	-81.862826
655.115183	-78.625583
655.258372	-74.004215
655.401623	-71.096908
655.544937	-74.391125
655.688314	-75.392247
655.831754	-80.002322
655.975256	-83.085994
656.118822	-78.849135
656.262450	-72.801462
656.406141	-78.226135
656.549894	-73.829538
656.693711	-82.212372
656.837591	-73.606174
656.981534	-77.963449
657.125540	-78.714972
657.269610	-79.632228
657.413742	-75.646433
657.557938	-81.380690
657.702196	-71.799607
657.846519	-79.180268
657.990904	-77.354225
658.135353	-85.854419
658.279866	-75.422548
658.424441	-87.193735
658.569081	-76.484652
658.713784	-88.260280
658.858550	-77.671173
659.003381	-86.580145
659.148274	-74.505389
659.293232	-82.889821
659.438253	-76.541703
659.583339	-89.293534
659.728488	-80.348662
659.873701	-87.655890
660.018978	-77.123657
660.164318	-82.489880
660.309723	-79.198905
660.455192	-86.050958
660.600725	-83.533315
660.746323	-90.187304
660.891984	-84.465193
661.037710	-83.090754
661.183500	-76.056316
661.329354	-76.736733
661.475272	-77.835977
661.621255	-78.185443
661.767303	-92.186843
661.913415	-100.993548
662.059591	-76.401913
662.205833	-79.575541
662.352138	-78.802258
662.498509	-82.681571
662.644944	-78.776307
662.791443	-87.065663
662.938008	-76.161815
663.084638	-82.053914
663.231332	-77.559275
663.378091	-80.956109
663.524915	-81.969306
663.671804	-82.483686
663.818759	-77.270970
663.965778	-83.061975
664.112863	-72.606454
664.260012	-79.692410
664.407227	-76.065418
664.554507	-79.564583
664.701853	-91.817139
664.849264	-81.532434
664.996740	-75.768239
665.144282	-84.544078
665.291889	-85.742164
665.439561	-78.689900
665.587300	-77.491562
665.735103	-81.774794
665.882973	-77.690300
666.030908	-94.404975
666.178909	-86.481009
666.326976	-83.644448
666.475109	-76.796597
666.623307	-82.617835
666.771571	-79.544149
666.919902	-78.840702
667.068298	-86.734727
667.216761	-79.705571
667.365289	-80.186407
667.513884	-84.278739
667.662545	-79.619861
667.811272	-84.473914
667.960065	-93.009765
668.108925	-79.513614
668.257851	-80.134408
668.406843	-87.641483
668.555902	-77.935006
668.705027	-81.454754
668.854219	-81.052051
669.003478	-75.943608
669.152803	-84.549072
669.302195	-77.280396
669.451653	-78.695202
669.601179	-84.935620
669.750771	-77.003515
669.900430	-77.308992
670.050156	-81.805383
670.199949	-77.888546
670.349808	-79.139998
670.499735	-81.466364
670.649729	-76.022191
670.799790	-79.105305
670.949918	-83.290741
671.100114	-81.882435
671.250377	-83.796326
671.400707	-103.281618
671.551104	-80.315513
671.701569	-83.779777
671.852101	-85.760870
672.002700	-83.897630
672.153368	-76.853535
672.304102	-84.476033
672.454905	-88.184476
672.605775	-76.044268
672.756713	-77.633565
672.907718	-77.054472
673.058791	-76.627827
673.209933	-90.852152
673.361142	-82.374567
673.512419	-80.045169
673.663764	-84.197881
673.815177	-78.151442
673.966658	-86.888529
674.118207	-83.899507
674.269825	-88.427267
674.421510	-81.416914
674.573264	-91.585499
674.725086	-90.038866
674.876977	-83.331616
675.028936	-77.675702
675.180963	-77.732619
675.333059	-73.822955
675.485224	-79.298272
675.637457	-82.862620
675.789758	-76.023135
675.942129	-74.722135
676.094568	-75.397135
676.247075	-77.492319
676.399652	-82.132257
676.552298	-88.415158
676.705012	-76.970059
676.857795	-81.601507
677.010648	-74.115609
677.163569	-92.551304
677.316560	-78.936898
677.469619	-82.425329
677.622748	-78.995674
677.775946	-77.288367
677.929214	-78.448320
678.082551	-79.816685
678.235957	-83.381994
678.389432	-74.864770
678.542977	-82.140399
678.696592	-76.388291
678.850276	-76.127278
679.004030	-74.286452
679.157853	-84.360837
679.311746	-85.648029
679.465709	-79.685844
679.619742	-74.538065
679.773844	-71.516916
679.928017	-70.582622
680.082259	-75.634482
680.236571	-83.274367
680.390954	-77.204277
680.545406	-74.570141
680.699929	-70.118061
680.854522	-71.495595
681.009185	-73.447559
681.163918	-83.277840
681.318722	-75.101401
681.473596	-81.570422
681.628540	-80.850128
681.783555	-73.658927
681.938641	-71.466283
682.093797	-69.533768
682.249023	-72.214877
682.404321	-79.741391
682.559689	-81.448311
682.715128	-72.283862
682.870637	-70.427200
683.026218	-69.925339
683.181869	-72.553022
683.337591	-76.261266
683.493385	-79.075139
683.649249	-78.240626
683.805185	-74.286136
683.961191	-74.512500
684.117269	-74.245512
684.273418	-72.025615
684.429639	-70.461939
684.585930	-72.000767
684.742294	-82.005553
684.898728	-77.931628
685.055234	-70.566819
685.211812	-70.186080
685.368461	-70.451590
685.525182	-73.528035
685.681975	-75.269179
685.838839	-72.843968
685.995775	-72.043723
686.152783	-70.376084
686.309863	-76.537459
686.467014	-76.925911
686.624238	-72.612228
686.781534	-71.230265
686.938902	-70.259076
687.096342	-73.992172
687.253854	-73.737389
687.411438	-73.576887
687.569095	-73.247088
687.726824	-73.011591
687.884626	-70.621182
688.042499	-70.212307
688.200446	-73.411151
688.358465	-72.785185
688.516556	-72.241891
688.674720	-74.075371
688.832957	-72.012352
688.991266	-71.491777
689.149649	-72.012375
689.308104	-68.387866
689.466632	-68.580633
689.625233	-70.880005
689.783906	-78.584984
689.942653	-73.849563
690.101473	-71.068214
690.260367	-70.672068
690.419333	-67.663560
690.578372	-70.997106
690.737485	-72.678724
690.896672	-73.054890
691.055931	-71.084002
691.215264	-68.964074
691.374671	-70.820778
691.534151	-70.708804
691.693704	-71.896629
691.853332	-69.886074
692.013033	-69.195282
692.172807	-71.227161
692.332656	-71.300962
692.492578	-71.564594
692.652575	-72.125010
692.812645	-70.186086
692.972789	-69.986618
693.133007	-68.880184
693.293300	-68.640445
693.453666	-72.296647
693.614107	-72.541280
693.774622	-69.921373
693.935211	-68.980908
694.095875	-70.922737
694.256613	-69.898111
694.417426	-67.942611
694.578313	-70.234358
694.739274	-68.447285
694.900311	-71.727433
695.061421	-73.832833
695.222607	-69.021494
695.383868	-68.804470
695.545203	-67.513382
695.706613	-71.402278
695.868098	-72.032393
696.029658	-69.235695
696.191293	-68.126224
696.353003	-67.642212
696.514789	-71.130177
696.676649	-74.195845
696.838585	-70.434176
697.000596	-66.133719
697.162682	-65.494319
697.324844	-66.939013
697.487081	-72.499186
697.649394	-77.999972
697.811782	-68.732599
697.974246	-66.582721
698.136786	-65.609305
698.299401	-68.702983
698.462092	-72.882725
698.624859	-71.200228
698.787702	-68.023893
698.950621	-65.985130
699.113616	-69.231557
699.276686	-72.000244
699.439833	-71.223518
699.603056	-69.788782
699.766355	-65.580360
699.929731	-65.926523
700.093183	-68.657322
700.256711	-74.196056
700.420315	-68.507860
700.583996	-66.917562
700.747754	-70.703254
700.911588	-69.758131
701.075499	-68.922722
701.239486	-68.330568
701.403550	-66.645143
701.567691	-66.987228
701.731909	-71.187409
701.896203	-71.291490
702.060575	-67.616849
702.225024	-68.756736
702.389549	-66.902483
702.554152	-66.734266
702.718832	-72.007971
702.883589	-67.524413
703.048424	-68.346539
703.213335	-71.179196
703.378324	-68.081675
703.543391	-69.404757
703.708535	-68.541359
703.873757	-66.694757
704.039056	-67.569112
704.204433	-68.877387
704.369887	-67.759709
704.535420	-68.260383
704.701030	-69.814818
704.866718	-67.294518
705.032484	-68.216690
705.198328	-68.990829
705.364250	-67.442984
705.530250	-71.077596
705.696328	-67.713250
705.862485	-65.824199
706.028720	-67.419323
706.195033	-66.886814
706.361424	-69.990232
706.527894	-72.299011
706.694442	-66.735701
706.861069	-65.173421
707.027775	-64.383177
707.194559	-65.623430
707.361422	-73.247883
707.528363	-69.389439
707.695384	-65.863617
707.862483	-66.589654
708.029661	-66.558653
708.196918	-66.379966
708.364254	-72.231694
708.531670	-66.544018
708.699164	-64.124905
708.866738	-67.107984
709.034391	-65.693293
709.202123	-69.186030
709.369935	-71.570598
709.537826	-66.351170
709.705796	-67.351757
709.873847	-65.651900
710.041976	-66.570563
710.210186	-70.065296
710.378475	-64.558527
710.546844	-64.857566
710.715292	-66.542600
710.883821	-66.384445
711.052429	-68.135355
711.221118	-67.510519
711.389887	-65.550258
711.558735	-65.660556
711.727664	-68.938345
711.896673	-66.811334
712.065763	-63.126089
712.234932	-63.919336
712.404183	-65.355124
712.573513	-72.603809
712.742924	-66.206003
712.912416	-61.385798
713.081988	-63.626116
713.251641	-66.126372
713.421375	-68.880216
713.591190	-67.682219
713.761085	-62.574120
713.931061	-62.481863
714.101119	-65.271281
714.271257	-67.671017
714.441476	-65.982041
714.611777	-62.950267
714.782159	-64.104949
714.952622	-67.566496
715.123166	-64.394535
715.293792	-64.265261
715.464499	-63.639332
715.635288	-64.187713
715.806158	-67.296297
715.977110	-63.835262
716.148143	-62.893020
716.319259	-63.841619
716.490456	-65.200231
716.661735	-66.124861
716.833096	-62.870487
717.004538	-62.574380
717.176063	-63.542335
717.347670	-63.867211
717.519359	-66.560308
717.691130	-63.718183
717.862984	-62.206646
718.034920	-64.159533
718.206938	-62.264890
718.379039	-62.736461
718.551222	-64.031311
718.723488	-63.882251
718.895836	-63.593676
719.068267	-61.542810
719.240781	-62.001978
719.413377	-62.831337
719.586057	-62.042356
719.758819	-66.160904
719.931664	-62.319852
720.104593	-59.203273
720.277604	-63.371676
720.450699	-65.336989
720.623876	-61.859729
720.797137	-61.735354
720.970482	-60.171736
721.143910	-61.881519
721.317421	-64.722853
721.491016	-62.801077
721.664694	-60.405649
721.838456	-58.648179
722.012302	-60.988240
722.186231	-65.629324
722.360244	-62.382251
722.534342	-60.053626
722.708523	-59.198447
722.882788	-59.821803
723.057137	-64.225881
723.231570	-63.650388
723.406088	-59.823210
723.580689	-59.410533
723.755375	-59.200795
723.930146	-60.838638
724.105000	-62.112424
724.279940	-63.023108
724.454963	-60.433259
724.630072	-57.750372
724.805265	-59.048157
724.980543	-61.963862
725.155905	-61.444907
725.331353	-61.633991
725.506885	-59.534712
725.682503	-57.918819
725.858205	-61.239452
726.033993	-61.243884
726.209865	-59.233766
726.385823	-59.909163
726.561866	-58.951138
726.737995	-60.686268
726.914209	-60.563013
727.090508	-57.242202
727.266893	-59.455889
727.443364	-62.597220
727.619920	-59.052418
727.796562	-58.677525
727.973290	-58.553998
728.150103	-58.719169
728.327003	-60.813025
728.503988	-59.420554
728.681060	-58.457843
728.858218	-59.505166
729.035461	-59.026931
729.212791	-58.793283
729.390208	-57.773560
729.567710	-57.391017
729.745299	-61.219272
729.922975	-60.388065
730.100737	-57.255630
730.278586	-58.106506
730.456521	-57.452555
730.634543	-58.038990
730.812652	-61.024871
730.990848	-58.730819
731.169130	-56.891975
731.347500	-57.827129
731.525957	-57.425273
731.704500	-59.267373
731.883131	-60.224398
732.061850	-57.336616
732.240655	-57.304580
732.419548	-57.991675
732.598528	-57.668089
732.777596	-58.963716
732.956751	-57.445690
733.135994	-56.110372
733.315325	-59.048120
733.494744	-59.191912
733.674250	-56.889267
733.853844	-57.523746
734.033526	-56.529014
734.213296	-57.098631
734.393154	-59.634033
734.573101	-57.781884
734.753135	-56.831724
734.933258	-57.237058
735.113469	-56.087166
735.293769	-58.670241
735.474157	-59.210301
735.654633	-55.537893
735.835198	-56.687331
736.015852	-59.343270
736.196594	-57.320583
736.377426	-56.376505
736.558346	-55.870971
736.739355	-55.975570
736.920453	-60.472998
737.101640	-58.583555
737.282916	-54.691485
737.464282	-55.670497
737.645736	-57.539144
737.827280	-58.335645
738.008914	-57.284664
738.190637	-55.516773
738.372449	-56.256721
738.554351	-59.220687
738.736342	-56.237848
738.918424	-54.770089
739.100595	-58.222471
739.282855	-58.738835
739.465206	-55.783068
739.647647	-56.066715
739.830178	-56.574642
740.012799	-57.202130
740.195510	-57.811031
740.378311	-56.036986
740.561203	-54.978696
740.744185	-57.720360
740.927258	-59.096179
741.110421	-56.129881
741.293674	-55.807848
741.477018	-55.417013
741.660453	-55.811968
741.843979	-59.520958
742.027596	-58.365569
742.211303	-54.808772
742.395102	-55.581776
742.578991	-56.149401
742.762972	-57.327197
742.947044	-58.473993
743.131207	-55.493629
743.315461	-54.495764
743.499807	-58.800579
743.684244	-58.984396
743.868773	-55.184987
744.053394	-55.322375
744.238106	-56.631641
744.422910	-58.002214
744.607805	-57.256749
744.792793	-55.547554
744.977872	-55.487068
745.163044	-58.348584
745.348307	-57.889855
745.533663	-55.156053
745.719111	-55.899305
745.904651	-58.200391
746.090283	-57.752357
746.276008	-56.497492
746.461826	-56.536698
746.647735	-55.829027
746.833738	-57.237141
747.019833	-58.611013
747.206021	-56.218162
747.392302	-55.875218
747.578676	-57.913849
747.765143	-57.790356
747.951703	-56.923798
748.138356	-56.449425
748.325102	-55.991526
748.511941	-57.202979
748.698874	-58.623940
748.885900	-58.295368
749.073019	-56.452767
749.260232	-56.042442
749.447539	-57.706797
749.634939	-58.250614
749.822433	-56.926693
750.010021	-57.351307
750.197703	-56.547411
750.385479	-57.234621
750.573348	-59.924666
750.761312	-58.323960
750.949370	-56.447755
751.137523	-57.443109
751.325769	-57.565337
751.514110	-57.901857
751.702545	-59.359064
751.891075	-59.256842
752.079700	-57.045075
752.268419	-56.451370
752.457233	-57.988776
752.646142	-59.487869
752.835145	-58.941733
753.024244	-57.387045
753.213437	-56.176617
753.402726	-59.461232
753.592110	-63.387518
753.781589	-57.195526
753.971163	-55.253661
754.160833	-60.018872
754.350598	-63.014504
754.540459	-57.662757
754.730415	-56.365131
754.920467	-59.029017
755.110615	-63.683607
755.300858	-58.894294
755.491198	-56.694955
755.681633	-57.788479
755.872164	-62.360170
756.062792	-60.874467
756.253515	-57.848985
756.444335	-57.089793
756.635252	-63.321657
756.826264	-62.722888
757.017373	-58.072170
757.208579	-58.961423
757.399881	-64.352917
757.591280	-61.691601
757.782776	-58.425571
757.974368	-61.430638
758.166058	-64.271883
758.357844	-60.061135
758.549728	-60.598677
758.741708	-63.432169
758.933786	-62.576200
759.125961	-62.645948
759.318233	-59.597709
759.510603	-59.430286
759.703071	-64.823797
759.895635	-62.804929
760.088298	-59.709393
760.281058	-61.086300
760.473916	-65.102014
760.666872	-64.108337
760.859926	-63.842155
761.053078	-62.120870
761.246328	-63.155941
761.439676	-67.039728
761.633122	-64.053757
761.826667	-60.839624
762.020310	-64.912500
762.214052	-74.717534
762.407892	-61.984050
762.601831	-60.205378
762.795868	-65.528321
762.990004	-71.937233
763.184239	-63.008594
763.378573	-60.884773
763.573006	-63.611703
763.767538	-73.128903
763.962169	-63.107507
764.156900	-61.692462
764.351729	-62.942568
764.546658	-67.557583
764.741687	-66.891885
764.936815	-61.934476
765.132042	-61.575322
765.327370	-68.223198
765.522797	-65.012907
765.718324	-61.785656
765.913950	-62.852125
766.109677	-68.716418
766.305504	-61.384050
766.501431	-59.759495
766.697458	-64.802203
766.893586	-65.040250
767.089814	-61.464828
767.286142	-61.233154
767.482571	-62.145745
767.679100	-64.602046
767.875730	-61.987446
768.072461	-59.822843
768.269293	-61.703384
768.466225	-62.232834
768.663259	-60.736388
768.860393	-60.342283
769.057629	-61.447544
769.254966	-60.513099
769.452404	-58.134257
769.649944	-59.241576
769.847585	-63.354808
770.045328	-59.170969
770.243172	-57.302802
770.441118	-57.619798
770.639166	-60.875227
770.837315	-60.071593
771.035567	-56.535277
771.233920	-57.097488
771.432376	-59.653909
771.630934	-58.096962
771.829594	-56.522697
772.028356	-56.379190
772.227220	-58.537991
772.426188	-58.081679
772.625257	-55.302495
772.824430	-55.333235
773.023705	-58.205862
773.223083	-58.261029
773.422563	-53.936004
773.622147	-53.619103
773.821834	-58.295546
774.021624	-57.111078
774.221517	-53.319645
774.421513	-54.392416
774.621613	-56.633021
774.821816	-54.540375
775.022122	-53.833453
775.222532	-54.873220
775.423046	-54.558446
775.623664	-54.720256
775.824385	-53.425818
776.025211	-52.456543
776.226140	-55.151185
776.427173	-54.481536
776.628311	-51.784267
776.829553	-52.894876
777.030899	-53.746466
777.232350	-53.076123
777.433905	-53.168441
777.635564	-52.718901
777.837328	-51.999195
778.039197	-51.690018
778.241171	-52.924410
778.443250	-52.780720
778.645433	-51.031075
778.847722	-51.838811
779.050116	-52.426978
779.252615	-50.848061
779.455219	-51.367592
779.657929	-52.464595
779.860744	-50.635054
780.063665	-50.226845
780.266691	-51.710694
780.469823	-50.835226
780.673061	-50.077251
780.876405	-51.552849
781.079855	-50.539492
781.283410	-49.586172
781.487072	-50.602732
781.690840	-50.356504
781.894715	-49.993259
782.098695	-50.154507
782.302783	-49.790047
782.506976	-49.579418
782.711277	-49.768362
782.915684	-49.500342
783.120198	-49.070090
783.324818	-50.111466
783.529546	-49.561471
783.734381	-47.660386
783.939322	-48.985843
784.144372	-50.816877
784.349528	-47.995691
784.554792	-47.685129
784.760163	-49.900708
784.965642	-48.605363
785.171228	-47.380890
785.376922	-48.853259
785.582724	-48.956465
785.788634	-47.758981
785.994651	-48.043651
786.200777	-47.984501
786.407011	-47.759221
786.613353	-48.347404
786.819804	-47.795339
787.026363	-46.931571
787.233030	-47.935953
787.439806	-48.316491
787.646691	-46.459940
787.853684	-46.881540
788.060786	-48.454702
788.267997	-46.999183
788.475317	-46.688912
788.682746	-47.159737
788.890285	-46.596992
789.097932	-47.030466
789.305689	-47.354616
789.513555	-46.320011
789.721531	-46.151601
789.929617	-47.226846
790.137812	-46.588013
790.346117	-45.582319
790.554531	-46.853727
790.763056	-46.764264
790.971691	-45.674521
791.180436	-46.362367
791.389291	-45.950511
791.598256	-45.541891
791.807332	-46.671650
792.016518	-46.212567
792.225815	-44.941755
792.435222	-45.738252
792.644740	-46.552986
792.854369	-45.129708
793.064109	-45.112035
793.273960	-45.998081
793.483922	-45.278518
793.693995	-45.307046
793.904180	-45.725439
794.114475	-44.740237
794.324882	-44.658625
794.535401	-46.174476
794.746031	-45.286583
794.956774	-43.909339
795.167627	-45.062780
795.378593	-45.765814
795.589671	-44.579019
795.800861	-44.261748
796.012162	-44.692403
796.223577	-44.922198
796.435103	-44.912534
796.646742	-44.364510
796.858493	-43.952973
797.070357	-45.095730
797.282334	-44.494775
797.494423	-43.462650
797.706626	-44.921902
797.918941	-44.956985
798.131369	-43.415038
798.343911	-43.790287
798.556566	-45.067385
798.769334	-44.060188
798.982215	-43.019124
799.195210	-44.418541
799.408319	-44.524546
799.621541	-43.444141
799.834877	-43.680862
800.048327	-43.887198
800.261890	-43.913945
800.475568	-43.666691
800.689360	-43.540768
800.903266	-43.565351
801.117287	-44.181396
801.331422	-43.534215
801.545671	-42.477360
801.760036	-43.973320
801.974514	-44.194244
802.189108	-42.600502
802.403816	-42.983422
802.618640	-44.151589
802.833578	-43.475613
803.048632	-42.499995
803.263800	-43.538663
803.479085	-43.372295
803.694484	-42.815435
803.909999	-43.163113
804.125630	-42.804019
804.341376	-43.543527
804.557239	-43.006180
804.773217	-42.236178
804.989311	-43.162484
805.205521	-43.712945
805.421847	-42.339407
805.638290	-41.971521
805.854849	-43.947697
806.071524	-42.764278
806.288316	-41.714799
806.505225	-43.274203
806.722250	-43.270818
806.939393	-41.961632
807.156652	-42.320992
807.374028	-43.481288
807.591521	-42.183274
807.809132	-42.127354
808.026859	-43.180440
808.244705	-42.287933
808.462667	-42.196391
808.680748	-42.642995
808.898946	-42.654677
809.117261	-42.378674
809.335695	-42.287032
809.554246	-42.016725
809.772916	-42.445713
809.991704	-43.042481
810.210610	-41.793531
810.429634	-41.740514
810.648777	-42.988915
810.868039	-42.412194
811.087419	-41.390781
811.306918	-42.601564
811.526535	-42.698804
811.746272	-41.245860
811.966127	-42.289716
812.186102	-42.671553
812.406196	-41.798501
812.626409	-41.822030
812.846742	-42.450721
813.067194	-42.041016
813.287766	-41.552414
813.508457	-42.381913
813.729269	-42.151253
813.950200	-41.890183
814.171251	-41.836381
814.392422	-41.834478
814.613714	-42.201925
814.835126	-41.985697
815.056658	-41.781232
815.278311	-41.834629
815.500084	-42.048224
815.721978	-41.607606
815.943993	-41.995318
816.166128	-42.245196
816.388385	-41.406179
816.610762	-41.755691
816.833261	-42.388845
817.055881	-41.555801
817.278623	-41.293299
817.501486	-42.540262
817.724471	-41.871630
817.947577	-41.117991
818.170805	-42.040028
818.394155	-42.255398
818.617627	-41.264043
818.841221	-41.664413
819.064937	-42.597486
819.288775	-41.133475
819.512736	-41.557284
819.736819	-42.268189
819.961025	-41.567375
820.185354	-41.701761
820.409805	-41.807066
820.634379	-41.761428
820.859076	-41.559008
821.083897	-41.998022
821.308840	-41.653447
821.533907	-41.508528
821.759097	-41.905714
821.984411	-41.814274
822.209848	-41.615547
822.435409	-41.598575
822.661093	-41.712034
822.886902	-41.692316
823.112834	-42.137224
823.338891	-41.343685
823.565072	-41.476620
823.791377	-42.273965
824.017807	-41.573849
824.244361	-41.363738
824.471039	-42.077260
824.697843	-42.050192
824.924771	-41.060655
825.151824	-42.206783
825.379002	-42.096927
825.606306	-41.058069
825.833734	-41.983958
826.061288	-42.296451
826.288967	-41.579505
826.516772	-41.518302
826.744703	-42.331802
826.972759	-41.572339
827.200941	-41.548965
827.429249	-42.320644
827.657683	-41.957721
827.886243	-41.431838
828.114930	-41.925597
828.343743	-42.312228
828.572682	-41.353813
828.801748	-41.911861
829.030941	-42.065083
829.260260	-41.785299
829.489706	-41.901420
829.719280	-42.063058
829.948980	-41.859441
830.178808	-41.558825
830.408763	-42.002888
830.638845	-42.181226
830.869055	-41.891801
831.099393	-41.642514
831.329858	-42.487690
831.560451	-41.745205
831.791173	-41.651872
832.022022	-42.461872
832.252999	-41.996387
832.484105	-41.691712
832.715339	-42.187564
832.946702	-42.578234
833.178193	-41.556439
833.409813	-42.212805
833.641561	-42.360282
833.873439	-41.798173
834.105445	-42.133644
834.337581	-42.578596
834.569846	-42.070994
834.802241	-41.812788
835.034764	-42.589188
835.267418	-42.074794
835.500201	-41.957451
835.733114	-42.476992
835.966157	-42.282456
836.199329	-41.843936
836.432632	-42.604857
836.666065	-42.276893
836.899629	-41.930954
837.133323	-42.567059
837.367147	-42.250512
837.601102	-42.017005
837.835188	-42.266847
838.069405	-42.617062
838.303752	-42.247122
838.538231	-42.140390
838.772841	-42.503768
839.007582	-42.430525
839.242455	-42.078261
839.477459	-42.640841
839.712595	-42.398981
839.947863	-42.219997
840.183263	-42.607511
840.418794	-42.443558
840.654458	-42.402298
840.890254	-42.520580
841.126182	-42.713942
841.362242	-42.190898
841.598435	-42.374434
841.834761	-42.723666
842.071220	-42.503772
842.307811	-42.258587
842.544536	-42.791826
842.781393	-42.549830
843.018384	-42.043708
843.255508	-43.024541
843.492765	-42.314228
843.730156	-42.181886
843.967681	-42.915721
844.205339	-42.396692
844.443132	-42.094906
844.681058	-42.908232
844.919118	-42.570198
845.157313	-42.011770
845.395642	-42.897538
845.634105	-42.392931
845.872703	-42.169840
846.111436	-42.418082
846.350303	-42.975086
846.589306	-41.783029
846.828443	-42.527727
847.067716	-42.947706
847.307124	-41.775759
847.546667	-42.459978
847.786345	-42.673090
848.026160	-42.085784
848.266110	-42.213094
848.506195	-42.678220
848.746417	-41.988687
848.986775	-42.332348
849.227269	-42.303270
849.467899	-42.405053
849.708666	-41.795051
849.949569	-42.709419
850.190609	-41.902333
850.431785	-42.195058
850.673099	-42.166597
850.914549	-42.058409
851.156137	-42.017737
851.397861	-42.387281
851.639723	-41.853291
851.881723	-41.838755
852.123860	-42.457528
852.366135	-41.567101
852.608547	-42.158057
852.851098	-41.861075
853.093786	-42.039380
853.336613	-41.596006
853.579578	-42.204589
853.822681	-41.375626
854.065923	-42.036907
854.309304	-41.500764
854.552823	-41.780868
854.796481	-41.686242
855.040278	-41.587291
855.284215	-41.474624
855.528290	-41.491752
855.772505	-41.680903
856.016859	-41.103677
856.261353	-41.482303
856.505987	-41.427415
856.750760	-41.106483
856.995673	-41.190998
857.240727	-41.341977
857.485920	-40.870231
857.731254	-41.107909
857.976729	-41.101568
858.222343	-40.810049
858.468099	-41.013611
858.713995	-40.837218
858.960032	-40.638692
859.206211	-40.842699
859.452530	-40.728101
859.698991	-40.348198
859.945593	-40.819359
860.192336	-40.421667
860.439222	-40.283890
860.686248	-40.622317
860.933417	-40.308519
861.180728	-40.036312
861.428181	-40.444665
861.675776	-40.085660
861.923514	-39.893460
862.171394	-40.144396
862.419417	-39.916176
862.667582	-39.722387
862.915890	-40.019346
863.164342	-39.635694
863.412936	-39.616638
863.661674	-39.931492
863.910555	-39.179996
864.159579	-39.604017
864.408747	-39.690430
864.658059	-39.082175
864.907515	-39.273448
865.157114	-39.570332
865.406858	-38.916502
865.656746	-39.166146
865.906778	-39.043360
866.156955	-39.072166
866.407277	-38.854199
866.657743	-38.813504
866.908354	-38.836770
867.159110	-38.881125
867.410011	-38.534431
867.661057	-38.546430
867.912249	-38.770911
868.163586	-38.403365
868.415069	-38.220688
868.666697	-38.664401
868.918472	-38.135097
869.170392	-38.175649
869.422458	-38.391971
869.674671	-37.765438
869.927030	-38.285058
870.179536	-37.909163
870.432188	-37.806954
870.684987	-37.791036
870.937933	-37.938205
871.191026	-37.400205
871.444266	-37.817293
871.697653	-37.382288
871.951188	-37.589196
872.204870	-37.328571
872.458700	-37.393420
872.712677	-37.083133
872.966803	-37.533766
873.221076	-36.817519
873.475498	-37.268938
873.730068	-36.943424
873.984787	-36.935322
874.239654	-36.861249
874.494669	-36.967308
874.749834	-36.469896
875.005147	-36.999301
875.260610	-36.491734
875.516222	-36.598734
875.771983	-36.479562
876.027894	-36.532335
876.283954	-36.278385
876.540164	-36.528026
876.796524	-36.003066
877.053033	-36.467523
877.309693	-36.087343
877.566503	-36.038715
877.823464	-36.122575
878.080575	-36.048091
878.337837	-35.741920
878.595249	-36.166837
878.852813	-35.594326
879.110528	-35.801275
879.368393	-35.802329
879.626410	-35.584610
879.884579	-35.565174
880.142899	-35.659948
880.401371	-35.291321
880.659994	-35.607874
880.918770	-35.299779
881.177698	-35.248939
881.436778	-35.337192
881.696010	-35.188792
881.955395	-35.055214
882.214933	-35.280752
882.474623	-34.816074
882.734467	-35.073315
882.994463	-35.014510
883.254613	-34.697287
883.514916	-34.984513
883.775372	-34.633613
884.035982	-34.761013
884.296746	-34.706792
884.557664	-34.474630
884.818735	-34.683635
885.079961	-34.408991
885.341341	-34.406790
885.602876	-34.581689
885.864565	-34.124707
886.126409	-34.389503
886.388407	-34.283025
886.650561	-34.049318
886.912870	-34.272609
887.175334	-34.052474
887.437953	-33.948456
887.700728	-34.105699
887.963658	-33.871389
888.226745	-33.854166
888.489987	-34.002820
888.753385	-33.570633
889.016940	-33.954870
889.280651	-33.624286
889.544518	-33.612881
889.808543	-33.765618
890.072723	-33.415722
890.337061	-33.583650
890.601556	-33.536550
890.866208	-33.296264
891.131017	-33.572702
891.395984	-33.175501
891.661109	-33.386000
891.926391	-33.237067
892.191831	-33.095229
892.457429	-33.349299
892.723186	-32.853583
892.989100	-33.233228
893.255173	-32.900549
893.521405	-32.952711
893.787796	-32.926757
894.054345	-32.841278
894.321053	-32.708575
894.587921	-32.907850
894.854948	-32.493913
895.122134	-32.835539
895.389480	-32.513367
895.656986	-32.527115
895.924651	-32.621500
896.192477	-32.300700
896.460463	-32.556722
896.728609	-32.298990
896.996915	-32.255905
897.265382	-32.426852
897.534010	-32.041789
897.802799	-32.240804
898.071749	-32.236699
898.340860	-31.827281
898.610132	-32.336259
898.879566	-31.712432
899.149162	-32.095791
899.418919	-31.864311
899.688838	-31.739174
899.958919	-31.950013
900.229162	-31.625131
900.499568	-31.750324
900.770136	-31.711507
901.040867	-31.499889
901.311761	-31.764131
901.582817	-31.366712
901.854037	-31.610354
902.125420	-31.455973
902.396966	-31.333501
902.668676	-31.513458
902.940550	-31.222348
903.212587	-31.353353
903.484788	-31.261450
903.757153	-31.179416
904.029683	-31.166885
904.302377	-31.204902
904.575236	-30.965941
904.848259	-31.173259
905.121447	-30.887087
905.394800	-31.047860
905.668319	-30.867987
905.942002	-30.920084
906.215852	-30.808259
906.489866	-30.832364
906.764047	-30.772102
907.038393	-30.696885
907.312906	-30.761916
907.587584	-30.573159
907.862429	-30.768098
908.137441	-30.446597
908.412619	-30.730521
908.687964	-30.396435
908.963476	-30.613891
909.239155	-30.437191
909.515002	-30.426300
909.791015	-30.478564
910.067197	-30.336292
910.343546	-30.361887
910.620063	-30.377165
910.896748	-30.217807
911.173601	-30.338011
911.450623	-30.239040
911.727813	-30.169137
912.005171	-30.261562
912.282699	-30.043684
912.560395	-30.268144
912.838261	-29.951445
913.116296	-30.207010
913.394500	-29.969500
913.672874	-29.987496
913.951418	-30.085952
914.230131	-29.829656
914.509015	-30.029649
914.788068	-29.847101
915.067292	-29.859404
915.346687	-29.891183
915.626252	-29.745901
915.905988	-29.814398
916.185895	-29.739163
916.465973	-29.683256
916.746223	-29.735253
917.026644	-29.575888
917.307236	-29.677566
917.588000	-29.490794
917.868937	-29.598586
918.150045	-29.460712
918.431325	-29.435454
918.712778	-29.497360
918.994404	-29.236820
919.276202	-29.487435
919.558173	-29.136562
919.840317	-29.361488
920.122634	-29.158889
920.405125	-29.136837
920.687789	-29.228243
920.970627	-28.940321
921.253639	-29.208173
921.536824	-28.879728
921.820184	-29.080099
922.103718	-28.885020
922.387427	-28.960822
922.671310	-28.868363
922.955368	-28.853077
923.239601	-28.857278
923.524009	-28.762512
923.808592	-28.825878
924.093351	-28.690025
924.378285	-28.797098
924.663396	-28.631048
924.948682	-28.716278
925.234144	-28.613839
925.519782	-28.628014
925.805597	-28.569885
926.091589	-28.546474
926.377757	-28.553530
926.664102	-28.422044
926.950624	-28.525357
927.237323	-28.352522
927.524200	-28.463123
927.811255	-28.258669
928.098487	-28.388934
928.385897	-28.249744
928.673485	-28.245945
928.961251	-28.235473
929.249196	-28.156556
929.537319	-28.203588
929.825621	-28.037375
930.114102	-28.186483
930.402762	-27.988788
930.691601	-28.065017
930.980620	-28.002212
931.269818	-27.937664
931.559196	-28.026479
931.848753	-27.815534
932.138491	-28.002387
932.428409	-27.772225
932.718508	-27.902592
933.008787	-27.796962
933.299246	-27.729796
933.589887	-27.886937
933.880709	-27.571232
934.171712	-27.891425
934.462896	-27.529715
934.754262	-27.775085
935.045810	-27.593836
935.337539	-27.588805
935.629451	-27.673668
935.921545	-27.438948
936.213822	-27.716748
936.506281	-27.370461
936.798922	-27.621706
937.091747	-27.440003
937.384755	-27.464127
937.677946	-27.519190
937.971321	-27.320975
938.264879	-27.569802
938.558621	-27.253731
938.852547	-27.538239
939.146657	-27.249297
939.440952	-27.432797
939.735431	-27.314868
940.030095	-27.308258
940.324943	-27.357651
940.619977	-27.195964
940.915196	-27.377767
941.210600	-27.126651
941.506189	-27.321513
941.801965	-27.128031
942.097926	-27.188841
942.394074	-27.163781
942.690407	-27.054840
942.986927	-27.160532
943.283634	-26.971077
943.580527	-27.067771
943.877608	-26.989576
944.174875	-26.892136
944.472330	-27.039708
944.769972	-26.753223
945.067802	-26.983392
945.365820	-26.756427
945.664026	-26.810782
945.962420	-26.809528
946.261002	-26.679878
946.559773	-26.774351
946.858733	-26.683869
947.157881	-26.615378
947.457219	-26.770681
947.756746	-26.462761
948.056462	-26.775782
948.356368	-26.468772
948.656464	-26.633010
948.956749	-26.573340
949.257225	-26.467696
949.557891	-26.631969
949.858748	-26.408448
950.159796	-26.579414
950.461034	-26.430183
950.762463	-26.465894
951.064084	-26.485681
951.365896	-26.354320
951.667900	-26.498457
951.970095	-26.282751
952.272483	-26.458902
952.575063	-26.258177
952.877835	-26.355625
953.180799	-26.291266
953.483956	-26.193493
953.787307	-26.338937
954.090850	-26.070785
954.394586	-26.281691
954.698516	-26.084157
955.002640	-26.088276
955.306957	-26.148945
955.611469	-25.968387
955.916174	-26.060991
956.221074	-26.011687
956.526169	-25.858404
956.831458	-26.090094
957.136942	-25.749425
957.442622	-25.991395
957.748496	-25.845186
958.054567	-25.759323
958.360833	-25.948726
958.667294	-25.673823
958.973952	-25.855724
959.280806	-25.766786
959.587857	-25.671893
959.895104	-25.852852
960.202548	-25.625417
960.510189	-25.748835
960.818027	-25.734112
961.126062	-25.594392
961.434295	-25.797224
961.742726	-25.557285
962.051355	-25.727931
962.360182	-25.632181
962.669207	-25.590246
962.978431	-25.703832
963.287854	-25.519108
963.597475	-25.686803
963.907296	-25.537297
964.217315	-25.561596
964.527535	-25.643827
964.837954	-25.424261
965.148573	-25.649459
965.459392	-25.459725
965.770411	-25.475759
966.081630	-25.581289
966.393051	-25.345581
966.704672	-25.543474
967.016494	-25.436873
967.328517	-25.322221
967.640742	-25.551087
967.953169	-25.269054
968.265797	-25.401033
968.578627	-25.420620
968.891660	-25.211003
969.204895	-25.445453
969.518332	-25.256108
969.831972	-25.242932
970.145816	-25.410329
970.459862	-25.113821
970.774112	-25.365274
971.088565	-25.197200
971.403223	-25.195447
971.718084	-25.284148
972.033149	-25.110593
972.348419	-25.259027
972.663893	-25.125976
972.979572	-25.161396
973.295456	-25.161677
973.611546	-25.100580
973.927840	-25.109936
974.244340	-25.141123
974.561046	-24.980716
974.877958	-25.176186
975.195076	-24.954868
975.512401	-25.046898
975.829932	-25.049628
976.147670	-24.913174
976.465615	-24.999648
976.783767	-25.001342
977.102126	-24.786343
977.420693	-25.073625
977.739468	-24.778057
978.058451	-24.869374
978.377642	-24.936553
978.697041	-24.693961
979.016649	-24.920479
979.336466	-24.731977
979.656492	-24.762146
979.976727	-24.774857
980.297171	-24.721563
980.617825	-24.670753
980.938689	-24.768257
981.259763	-24.585795
981.581048	-24.734325
981.902542	-24.579961
982.224248	-24.654142
982.546164	-24.593008
982.868291	-24.596137
983.190630	-24.529678
983.513180	-24.648719
983.835942	-24.406904
984.158916	-24.638172
984.482101	-24.458634
984.805500	-24.445608
985.129110	-24.572005
985.452934	-24.376070
985.776970	-24.444116
986.101220	-24.502407
986.425683	-24.316586
986.750359	-24.422953
987.075250	-24.453218
987.400354	-24.229507
987.725673	-24.467117
988.051206	-24.296967
988.376954	-24.298481
988.702916	-24.344217
989.029094	-24.300173
989.355487	-24.253911
989.682095	-24.306734
990.008919	-24.255290
990.335959	-24.272595
990.663216	-24.194833
990.990688	-24.346451
991.318377	-24.111836
991.646283	-24.327514
991.974406	-24.166690
992.302746	-24.256950
992.631304	-24.156521
992.960079	-24.286092
993.289072	-24.148709
993.618283	-24.185695
993.947713	-24.267826
994.277361	-24.117625
994.607227	-24.194358
994.937313	-24.219753
995.267618	-24.129413
995.598142	-24.144351
995.928886	-24.208384
996.259849	-24.103987
996.591033	-24.089656
996.922437	-24.226186
997.254061	-23.975753
997.585906	-24.177380
997.917972	-24.035542
998.250260	-24.059523
998.582768	-24.036060
998.915498	-24.024798
999.248450	-23.994020
999.581624	-23.993664
999.915020	-23.929389
1000.248639	-23.984651
1000.582480	-23.899688
1000.916545	-23.860131
1001.250832	-23.968598
1001.585343	-23.777049
1001.920077	-23.849301
1002.255035	-23.871762
1002.590218	-23.719543
1002.925624	-23.819817
1003.261255	-23.728134
1003.597111	-23.773787
1003.933192	-23.637789
1004.269497	-23.754986
1004.606029	-23.657707
1004.942785	-23.600504
1005.279768	-23.688499
1005.616977	-23.575438
1005.954412	-23.576135
1006.292074	-23.595183
1006.629962	-23.505263
1006.968077	-23.574465
1007.306420	-23.446065
1007.644990	-23.524850
1007.983787	-23.462007
1008.322813	-23.413546
1008.662067	-23.454730
1009.001549	-23.395924
1009.341259	-23.395200
1009.681199	-23.337455
1010.021367	-23.390943
1010.361765	-23.333091
1010.702392	-23.246565
1011.043250	-23.402745
1011.384337	-23.212514
1011.725654	-23.269250
1012.067202	-23.287757
1012.408980	-23.207587
1012.750989	-23.230622
1013.093230	-23.203187
1013.435702	-23.205170
1013.778405	-23.184299
1014.121341	-23.149381
1014.464508	-23.181831
1014.807908	-23.151264
1015.151540	-23.106085
1015.495405	-23.155146
1015.839503	-23.110081
1016.183835	-23.092042
1016.528400	-23.113665
1016.873198	-23.071471
1017.218231	-23.084379
1017.563498	-23.062318
1017.908999	-23.049256
1018.254735	-23.046375
1018.600707	-23.036593
1018.946913	-23.028050
1019.293354	-22.975064
1019.640032	-23.041000
1019.986945	-22.982651
1020.334094	-22.923984
1020.681480	-23.006104
1021.029102	-22.974534
1021.376961	-22.849110
1021.725058	-22.979903
1022.073391	-22.926665
1022.421962	-22.835199
1022.770772	-22.900303
1023.119819	-22.882898
1023.469104	-22.832325
1023.818628	-22.816286
1024.168391	-22.826121
1024.518393	-22.809643
1024.868634	-22.754563
1025.219115	-22.777942
1025.569836	-22.706543
1025.920796	-22.756747
1026.271997	-22.708323
1026.623438	-22.588753
1026.975121	-22.731139
1027.327044	-22.653984
1027.679208	-22.509020
1028.031614	-22.605360
1028.384262	-22.636937
1028.737152	-22.465932
1029.090284	-22.436291
1029.443659	-22.581767
1029.797276	-22.460363
1030.151137	-22.297280
1030.505240	-22.470558
1030.859587	-22.414469
1031.214178	-22.270042
1031.569013	-22.305353
1031.924093	-22.320134
1032.279417	-22.270440
1032.634985	-22.203557
1032.990799	-22.172645
1033.346858	-22.217429
1033.703162	-22.171577
1034.059712	-22.075657
1034.416509	-22.056650
1034.773551	-22.150774
1035.130841	-22.059343
1035.488377	-21.899454
1035.846160	-22.043510
1036.204190	-22.056317
1036.562468	-21.875524
1036.920994	-21.862429
1037.279768	-21.983808
1037.638790	-21.935397
1037.998061	-21.761976
1038.357581	-21.813844
1038.717350	-21.968401
1039.077368	-21.751113
1039.437636	-21.707732
1039.798154	-21.868747
1040.158922	-21.762993
1040.519940	-21.705151
1040.881209	-21.755863
1041.242729	-21.704085
1041.604501	-21.708530
1041.966524	-21.734896
1042.328798	-21.642582
1042.691325	-21.633581
1043.054103	-21.706070
1043.417135	-21.686024
1043.780419	-21.560526
1044.143956	-21.570162
1044.507746	-21.715254
1044.871791	-21.633846
1045.236088	-21.409851
1045.600641	-21.602494
1045.965447	-21.713977
1046.330508	-21.423909
1046.695824	-21.428750
1047.061395	-21.612020
1047.427222	-21.519330
1047.793304	-21.395726
1048.159642	-21.419100
1048.526237	-21.454049
1048.893088	-21.451574
1049.260196	-21.346097
1049.627561	-21.303549
1049.995183	-21.357389
1050.363063	-21.347358
1050.731201	-21.264319
1051.099597	-21.211659
1051.468251	-21.192269
1051.837164	-21.259265
1052.206336	-21.213441
1052.575767	-21.014330
1052.945458	-21.062627
1053.315409	-21.227699
1053.685619	-21.039407
1054.056090	-20.837097
1054.426821	-21.023841
1054.797814	-21.093273
1055.169067	-20.828768
1055.540582	-20.775390
1055.912359	-20.951962
1056.284398	-20.854167
1056.656698	-20.712405
1057.029262	-20.780551
1057.402088	-20.744638
1057.775177	-20.659625
1058.148530	-20.717131
1058.522146	-20.677480
1058.896027	-20.541287
1059.270171	-20.584051
1059.644580	-20.663137
1060.019254	-20.553393
1060.394193	-20.434006
1060.769397	-20.499498
1061.144867	-20.574140
1061.520602	-20.485177
1061.896604	-20.344643
1062.272872	-20.406094
1062.649407	-20.507163
1063.026210	-20.406520
1063.403279	-20.281833
1063.780616	-20.342364
1064.158221	-20.415343
1064.536094	-20.316869
1064.914235	-20.268085
1065.292645	-20.305482
1065.671325	-20.264733
1066.050273	-20.252777
1066.429491	-20.314613
1066.808979	-20.215512
1067.188738	-20.127694
1067.568766	-20.238251
1067.949066	-20.306661
1068.329636	-20.136742
1068.710478	-20.042878
1069.091592	-20.191323
1069.472977	-20.255812
1069.854635	-20.086930
1070.236565	-19.979989
1070.618768	-20.106101
1071.001243	-20.172180
1071.383993	-20.034766
1071.767016	-19.926991
1072.150313	-20.005387
1072.533884	-20.054186
1072.917730	-19.945548
1073.301850	-19.892531
1073.686246	-19.912596
1074.070917	-19.882441
1074.455864	-19.848339
1074.841087	-19.860018
1075.226586	-19.804621
1075.612362	-19.721066
1075.998415	-19.739954
1076.384745	-19.794611
1076.771353	-19.700167
1077.158238	-19.587846
1077.545401	-19.628785
1077.932843	-19.685233
1078.320564	-19.600319
1078.708564	-19.480176
1079.096842	-19.517034
1079.485401	-19.568309
1079.874240	-19.470584
1080.263358	-19.397562
1080.652757	-19.426926
1081.042438	-19.431079
1081.432399	-19.355940
1081.822641	-19.321816
1082.213166	-19.340317
1082.603972	-19.316087
1082.995061	-19.272709
1083.386433	-19.256726
1083.778087	-19.250149
1084.170025	-19.249984
1084.562246	-19.226242
1084.954751	-19.194754
1085.347541	-19.203240
1085.740615	-19.206786
1086.133973	-19.191742
1086.527617	-19.173025
1086.921546	-19.187442
1087.315761	-19.179729
1087.710262	-19.149795
1088.105050	-19.172617
1088.500124	-19.196147
1088.895485	-19.160612
1089.291134	-19.105929
1089.687070	-19.139463
1090.083294	-19.206059
1090.479806	-19.155404
1090.876607	-19.056952
1091.273696	-19.079574
1091.671075	-19.172897
1092.068744	-19.137844
1092.466702	-19.021210
1092.864950	-19.013391
1093.263489	-19.087128
1093.662319	-19.078270
1094.061440	-18.995486
1094.460852	-18.945160
1094.860555	-18.967357
1095.260551	-18.984201
1095.660840	-18.922221
1096.061421	-18.860301
1096.462295	-18.856050
1096.863462	-18.845949
1097.264923	-18.777663
1097.666678	-18.725756
1098.068727	-18.725947
1098.471071	-18.682480
1098.873710	-18.580737
1099.276644	-18.528160
1099.679874	-18.530623
1100.083400	-18.487183
1100.487222	-18.373068
1100.891340	-18.295373
1101.295756	-18.278124
1101.700468	-18.259197
1102.105478	-18.172140
1102.510787	-18.066612
1102.916393	-18.032220
1103.322298	-18.031333
1103.728502	-17.983298
1104.135005	-17.884379
1104.541807	-17.840303
1104.948909	-17.854492
1105.356312	-17.832641
1105.764015	-17.771684
1106.172019	-17.721337
1106.580324	-17.744232
1106.988931	-17.761806
1107.397840	-17.720908
1107.807051	-17.684380
1108.216564	-17.695114
1108.626380	-17.745676
1109.036500	-17.730495
1109.446923	-17.704548
1109.857649	-17.702256
1110.268680	-17.746405
1110.680016	-17.767830
1111.091657	-17.729390
1111.503602	-17.729573
1111.915854	-17.757728
1112.328411	-17.785437
1112.741275	-17.743924
1113.154445	-17.718703
1113.567922	-17.750165
1113.981706	-17.763051
1114.395798	-17.737979
1114.810198	-17.680964
1115.224906	-17.687630
1115.639923	-17.705422
1116.055249	-17.685665
1116.470884	-17.633200
1116.886829	-17.602583
1117.303084	-17.623350
1117.719650	-17.609597
1118.136526	-17.559552
1118.553713	-17.515666
1118.971212	-17.527881
1119.389022	-17.543986
1119.807145	-17.492860
1120.225580	-17.431728
1120.644328	-17.420626
1121.063389	-17.457857
1121.482763	-17.447605
1121.902452	-17.371654
1122.322454	-17.320565
1122.742771	-17.334291
1123.163404	-17.364382
1123.584351	-17.323508
1124.005614	-17.248949
1124.427193	-17.203296
1124.849089	-17.206526
1125.271301	-17.204230
1125.693830	-17.157337
1126.116677	-17.097946
1126.539842	-17.047852
1126.963324	-17.026127
1127.387126	-16.980044
1127.811246	-16.935897
1128.235685	-16.888172
1128.660444	-16.858314
1129.085522	-16.811563
1129.510922	-16.738254
1129.936641	-16.686304
1130.362682	-16.663260
1130.789044	-16.659827
1131.215728	-16.594725
1131.642734	-16.522470
1132.070063	-16.473249
1132.497714	-16.491835
1132.925689	-16.483119
1133.353987	-16.430318
1133.782610	-16.366972
1134.211556	-16.356645
1134.640827	-16.388522
1135.070424	-16.372676
1135.500345	-16.329940
1135.930593	-16.287939
1136.361166	-16.331407
1136.792067	-16.361757
1137.223294	-16.354952
1137.654848	-16.291944
1138.086730	-16.280183
1138.518940	-16.324276
1138.951479	-16.370263
1139.384346	-16.366451
1139.817543	-16.318893
1140.251069	-16.313278
1140.684925	-16.332291
1141.119111	-16.358452
1141.553628	-16.333781
1141.988475	-16.314478
1142.423655	-16.313428
1142.859166	-16.332892
1143.295009	-16.311929
1143.731185	-16.267608
1144.167694	-16.234172
1144.604536	-16.238048
1145.041711	-16.244262
1145.479221	-16.207914
1145.917065	-16.155892
1146.355245	-16.112169
1146.793759	-16.109717
1147.232609	-16.089042
1147.671795	-16.053032
1148.111317	-15.994228
1148.551177	-15.966204
1148.991373	-15.949830
1149.431907	-15.924823
1149.872779	-15.876589
1150.313989	-15.830013
1150.755538	-15.811836
1151.197426	-15.799711
1151.639653	-15.780316
1152.082220	-15.728786
1152.525128	-15.698540
1152.968376	-15.677590
1153.411966	-15.682709
1153.855897	-15.657057
1154.300169	-15.635480
1154.744784	-15.603461
1155.189742	-15.604152
1155.635042	-15.591048
1156.080687	-15.582508
1156.526674	-15.557209
1156.973007	-15.559200
1157.419683	-15.557008
1157.866705	-15.555642
1158.314072	-15.529630
1158.761786	-15.514309
1159.209845	-15.517678
1159.658251	-15.531386
1160.107004	-15.531243
1160.556104	-15.500677
1161.005553	-15.479049
1161.455349	-15.471515
1161.905494	-15.495839
1162.355989	-15.497100
1162.806832	-15.480124
1163.258026	-15.436413
1163.709570	-15.420620
1164.161464	-15.420973
1164.613710	-15.441311
1165.066307	-15.430243
1165.519256	-15.404099
1165.972558	-15.355132
1166.426212	-15.337053
1166.880219	-15.329932
1167.334580	-15.347570
1167.789295	-15.335240
1168.244364	-15.305711
1168.699788	-15.247865
1169.155567	-15.219570
1169.611702	-15.211364
1170.068193	-15.231521
1170.525041	-15.218494
1170.982245	-15.180925
1171.439807	-15.116851
1171.897726	-15.087959
1172.356004	-15.084260
1172.814640	-15.102682
1173.273635	-15.080373
1173.732989	-15.034992
1174.192703	-14.973749
1174.652778	-14.955876
1175.113213	-14.954364
1175.574009	-14.960906
1176.035167	-14.922313
1176.496687	-14.877300
1176.958569	-14.828702
1177.420814	-14.825288
1177.883422	-14.814705
1178.346394	-14.805278
1178.809730	-14.751117
1179.273430	-14.718755
1179.737496	-14.684670
1180.201927	-14.689506
1180.666723	-14.661667
1181.131886	-14.637447
1181.597416	-14.580768
1182.063312	-14.565276
1182.529576	-14.542433
1182.996209	-14.543290
1183.463209	-14.500394
1183.930579	-14.470620
1184.398317	-14.425059
1184.866426	-14.421032
1185.334904	-14.400392
1185.803754	-14.391798
1186.272974	-14.346296
1186.742566	-14.322030
1187.212529	-14.287857
1187.682865	-14.285301
1188.153574	-14.262892
1188.624656	-14.250583
1189.096112	-14.215091
1189.567942	-14.196249
1190.040147	-14.168438
1190.512726	-14.160880
1190.985681	-14.142430
1191.459012	-14.134256
1191.932720	-14.108255
1192.406804	-14.090497
1192.881265	-14.063930
1193.356104	-14.056115
1193.831322	-14.045835
1194.306918	-14.040632
1194.782893	-14.018749
1195.259248	-13.996223
1195.735982	-13.976280
1196.213097	-13.970219
1196.690593	-13.969748
1197.168471	-13.956704
1197.646730	-13.938622
1198.125371	-13.908166
1198.604395	-13.905176
1199.083803	-13.893431
1199.563594	-13.903113
1200.043769	-13.870900
1200.524329	-13.862400
1201.005273	-13.826584
1201.486604	-13.838564
1201.968320	-13.820400
1202.450422	-13.825176
1202.932912	-13.790209
1203.415789	-13.778446
1203.899054	-13.758767
1204.382707	-13.757543
1204.866748	-13.750669
1205.351179	-13.729829
1205.836000	-13.716392
1206.321211	-13.688128
1206.806812	-13.691355
1207.292805	-13.667584
1207.779189	-13.670538
1208.265965	-13.635259
1208.753134	-13.631811
1209.240696	-13.604015
1209.728651	-13.604757
1210.217000	-13.582646
1210.705744	-13.571560
1211.194883	-13.548494
1211.684417	-13.532700
1212.174347	-13.521056
1212.664673	-13.505394
1213.155396	-13.492898
1213.646516	-13.467567
1214.138034	-13.454431
1214.629951	-13.432906
1215.122266	-13.427164
1215.614980	-13.405018
1216.108095	-13.393003
1216.601609	-13.364239
1217.095524	-13.354685
1217.589841	-13.334378
1218.084559	-13.327769
1218.579679	-13.306052
1219.075202	-13.287319
1219.571128	-13.269020
1220.067458	-13.251305
1220.564191	-13.248013
1221.061330	-13.224186
1221.558874	-13.217821
1222.056823	-13.185196
1222.555178	-13.183968
1223.053940	-13.164732
1223.553109	-13.162829
1224.052686	-13.145665
1224.552671	-13.125400
1225.053065	-13.118330
1225.553867	-13.099688
1226.055079	-13.109332
1226.556702	-13.086596
1227.058735	-13.085550
1227.561179	-13.061695
1228.064035	-13.058753
1228.567303	-13.057224
1229.070983	-13.050497
1229.575077	-13.052100
1230.079585	-13.029318
1230.584506	-13.031219
1231.089842	-13.018749
1231.595594	-13.027374
1232.101761	-13.024096
1232.608345	-13.016491
1233.115345	-13.012309
1233.622762	-12.999519
1234.130597	-13.009898
1234.638851	-13.003961
1235.147523	-13.011547
1235.656615	-12.997984
1236.166126	-12.995954
1236.676058	-12.991258
1237.186411	-12.995247
1237.697185	-12.999542
1238.208381	-12.992530
1238.719999	-12.991630
1239.232040	-12.977113
1239.744505	-12.986755
1240.257394	-12.979996
1240.770708	-12.989333
1241.284446	-12.978277
1241.798610	-12.969671
1242.313201	-12.968937
1242.828218	-12.957868
1243.343662	-12.974079
1243.859534	-12.956282
1244.375834	-12.960246
1244.892563	-12.942071
1245.409721	-12.935115
1245.927309	-12.940806
1246.445327	-12.925985
1246.963777	-12.935145
1247.482657	-12.909334
1248.001970	-12.905188
1248.521716	-12.896072
1249.041894	-12.884313
1249.562506	-12.891266
1250.083553	-12.865447
1250.605034	-12.862967
1251.126950	-12.841607
1251.649302	-12.830716
1252.172091	-12.829996
1252.695316	-12.806995
1253.218979	-12.804787
1253.743079	-12.775130
1254.267619	-12.765637
1254.792597	-12.751545
1255.318015	-12.736168
1255.843874	-12.726861
1256.370173	-12.699865
1256.896913	-12.685385
1257.424095	-12.662598
1257.951720	-12.650923
1258.479787	-12.634224
1259.008298	-12.614154
1259.537254	-12.593949
1260.066654	-12.567049
1260.596499	-12.554698
1261.126790	-12.532632
1261.657527	-12.518701
1262.188711	-12.497006
1262.720342	-12.468199
1263.252422	-12.455563
1263.784950	-12.427784
1264.317928	-12.419451
1264.851355	-12.398603
1265.385232	-12.371380
1265.919560	-12.359648
1266.454340	-12.328329
1266.989572	-12.322051
1267.525256	-12.305050
1268.061394	-12.280554
1268.597985	-12.272324
1269.135031	-12.239882
1269.672531	-12.233666
1270.210487	-12.220019
1270.748899	-12.200678
1271.287768	-12.194585
1271.827094	-12.167818
1272.366877	-12.157638
1272.907119	-12.149447
1273.447820	-12.133032
1273.988981	-12.130047
1274.530601	-12.110952
1275.072683	-12.098470
1275.615226	-12.092954
1276.158230	-12.080648
1276.701697	-12.079513
1277.245627	-12.068079
1277.790021	-12.057280
1278.334879	-12.051454
1278.880202	-12.043560
1279.425991	-12.044003
1279.972245	-12.037828
1280.518966	-12.032550
1281.066155	-12.026651
1281.613811	-12.020424
1282.161936	-12.025325
1282.710529	-12.019997
1283.259593	-12.021635
1283.809126	-12.019506
1284.359131	-12.010758
1284.909607	-12.022002
1285.460555	-12.017451
1286.011976	-12.021429
1286.563870	-12.028455
1287.116237	-12.016421
1287.669080	-12.030344
1288.222397	-12.031556
1288.776191	-12.032306
1289.330460	-12.048511
1289.885207	-12.038872
1290.440431	-12.047705
1290.996133	-12.058592
1291.552314	-12.055906
1292.108975	-12.074413
1292.666115	-12.074233
1293.223737	-12.076084
1293.781839	-12.090725
1294.340424	-12.091975
1294.899491	-12.104991
1295.459041	-12.113425
1296.019075	-12.114533
1296.579593	-12.124787
1297.140597	-12.131728
1297.702086	-12.140852
1298.264061	-12.151460
1298.826524	-12.154191
1299.389474	-12.162279
1299.952912	-12.167717
1300.516839	-12.175684
1301.081255	-12.188534
1301.646162	-12.187022
1302.211559	-12.196748
1302.777448	-12.201428
1303.343829	-12.201275
1303.910702	-12.219358
1304.478069	-12.216685
1305.045930	-12.217779
1305.614285	-12.230121
1306.183136	-12.222110
1306.752483	-12.232279
1307.322326	-12.242321
1307.892666	-12.230460
1308.463504	-12.240028
1309.034841	-12.241930
1309.606677	-12.233109
1310.179012	-12.248782
1310.751849	-12.243637
1311.325186	-12.234247
1311.899025	-12.245767
1312.473366	-12.235678
1313.048211	-12.235105
1313.623559	-12.243530
1314.199412	-12.228532
1314.775770	-12.227809
1315.352634	-12.228932
1315.930004	-12.217891
1316.507881	-12.221174
1317.086266	-12.214982
1317.665159	-12.202389
1318.244562	-12.202646
1318.824474	-12.193113
1319.404897	-12.187184
1319.985831	-12.184380
1320.567276	-12.168373
1321.149234	-12.162973
1321.731706	-12.156351
1322.314691	-12.141939
1322.898190	-12.140238
1323.482205	-12.127093
1324.066736	-12.109234
1324.651783	-12.108570
1325.237347	-12.094102
1325.823430	-12.078747
1326.410031	-12.077832
1326.997151	-12.057330
1327.584791	-12.042043
1328.172952	-12.042737
1328.761634	-12.022419
1329.350839	-12.008297
1329.940566	-12.005796
1330.530817	-11.982990
1331.121592	-11.971243
1331.712891	-11.969507
1332.304716	-11.947416
1332.897068	-11.934888
1333.489946	-11.929596
1334.083352	-11.908915
1334.677287	-11.899600
1335.271750	-11.892903
1335.866744	-11.872401
1336.462268	-11.862494
1337.058323	-11.853365
1337.654910	-11.836570
1338.252029	-11.828737
1338.849682	-11.816665
1339.447869	-11.799618
1340.046591	-11.792954
1340.645848	-11.780968
1341.245641	-11.765473
1341.845972	-11.760114
1342.446840	-11.745652
1343.048246	-11.729315
1343.650191	-11.727592
1344.252677	-11.714389
1344.855702	-11.696479
1345.459269	-11.695253
1346.063379	-11.682609
1346.668030	-11.664084
1347.273226	-11.665995
1347.878965	-11.654410
1348.485250	-11.633487
1349.092080	-11.635316
1349.699456	-11.626595
1350.307380	-11.606997
1350.915851	-11.607528
1351.524871	-11.599850
1352.134441	-11.580605
1352.744560	-11.580370
1353.355231	-11.575619
1353.966453	-11.557930
1354.578227	-11.555371
1355.190555	-11.550756
1355.803436	-11.535821
1356.416872	-11.533662
1357.030863	-11.528876
1357.645411	-11.514805
1358.260515	-11.512444
1358.876177	-11.507963
1359.492397	-11.495722
1360.109176	-11.493960
1360.726516	-11.489089
1361.344416	-11.475813
1361.962877	-11.475148
1362.581901	-11.472718
1363.201487	-11.458879
1363.821637	-11.456108
1364.442352	-11.456134
1365.063632	-11.442867
1365.685478	-11.438489
1366.307891	-11.440693
1366.930871	-11.428392
1367.554420	-11.420348
1368.178538	-11.424196
1368.803226	-11.415766
1369.428485	-11.404582
1370.054315	-11.406611
1370.680717	-11.401763
1371.307693	-11.389994
1371.935242	-11.389761
1372.563366	-11.387301
1373.192065	-11.375734
1373.821341	-11.372166
1374.451193	-11.371423
1375.081623	-11.362600
1375.712632	-11.355861
1376.344221	-11.354715
1376.976389	-11.348106
1377.609139	-11.340930
1378.242470	-11.339225
1378.876384	-11.333634
1379.510881	-11.325695
1380.145963	-11.323505
1380.781629	-11.319820
1381.417881	-11.311447
1382.054720	-11.307380
1382.692147	-11.305793
1383.330161	-11.297516
1383.968765	-11.291127
1384.607959	-11.291129
1385.247743	-11.284103
1385.888119	-11.274292
1386.529087	-11.273611
1387.170648	-11.270899
1387.812804	-11.259248
1388.455554	-11.253629
1389.098899	-11.255060
1389.742842	-11.246447
1390.387381	-11.235448
1391.032519	-11.236487
1391.678256	-11.233815
1392.324592	-11.220506
1392.971529	-11.217286
1393.619068	-11.219787
1394.267208	-11.208540
1394.915952	-11.198812
1395.565300	-11.203069
1396.215253	-11.198623
1396.865812	-11.184197
1397.516977	-11.184482
1398.168749	-11.188091
1398.821130	-11.174755
1399.474120	-11.167258
1400.127719	-11.174993
1400.781930	-11.168255
1401.436752	-11.153527
1402.092186	-11.158222
1402.748234	-11.161990
1403.404897	-11.145625
1404.062174	-11.139426
1404.720067	-11.151216
1405.378577	-11.144567
1406.037705	-11.126602
1406.697451	-11.133910
1407.357817	-11.142502
1408.018803	-11.125553
1408.680410	-11.117274
1409.342639	-11.130903
1410.005492	-11.128785
1410.668968	-11.110861
1411.333068	-11.114164
1411.997795	-11.125816
1412.663147	-11.114493
1413.329127	-11.104537
1413.995736	-11.116345
1414.662973	-11.119707
1415.330840	-11.107352
1415.999339	-11.108328
1416.668469	-11.120147
1417.338232	-11.116039
1418.008628	-11.108172
1418.679659	-11.116604
1419.351325	-11.123242
1420.023628	-11.116538
1420.696568	-11.116329
1421.370145	-11.127011
1422.044362	-11.130801
1422.719219	-11.127652
1423.394717	-11.132650
1424.070856	-11.144023
1424.747638	-11.148614
1425.425064	-11.149071
1426.103134	-11.154915
1426.781850	-11.165271
1427.461212	-11.171956
1428.141221	-11.173060
1428.821878	-11.176763
1429.503185	-11.188037
1430.185141	-11.197905
1430.867749	-11.199800
1431.551008	-11.204492
1432.234920	-11.219860
1432.919486	-11.234223
1433.604707	-11.238546
1434.290583	-11.245754
1434.977116	-11.264791
1435.664307	-11.279777
1436.352156	-11.282944
1437.040664	-11.291242
1437.729833	-11.308860
1438.419663	-11.319211
1439.110156	-11.320424
1439.801312	-11.329875
1440.493132	-11.347095
1441.185617	-11.355676
1441.878768	-11.360086
1442.572586	-11.376002
1443.267072	-11.397907
1443.962228	-11.410169
1444.658053	-11.420121
1445.354549	-11.442025
1446.051717	-11.465749
1446.749558	-11.477981
1447.448073	-11.486977
1448.147263	-11.504110
1448.847128	-11.520548
1449.547671	-11.525172
1450.248891	-11.528079
1450.950789	-11.537302
1451.653368	-11.544756
1452.356627	-11.547324
1453.060568	-11.552503
1453.765192	-11.563866
1454.470500	-11.575283
1455.176492	-11.585580
1455.883170	-11.602589
1456.590534	-11.624974
1457.298586	-11.643015
1458.007327	-11.657887
1458.716758	-11.677868
1459.426880	-11.698331
1460.137693	-11.708095
1460.849199	-11.709978
1461.561398	-11.713004
1462.274293	-11.713231
1462.987883	-11.702737
1463.702170	-11.686036
1464.417155	-11.671537
1465.132838	-11.657372
1465.849222	-11.639463
1466.566306	-11.624735
1467.284093	-11.617913
1468.002582	-11.614129
1468.721775	-11.614083
1469.441674	-11.623973
1470.162278	-11.642497
1470.883590	-11.662304
1471.605609	-11.683561
1472.328338	-11.711383
1473.051777	-11.741875
1473.775928	-11.764722
1474.500790	-11.778617
1475.226367	-11.791217
1475.952657	-11.799700
1476.679663	-11.792925
1477.407386	-11.773707
1478.135826	-11.753277
1478.864985	-11.731054
1479.594863	-11.701033
1480.325463	-11.667839
1481.056784	-11.643389
1481.788828	-11.631308
1482.521597	-11.625509
1483.255090	-11.628382
1483.989309	-11.652566
1484.724256	-11.699633
1485.459931	-11.761308
1486.196336	-11.837852
1486.933471	-11.936952
1487.671337	-12.058499
1488.409937	-12.191263
1489.149270	-12.328968
1489.889337	-12.475768
1490.630141	-12.628822
1491.371682	-12.772563
1492.113961	-12.896999
1492.856979	-13.005461
1493.600738	-13.097092
1494.345238	-13.158302
1495.090481	-13.183581
1495.836467	-13.185143
1496.583198	-13.169908
1497.330675	-13.132295
1498.078899	-13.076314
1498.827872	-13.019000
1499.577593	-12.970087
1500.328065	-12.928975
1501.079289	-12.899269
1501.831265	-12.893637
1502.583995	-12.922164
1503.337480	-12.983032
1504.091721	-13.072856
1504.846719	-13.200173
1505.602475	-13.374071
1506.358991	-13.585836
1507.116268	-13.820572
1507.874306	-14.078016
1508.633108	-14.358212
1509.392673	-14.635256
1510.153004	-14.871314
1510.914101	-15.047319
1511.675965	-15.151782
1512.438599	-15.154301
1513.202002	-15.026570
1513.966176	-14.778737
1514.731122	-14.444693
1515.496842	-14.045988
1516.263336	-13.596439
1517.030607	-13.125719
1517.798654	-12.669246
1518.567479	-12.243490
1519.337083	-11.849305
1520.107468	-11.492105
1520.878634	-11.184412
1521.650584	-10.931009
1522.423317	-10.724631
1523.196836	-10.558604
1523.971141	-10.434073
1524.746233	-10.351187
1525.522115	-10.300398
1526.298786	-10.268465
1527.076249	-10.249017
1527.854504	-10.239562
1528.633553	-10.230372
1529.413397	-10.205104
1530.194037	-10.152264
1530.975474	-10.069804
1531.757709	-9.957907
1532.540745	-9.812024
1533.324581	-9.627415
1534.109220	-9.409694
1534.894662	-9.174479
1535.680909	-8.935244
1536.467961	-8.697753
1537.255821	-8.468118
1538.044489	-8.260117
1538.833967	-8.089122
1539.624256	-7.962560
1540.415357	-7.881969
1541.207271	-7.852148
1542.000000	-7.882690
1542.793545	-7.980785
1543.587907	-8.147458
1544.383087	-8.383185
1545.179088	-8.694331
1545.975909	-9.090350
1546.773552	-9.576820
1547.572019	-10.156630
1548.371311	-10.838826
1549.171428	-11.642128
1549.972373	-12.589012
1550.774147	-13.702510
1551.576751	-15.017289
1552.380185	-16.599970
1553.184453	-18.568111
1553.989554	-21.126657
1554.795490	-24.712142
1555.602263	-30.665024
1556.409873	-42.811539
1557.218322	-30.704184
1558.027612	-25.090121
1558.837743	-21.818282
1559.648717	-19.555578
1560.460536	-17.852813
1561.273200	-16.516720
1562.086710	-15.448714
1562.901069	-14.583173
1563.716278	-13.871754
1564.532337	-13.285134
1565.349249	-12.808391
1566.167014	-12.428919
1566.985634	-12.131346
1567.805111	-11.903139
1568.625444	-11.739429
1569.446637	-11.638426
1570.268690	-11.594036
1571.091605	-11.597054
1571.915382	-11.642610
1572.740024	-11.731088
1573.565532	-11.861023
1574.391907	-12.025368
1575.219150	-12.217251
1576.047262	-12.435903
1576.876246	-12.681676
1577.706103	-12.949454
1578.536833	-13.231815
1579.368439	-13.525859
1580.200922	-13.832144
1581.034282	-14.147315
1581.868522	-14.463645
1582.703643	-14.776765
1583.539646	-15.087310
1584.376532	-15.393411
1585.214304	-15.687051
1586.052962	-15.961212
1586.892508	-16.216196
1587.732943	-16.452197
1588.574269	-16.661593
1589.416487	-16.835852
1590.259599	-16.974913
1591.103605	-17.082247
1591.948508	-17.154371
1592.794309	-17.184809
1593.641009	-17.174984
1594.488609	-17.131960
1595.337112	-17.057809
1596.186518	-16.950322
1597.036829	-16.812428
1597.888047	-16.652879
1598.740172	-16.477165
1599.593207	-16.285282
1600.447153	-16.079781
1601.302010	-15.868532
1602.157782	-15.657414
1603.014469	-15.446675
1603.872072	-15.236458
1604.730593	-15.032013
1605.590034	-14.838697
1606.450397	-14.656291
1607.311681	-14.482721
1608.173890	-14.319590
1609.037024	-14.171207
1609.901085	-14.038048
1610.766075	-13.916594
1611.631995	-13.805431
1612.498846	-13.706770
1613.366630	-13.621979
1614.235349	-13.547665
1615.105004	-13.480391
1615.975596	-13.420569
1616.847128	-13.369055
1617.719600	-13.323480
1618.593014	-13.279809
1619.467372	-13.237381
1620.342675	-13.196814
1621.218924	-13.156584
1622.096122	-13.113427
1622.974270	-13.066231
1623.853369	-13.016996
1624.733420	-12.966166
1625.614427	-12.911765
1626.496389	-12.852904
1627.379308	-12.792502
1628.263187	-12.733269
1629.148026	-12.674239
1630.033828	-12.614309
1630.920593	-12.555843
1631.808324	-12.502148
1632.697022	-12.452994
1633.586688	-12.406525
1634.477324	-12.363464
1635.368932	-12.326206
1636.261514	-12.294631
1637.155070	-12.266055
1638.049602	-12.239340
1638.945113	-12.215971
1639.841603	-12.195923
1640.739075	-12.176414
1641.637529	-12.155527
1642.536968	-12.134629
1643.437393	-12.114524
1644.338806	-12.093103
1645.241209	-12.068772
1646.144602	-12.042949
1647.048988	-12.017498
1647.954368	-11.991393
1648.860744	-11.963535
1649.768118	-11.935106
1650.676491	-11.908718
1651.585865	-11.884114
1652.496241	-11.860015
1653.407621	-11.837086
1654.320008	-11.817195
1655.233401	-11.800522
1656.147804	-11.785049
1657.063218	-11.770577
1657.979645	-11.758127
1658.897085	-11.747600
1659.815542	-11.737455
1660.735016	-11.727127
1661.655509	-11.717272
1662.577023	-11.708142
1663.499560	-11.698684
1664.423121	-11.688689
1665.347709	-11.679140
1666.273324	-11.670625
1667.199969	-11.662259
1668.127645	-11.654151
1669.056353	-11.647365
1669.986097	-11.642399
1670.916877	-11.638418
1671.848695	-11.635276
1672.781553	-11.633653
1673.715452	-11.633754
1674.650395	-11.634521
1675.586383	-11.635467
1676.523418	-11.637019
1677.461501	-11.639387
1678.400635	-11.641693
1679.340821	-11.643708
1680.282061	-11.646023
1681.224357	-11.649146
1682.167710	-11.652440
1683.112122	-11.655839
1684.057595	-11.659975
1685.004132	-11.665274
1685.951732	-11.670909
1686.900400	-11.676877
1687.850135	-11.683721
1688.800940	-11.691652
1689.752818	-11.699931
1690.705768	-11.708369
1691.659795	-11.717619
1692.614898	-11.727781
1693.571081	-11.738111
1694.528345	-11.748705
1695.486691	-11.760127
1696.446122	-11.772596
1697.406640	-11.785317
1698.368245	-11.798503
1699.330941	-11.812711
1700.294729	-11.828071
1701.259611	-11.843693
1702.225588	-11.859685
1703.192664	-11.876462
1704.160838	-11.893977
1705.130114	-11.911621
1706.100493	-11.929566
1707.071977	-11.948403
1708.044568	-11.967856
1709.018268	-11.987493
1709.993079	-12.007530
1710.969003	-12.028200
1711.946041	-12.049218
1712.924196	-12.070370
1713.903469	-12.091953
1714.883862	-12.114079
1715.865378	-12.136370
1716.848017	-12.158870
1717.831783	-12.181805
1718.816677	-12.205019
1719.802701	-12.228201
1720.789857	-12.251479
1721.778147	-12.275088
1722.767573	-12.298838
1723.758136	-12.322542
1724.749840	-12.346592
1725.742685	-12.371102
1726.736673	-12.395643
1727.731808	-12.420129
1728.728090	-12.444822
1729.725521	-12.469536
1730.724105	-12.493883
1731.723842	-12.518281
1732.724735	-12.543022
1733.726785	-12.567694
1734.729995	-12.592083
1735.734366	-12.616896
1736.739902	-12.642138
1737.746603	-12.667162
1738.754472	-12.691930
1739.763510	-12.717087
1740.773721	-12.742109
1741.785105	-12.766351
1742.797665	-12.790372
1743.811403	-12.814818
1744.826321	-12.839201
1745.842422	-12.863445
1746.859706	-12.888343
1747.878177	-12.913790
1748.897835	-12.939071
1749.918685	-12.964168
1750.940726	-12.989505
1751.963963	-13.014558
1752.988395	-13.039019
1754.014027	-13.063566
1755.040860	-13.088731
1756.068895	-13.114058
1757.098135	-13.139801
1758.128583	-13.166379
1759.160240	-13.193331
1760.193109	-13.220038
1761.227191	-13.246827
1762.262488	-13.273912
1763.299004	-13.300892
1764.336740	-13.327969
1765.375697	-13.355652
1766.415880	-13.383994
1767.457288	-13.412609
1768.499926	-13.441787
1769.543794	-13.471408
1770.588895	-13.501158
1771.635231	-13.530912
1772.682805	-13.560744
1773.731619	-13.590585
1774.781674	-13.620479
1775.832973	-13.650448
1776.885519	-13.680195
1777.939312	-13.709663
1778.994357	-13.738809
1780.050654	-13.767393
1781.108207	-13.795334
1782.167017	-13.823118
1783.227087	-13.850673
1784.288418	-13.877847
1785.351013	-13.904848
1786.414875	-13.931737
1787.480006	-13.958071
1788.546407	-13.983688
1789.614082	-14.009077
1790.683032	-14.033923
1791.753259	-14.058406
1792.824767	-14.082927
1793.897557	-14.107566
1794.971632	-14.131951
1796.046994	-14.156094
1797.123645	-14.180226
1798.201588	-14.203871
1799.280824	-14.227471
1800.361357	-14.251335
1801.443188	-14.275230
1802.526320	-14.298997
1803.610756	-14.322628
1804.696497	-14.345995
1805.783546	-14.368794
1806.871906	-14.391525
1807.961578	-14.414206
1809.052565	-14.436730
1810.144870	-14.459368
1811.238494	-14.482081
1812.333441	-14.504347
1813.429713	-14.525780
1814.527311	-14.546522
1815.626239	-14.566263
1816.726499	-14.585285
1817.828094	-14.604186
1818.931025	-14.622992
1820.035295	-14.641656
1821.140906	-14.660010
1822.247862	-14.677957
1823.356165	-14.695064
1824.465816	-14.711403
1825.576819	-14.727125
1826.689175	-14.742188
1827.802888	-14.756967
1828.917960	-14.771612
1830.034394	-14.786344
1831.152191	-14.801061
1832.271354	-14.815455
1833.391887	-14.829377
1834.513790	-14.842537
1835.637068	-14.854891
1836.761722	-14.866484
1837.887755	-14.877568
1839.015169	-14.888247
1840.143968	-14.898635
1841.274153	-14.908963
1842.405727	-14.918909
1843.538693	-14.928374
1844.673053	-14.937247
1845.808810	-14.945352
1846.945966	-14.953030
1848.084525	-14.960521
1849.224488	-14.967948
1850.365858	-14.975203
1851.508638	-14.982062
1852.652831	-14.988373
1853.798438	-14.994074
1854.945463	-14.999427
1856.093909	-15.004207
1857.243777	-15.008370
1858.395071	-15.011831
1859.547794	-15.014201
1860.701947	-15.015773
1861.857533	-15.016430
1863.014556	-15.016155
1864.173018	-15.015579
1865.332922	-15.014509
1866.494270	-15.012674
1867.657065	-15.010031
1868.821309	-15.006145
1869.987006	-15.000901
1871.154158	-14.994785
1872.322768	-14.988216
1873.492839	-14.981291
1874.664373	-14.974154
1875.837373	-14.966695
1877.011841	-14.958600
1878.187782	-14.949946
1879.365197	-14.940667
1880.544089	-14.930647
1881.724460	-14.920057
1882.906315	-14.909036
1884.089655	-14.897948
1885.274483	-14.887064
1886.460803	-14.876353
1887.648616	-14.865611
1888.837927	-14.854446
1890.028736	-14.842573
1891.221049	-14.829982
1892.414866	-14.816800
1893.610192	-14.803412
1894.807028	-14.790056
1896.005379	-14.776882
1897.205246	-14.764080
1898.406633	-14.751371
1899.609542	-14.738387
1900.813977	-14.724850
1902.019940	-14.710484
1903.227434	-14.695342
1904.436462	-14.679819
1905.647028	-14.664466
1906.859133	-14.649728
1908.072781	-14.635557
1909.287976	-14.621328
1910.504719	-14.606264
1911.723013	-14.590117
1912.942863	-14.573264
1914.164270	-14.556358
1915.387238	-14.539917
1916.611770	-14.524101
1917.837868	-14.508503
1919.065536	-14.492622
1920.294777	-14.476213
1921.525594	-14.459108
1922.757989	-14.441362
1923.991967	-14.422978
1925.227529	-14.403879
1926.464679	-14.384277
1927.703420	-14.364398
1928.943755	-14.344395
1930.185688	-14.324309
1931.429221	-14.303848
1932.674356	-14.282599
1933.921099	-14.260243
1935.169451	-14.236844
1936.419415	-14.213086
1937.670996	-14.189899
1938.924195	-14.167920
1940.179017	-14.147058
1941.435463	-14.126450
1942.693538	-14.105124
1943.953245	-14.082841
1945.214586	-14.060368
1946.477566	-14.038704
1947.742186	-14.018125
1949.008451	-13.998210
1950.276363	-13.978202
1951.545926	-13.957495
1952.817143	-13.936192
1954.090017	-13.914680
1955.364551	-13.893470
1956.640749	-13.873155
1957.918615	-13.853700
1959.198150	-13.834754
1960.479359	-13.816208
1961.762244	-13.797973
1963.046810	-13.780182
1964.333059	-13.762928
1965.620995	-13.745831
1966.910621	-13.728721
1968.201940	-13.711900
1969.494956	-13.695573
1970.789672	-13.679905
1972.086091	-13.664767
1973.384217	-13.649363
1974.684053	-13.633079
1975.985602	-13.616037
1977.288869	-13.598744
1978.593855	-13.582035
1979.900566	-13.566334
1981.209003	-13.550862
1982.519171	-13.534593
1983.831073	-13.517301
1985.144712	-13.499529
1986.460093	-13.482036
1987.777217	-13.465219
1989.096089	-13.448742
1990.416713	-13.432059
1991.739092	-13.415011
1993.063228	-13.397697
1994.389127	-13.380260
1995.716791	-13.362910
1997.046223	-13.345720
1998.377428	-13.328531
1999.710409	-13.311312
2001.045169	-13.294199
2002.381713	-13.277167
2003.720043	-13.260125
2005.060163	-13.243088
2006.402077	-13.226172
2007.745788	-13.209627
2009.091301	-13.193664
2010.438618	-13.178312
2011.787743	-13.163519
2013.138680	-13.149203
2014.491433	-13.135372
2015.846005	-13.122222
2017.202399	-13.109998
2018.560621	-13.098719
2019.920673	-13.088232
2021.282558	-13.078490
2022.646281	-13.069507
2024.011846	-13.061248
2025.379256	-13.053475
2026.748515	-13.045791
2028.119626	-13.038110
2029.492594	-13.030816
2030.867422	-13.024091
2032.244114	-13.017589
2033.622673	-13.010933
2035.003104	-13.004127
2036.385411	-12.997443
2037.769597	-12.991016
2039.155665	-12.984606
2040.543621	-12.977972
2041.933467	-12.971206
2043.325208	-12.964589
2044.718847	-12.958214
2046.114389	-12.951848
2047.511837	-12.945195
2048.911195	-12.938209
2050.312467	-12.931094
2051.715657	-12.924103
2053.120769	-12.917285
2054.527807	-12.910413
2055.936775	-12.903155
2057.347677	-12.895552
2058.760516	-12.888142
2060.175297	-12.881325
2061.592025	-12.874936
2063.010701	-12.868813
2064.431332	-12.863085
2065.853921	-12.857878
2067.278472	-12.853065
2068.704988	-12.848368
2070.133475	-12.843747
2071.563936	-12.839579
2072.996375	-12.836419
2074.430796	-12.834412
2075.867204	-12.832929
2077.305603	-12.831344
2078.745996	-12.830112
2080.188389	-12.830440
2081.632784	-12.833014
2083.079187	-12.837054
2084.527601	-12.841066
2085.978030	-12.844630
2087.430480	-12.848792
2088.884954	-12.854529
2090.341455	-12.861560
2091.799990	-12.868931
2093.260561	-12.876124
2094.723173	-12.883294
2096.187831	-12.890693
2097.654538	-12.898150
2099.123300	-12.905618
2100.594119	-12.913607
2102.067001	-12.922214
2103.541950	-12.930602
2105.018971	-12.937779
2106.498067	-12.943652
2107.979243	-12.949282
2109.462503	-12.955769
2110.947853	-12.962986
2112.435295	-12.969586
2113.924836	-12.974408
2115.416478	-12.978112
2116.910227	-12.982772
2118.406087	-12.989447
2119.904063	-12.996735
2121.404158	-13.002631
2122.906378	-13.007376
2124.410727	-13.013323
2125.917210	-13.021985
2127.425831	-13.032476
2128.936594	-13.043162
2130.449505	-13.053567
2131.964567	-13.064333
2133.481786	-13.076362
2135.001166	-13.090104
2136.522711	-13.105259
2138.046427	-13.121187
2139.572317	-13.137527
2141.100388	-13.154319
2142.630642	-13.171765
2144.163085	-13.190267
2145.697722	-13.210186
2147.234558	-13.231095
2148.773596	-13.252148
2150.314842	-13.273347
2151.858301	-13.295736
2153.403977	-13.320125
2154.951875	-13.345917
2156.502000	-13.371598
2158.054357	-13.396416
2159.608950	-13.421253
2161.165785	-13.447211
2162.724866	-13.473836
2164.286198	-13.499609
2165.849786	-13.523858
2167.415635	-13.547321
2168.983749	-13.570890
2170.554134	-13.594311
2172.126795	-13.616894
2173.701737	-13.639080
2175.278964	-13.661849
2176.858481	-13.685194
2178.440294	-13.708601
2180.024408	-13.732051
2181.610827	-13.755833
2183.199557	-13.780233
2184.790602	-13.805047
2186.383968	-13.829749
2187.979660	-13.854777
2189.577683	-13.881402
2191.178041	-13.909697
2192.780741	-13.937911
2194.385787	-13.965031
2195.993185	-13.992279
2197.602939	-14.020706
2199.215054	-14.049545
2200.829537	-14.078184
2202.446392	-14.107456
2204.065624	-14.137951
2205.687239	-14.169655
2207.311242	-14.203130
2208.937638	-14.239158
2210.566433	-14.277460
2212.197631	-14.317770
2213.831239	-14.361532
2215.467261	-14.410103
2217.105703	-14.462191
2218.746570	-14.515646
2220.389867	-14.571117
2222.035601	-14.630637
2223.683776	-14.693432
2225.334398	-14.756442
2226.987472	-14.818622
2228.643004	-14.880898
2230.300999	-14.942866
2231.961463	-15.002771
2233.624402	-15.059880
2235.289820	-15.115040
2236.957723	-15.168991
2238.628118	-15.220825
2240.301009	-15.268824
2241.976402	-15.313321
2243.654303	-15.356549
2245.334717	-15.399666
2247.017650	-15.441814
2248.703108	-15.482482
2250.391096	-15.523153
2252.081620	-15.564739
2253.774686	-15.606300
2255.470300	-15.647934
2257.168467	-15.691205
2258.869193	-15.736657
2260.572484	-15.784049
2262.278345	-15.832738
2263.986783	-15.882563
2265.697804	-15.935815
2267.411412	-15.994486
2269.127615	-16.057233
2270.846417	-16.121634
2272.567826	-16.188591
2274.291846	-16.260777
2276.018484	-16.337683
2277.747745	-16.416919
2279.479637	-16.498943
2281.214164	-16.586090
2282.951333	-16.676659
2284.691149	-16.766611
2286.433619	-16.856772
2288.178750	-16.948573
2289.926546	-17.038486
2291.677014	-17.124096
2293.430161	-17.207744
2295.185992	-17.290308
2296.944513	-17.368676
2298.705732	-17.441757
2300.469653	-17.512907
2302.236283	-17.582915
2304.005629	-17.647819
2305.777696	-17.708337
2307.552492	-17.770950
2309.330022	-17.836990
2311.110292	-17.902249
2312.893310	-17.967162
2314.679080	-18.036450
2316.467611	-18.109726
2318.258907	-18.184295
2320.052976	-18.262615
2321.849824	-18.346449
2323.649457	-18.432588
2325.451883	-18.520984
2327.257106	-18.614778
2329.065135	-18.710051
2330.875975	-18.802208
2332.689633	-18.898301
2334.506116	-19.003079
2336.325430	-19.106290
2338.147581	-19.205426
2339.972578	-19.312528
2341.800425	-19.426039
2343.631130	-19.534757
2345.464700	-19.643559
2347.301141	-19.760595
2349.140461	-19.880965
2350.982665	-19.998668
2352.827760	-20.115695
2354.675754	-20.234769
2356.526653	-20.354534
2358.380464	-20.472546
2360.237195	-20.587119
2362.096851	-20.697394
2363.959440	-20.806349
2365.824968	-20.914501
2367.693444	-21.015488
2369.564873	-21.111117
2371.439263	-21.210407
2373.316620	-21.310676
2375.196953	-21.403943
2377.080267	-21.495530
2378.966570	-21.594735
2380.855869	-21.695629
2382.748171	-21.791063
2384.643484	-21.890776
2386.541815	-21.999013
2388.443170	-22.108035
2390.347557	-22.218072
2392.254984	-22.332446
2394.165457	-22.451333
2396.078984	-22.573562
2397.995572	-22.697339
2399.915229	-22.826337
2401.837961	-22.960305
2403.763777	-23.093844
2405.692684	-23.229174
2407.624689	-23.369772
2409.559800	-23.514635
2411.498023	-23.661674
2413.439368	-23.810980
2415.383840	-23.963095
2417.331449	-24.119307
2419.282201	-24.279896
2421.236104	-24.440376
2423.193165	-24.600924
2425.153393	-24.760688
2427.116795	-24.913537
2429.083378	-25.064298
2431.053151	-25.213051
2433.026121	-25.348340
2435.002297	-25.475889
2436.981685	-25.598013
2438.964293	-25.708403
2440.950131	-25.818920
2442.939204	-25.931624
2444.931522	-26.035674
2446.927092	-26.139694
2448.925923	-26.252174
2450.928022	-26.366973
2452.933397	-26.480432
2454.942056	-26.599994
2456.954008	-26.726400
2458.969260	-26.852383
2460.987821	-26.989396
2463.009699	-27.136782
2465.034902	-27.281474
2467.063437	-27.432493
2469.095315	-27.595309
2471.130542	-27.758615
2473.169127	-27.923551
2475.211078	-28.099007
2477.256404	-28.274189
2479.305112	-28.453626
2481.357212	-28.644320
2483.412713	-28.834794
2485.471621	-29.034180
2487.533946	-29.237944
2489.599696	-29.439301
2491.668880	-29.648670
2493.741507	-29.862148
2495.817585	-30.070620
2497.897122	-30.272856
2499.980127	-30.469152
2502.066609	-30.645391
2504.156578	-30.804967
2506.250040	-30.948385
2508.347006	-31.062844
2510.447483	-31.173883
2512.551482	-31.281645
2514.659010	-31.368183
2516.770076	-31.457159
2518.884690	-31.553443
2521.002861	-31.647084
2523.124597	-31.754294
2525.249907	-31.866041
2527.378801	-31.976938
2529.511287	-32.114951
2531.647375	-32.248268
2533.787074	-32.378801
2535.930393	-32.546939
2538.077340	-32.707801
2540.227927	-32.866523
2542.382160	-33.065812
2544.540051	-33.259307
2546.701608	-33.446970
2548.866840	-33.662453
2551.035757	-33.870142
2553.208369	-34.111582
2555.384684	-34.363869
2557.564713	-34.584249
2559.748465	-34.898356
2561.935948	-35.173499
2564.127174	-35.428151
2566.322152	-35.792277
2568.520890	-36.053446
2570.723399	-36.369590
2572.929689	-36.710515
2575.139769	-36.885769
2577.353649	-37.172744
2579.571340	-37.337556
2581.792849	-37.403499
2584.018189	-37.608107
2586.247368	-37.580867
2588.480396	-37.638752
2590.717284	-37.707926
2592.958041	-37.710727
2595.202678	-37.794467
2597.451204	-37.813896
2599.703630	-37.877175
2601.959966	-37.963834
2604.220222	-37.970187
2606.484408	-38.147238
2608.752535	-38.130946
2611.024612	-38.290411
2613.300651	-38.436664
2615.580661	-38.471536
2617.864653	-38.751048
2620.152638	-38.810932
2622.444625	-39.036229
2624.740626	-39.265630
2627.040651	-39.438039
2629.344710	-39.734257
2631.652814	-39.994634
2633.964974	-40.341893
2636.281200	-40.640683
2638.601504	-41.046464
2640.925896	-41.532862
2643.254386	-42.011750
2645.586987	-42.480137
2647.923707	-43.113754
2650.264559	-43.540062
2652.609554	-44.223214
2654.958702	-44.704733
2657.312015	-44.826599
2659.669503	-45.280647
2662.031178	-45.467494
2664.397051	-45.437673
2666.767132	-45.304663
2669.141434	-45.554242
2671.519968	-45.484127
2673.902745	-45.437597
2676.289776	-45.276935
2678.681072	-45.161338
2681.076646	-45.328464
2683.476508	-45.031071
2685.880671	-44.833899
2688.289145	-44.949724
2690.701942	-44.838786
2693.119075	-44.766807
2695.540554	-44.752845
2697.966391	-44.697772
2700.396599	-44.867018
2702.831189	-44.750276
2705.270172	-44.815661
2707.713561	-45.042592
2710.161368	-45.023105
2712.613605	-45.255130
2715.070283	-45.521894
2717.531416	-45.764769
2719.997014	-46.460250
2722.467090	-46.628208
2724.941657	-47.214402
2727.420726	-48.228484
2729.904310	-48.629689
2732.392421	-49.591433
2734.885072	-50.797078
2737.382275	-51.272270
2739.884042	-52.260881
2742.390387	-53.011265
2744.901321	-53.328529
2747.416857	-54.254612
2749.937008	-54.271944
2752.461787	-55.070383
2754.991206	-55.851416
2757.525279	-55.285916
2760.064017	-56.415896
2762.607434	-55.663774
2765.155544	-55.269052
2767.708358	-55.480224
2770.265890	-54.670769
2772.828153	-54.264371
2775.395160	-53.911763
2777.966924	-53.111271
2780.543459	-53.260726
2783.124778	-52.268065
2785.710894	-51.684127
2788.301821	-51.936906
2790.897572	-50.815666
2793.498160	-51.096430
2796.103599	-51.129409
2798.713903	-50.628287
2801.329085	-51.274719
2803.949159	-51.220829
2806.574139	-51.340777
2809.204038	-52.389061
2811.838871	-52.518866
2814.478650	-53.347714
2817.123391	-54.202408
2819.773107	-54.381209
2822.427812	-55.824062
2825.087521	-55.725744
2827.752247	-56.010130
2830.422005	-57.284307
2833.096808	-56.894710
2835.776672	-57.849717
2838.461611	-59.043834
2841.151638	-59.249754
2843.846769	-60.868613
2846.547019	-61.939520
2849.252401	-62.402124
2851.962930	-65.622978
2854.678621	-65.905446
2857.399489	-69.407355
2860.125549	-75.740191
2862.856815	-78.099730
2865.593302	-71.362571
2868.335026	-68.313069
2871.082002	-65.032398
2873.834244	-62.289526
2876.591767	-61.857907
2879.354588	-59.947121
2882.122721	-59.044034
2884.896181	-59.506344
2887.674984	-58.467615
2890.459146	-58.400098
2893.248681	-58.605136
2896.043606	-58.602443
2898.843937	-60.069436
2901.649687	-59.932014
2904.460875	-60.458190
2907.277515	-62.166047
2910.099623	-61.453682
2912.927215	-61.969301
2915.760308	-61.989831
2918.598916	-61.712787
2921.443057	-62.172173
2924.292747	-61.563136
2927.148002	-63.216920
2930.008837	-61.986744
2932.875270	-61.957437
2935.747318	-62.541820
2938.624995	-62.540348
2941.508320	-62.444480
2944.397308	-62.705126
2947.291977	-63.154909
2950.192343	-64.823464
2953.098423	-64.552193
2956.010234	-66.386626
2958.927792	-68.303921
2961.851116	-71.124509
2964.780221	-71.017875
2967.715126	-73.035915
2970.655847	-76.926753
2973.602402	-73.123567
2976.554808	-70.048618
2979.513083	-70.429976
2982.477243	-67.655722
2985.447308	-68.717674
2988.423293	-69.403510
2991.405218	-68.225685
2994.393099	-69.593678
2997.386955	-73.974056
