# 2022-03-21_14.58.48
# shape = sech2
# FWHM_ps = 0.1
# carrier_nm = 1542
# frep_MHz = 12126
# pow_mW = 8000
# GDD = 0.0
# propa_len = 0.16
# untap_len = 0.01
# taper_len = 0.1
# waist_len = 0.02
# uptap_len = 0.02
# untap_scale = 1.0
# waist_scale = 0.30000000000000004
# workingDir = NL_20110305_12 (Spirou)
# axis = slow
# window_ps = 10.0
# steps = 200
# points = 13000
# 
# wavelength [nm]	 power spectral density [dB]
1000.248639	-26.729936
1000.582480	-26.589529
1000.916545	-26.454901
1001.250832	-26.323684
1001.585343	-26.196213
1001.920077	-26.072701
1002.255035	-25.953281
1002.590218	-25.838057
1002.925624	-25.727104
1003.261255	-25.620505
1003.597111	-25.518270
1003.933192	-25.420231
1004.269497	-25.326010
1004.606029	-25.235085
1004.942785	-25.146864
1005.279768	-25.060763
1005.616977	-24.976212
1005.954412	-24.892647
1006.292074	-24.809550
1006.629962	-24.726459
1006.968077	-24.642916
1007.306420	-24.558486
1007.644990	-24.472782
1007.983787	-24.385493
1008.322813	-24.296409
1008.662067	-24.205493
1009.001549	-24.112884
1009.341259	-24.018824
1009.681199	-23.923601
1010.021367	-23.827546
1010.361765	-23.731067
1010.702392	-23.634646
1011.043250	-23.538796
1011.384337	-23.443987
1011.725654	-23.350665
1012.067202	-23.259240
1012.408980	-23.170037
1012.750989	-23.083298
1013.093230	-22.999174
1013.435702	-22.917733
1013.778405	-22.838970
1014.121341	-22.762771
1014.464508	-22.688891
1014.807908	-22.616999
1015.151540	-22.546701
1015.495405	-22.477607
1015.839503	-22.409366
1016.183835	-22.341680
1016.528400	-22.274292
1016.873198	-22.206994
1017.218231	-22.139689
1017.563498	-22.072353
1017.908999	-22.004957
1018.254735	-21.937531
1018.600707	-21.870241
1018.946913	-21.803354
1019.293354	-21.737157
1019.640032	-21.671971
1019.986945	-21.608188
1020.334094	-21.546199
1020.681480	-21.486280
1021.029102	-21.428609
1021.376961	-21.373296
1021.725058	-21.320343
1022.073391	-21.269677
1022.421962	-21.221181
1022.770772	-21.174656
1023.119819	-21.129821
1023.469104	-21.086360
1023.818628	-21.043945
1024.168391	-21.002204
1024.518393	-20.960709
1024.868634	-20.919060
1025.219115	-20.876932
1025.569836	-20.834018
1025.920796	-20.790053
1026.271997	-20.744881
1026.623438	-20.698474
1026.975121	-20.650917
1027.327044	-20.602372
1027.679208	-20.553105
1028.031614	-20.503494
1028.384262	-20.453931
1028.737152	-20.404772
1029.090284	-20.356333
1029.443659	-20.308811
1029.797276	-20.262278
1030.151137	-20.216693
1030.505240	-20.171955
1030.859587	-20.127918
1031.214178	-20.084380
1031.569013	-20.041150
1031.924093	-19.998077
1032.279417	-19.955031
1032.634985	-19.911892
1032.990799	-19.868531
1033.346858	-19.824841
1033.703162	-19.780787
1034.059712	-19.736371
1034.416509	-19.691587
1034.773551	-19.646492
1035.130841	-19.601235
1035.488377	-19.556032
1035.846160	-19.511157
1036.204190	-19.466965
1036.562468	-19.423850
1036.920994	-19.382172
1037.279768	-19.342234
1037.638790	-19.304250
1037.998061	-19.268281
1038.357581	-19.234230
1038.717350	-19.201891
1039.077368	-19.170977
1039.437636	-19.141086
1039.798154	-19.111806
1040.158922	-19.082792
1040.519940	-19.053811
1040.881209	-19.024719
1041.242729	-18.995444
1041.604501	-18.966020
1041.966524	-18.936543
1042.328798	-18.907126
1042.691325	-18.877876
1043.054103	-18.848894
1043.417135	-18.820285
1043.780419	-18.792104
1044.143956	-18.764288
1044.507746	-18.736656
1044.871791	-18.708956
1045.236088	-18.680925
1045.600641	-18.652259
1045.965447	-18.622684
1046.330508	-18.592029
1046.695824	-18.560263
1047.061395	-18.527454
1047.427222	-18.493703
1047.793304	-18.459147
1048.159642	-18.423968
1048.526237	-18.388363
1048.893088	-18.352506
1049.260196	-18.316586
1049.627561	-18.280812
1049.995183	-18.245391
1050.363063	-18.210564
1050.731201	-18.176602
1051.099597	-18.143774
1051.468251	-18.112317
1051.837164	-18.082392
1052.206336	-18.054027
1052.575767	-18.027091
1052.945458	-18.001332
1053.315409	-17.976439
1053.685619	-17.952135
1054.056090	-17.928243
1054.426821	-17.904684
1054.797814	-17.881481
1055.169067	-17.858737
1055.540582	-17.836582
1055.912359	-17.815160
1056.284398	-17.794667
1056.656698	-17.775361
1057.029262	-17.757560
1057.402088	-17.741593
1057.775177	-17.727713
1058.148530	-17.715985
1058.522146	-17.706264
1058.896027	-17.698171
1059.270171	-17.691074
1059.644580	-17.684229
1060.019254	-17.676957
1060.394193	-17.668725
1060.769397	-17.659138
1061.144867	-17.647933
1061.520602	-17.635044
1061.896604	-17.620564
1062.272872	-17.604716
1062.649407	-17.587860
1063.026210	-17.570463
1063.403279	-17.552939
1063.780616	-17.535550
1064.158221	-17.518421
1064.536094	-17.501590
1064.914235	-17.484999
1065.292645	-17.468519
1065.671325	-17.452158
1066.050273	-17.436106
1066.429491	-17.420630
1066.808979	-17.405929
1067.188738	-17.392053
1067.568766	-17.378783
1067.949066	-17.365576
1068.329636	-17.351718
1068.710478	-17.336647
1069.091592	-17.320236
1069.472977	-17.302904
1069.854635	-17.285622
1070.236565	-17.269710
1070.618768	-17.256429
1071.001243	-17.246518
1071.383993	-17.239984
1071.767016	-17.236227
1072.150313	-17.234352
1072.533884	-17.233508
1072.917730	-17.233299
1073.301850	-17.233937
1073.686246	-17.236028
1074.070917	-17.240249
1074.455864	-17.247001
1074.841087	-17.256093
1075.226586	-17.266619
1075.612362	-17.277123
1075.998415	-17.286094
1076.384745	-17.292638
1076.771353	-17.296897
1077.158238	-17.300208
1077.545401	-17.304798
1077.932843	-17.312993
1078.320564	-17.326208
1078.708564	-17.344233
1079.096842	-17.365007
1079.485401	-17.385054
1079.874240	-17.400553
1080.263358	-17.408780
1080.652757	-17.409318
1081.042438	-17.404297
1081.432399	-17.397660
1081.822641	-17.393785
1082.213166	-17.395906
1082.603972	-17.404857
1082.995061	-17.418871
1083.386433	-17.434378
1083.778087	-17.447468
1084.170025	-17.455348
1084.562246	-17.457388
1084.954751	-17.455214
1085.347541	-17.451696
1085.740615	-17.449400
1086.133973	-17.449481
1086.527617	-17.451267
1086.921546	-17.452769
1087.315761	-17.452071
1087.710262	-17.448718
1088.105050	-17.444425
1088.500124	-17.442754
1088.895485	-17.447882
1089.291134	-17.462867
1089.687070	-17.488182
1090.083294	-17.521251
1090.479806	-17.557188
1090.876607	-17.590406
1091.273696	-17.616521
1091.671075	-17.633746
1092.068744	-17.643334
1092.466702	-17.648736
1092.864950	-17.654038
1093.263489	-17.662659
1093.662319	-17.676656
1094.061440	-17.696715
1094.460852	-17.722795
1094.860555	-17.754896
1095.260551	-17.793361
1095.660840	-17.838557
1096.061421	-17.890134
1096.462295	-17.946180
1096.863462	-18.002870
1097.264923	-18.054930
1097.666678	-18.096829
1098.068727	-18.124316
1098.471071	-18.135961
1098.873710	-18.133906
1099.276644	-18.123291
1099.679874	-18.110870
1100.083400	-18.103290
1100.487222	-18.105445
1100.891340	-18.119583
1101.295756	-18.145225
1101.700468	-18.179722
1102.105478	-18.219402
1102.510787	-18.260786
1102.916393	-18.301267
1103.322298	-18.339198
1103.728502	-18.373407
1104.135005	-18.402439
1104.541807	-18.424068
1104.948909	-18.435654
1105.356312	-18.435277
1105.764015	-18.422946
1106.172019	-18.401400
1106.580324	-18.375765
1106.988931	-18.352339
1107.397840	-18.336927
1107.807051	-18.333554
1108.216564	-18.344057
1108.626380	-18.368741
1109.036500	-18.407239
1109.446923	-18.459203
1109.857649	-18.524067
1110.268680	-18.599613
1110.680016	-18.680557
1111.091657	-18.758019
1111.503602	-18.820835
1111.915854	-18.859409
1112.328411	-18.870060
1112.741275	-18.857372
1113.154445	-18.833089
1113.567922	-18.811499
1113.981706	-18.803664
1114.395798	-18.813399
1114.810198	-18.836709
1115.224906	-18.864665
1115.639923	-18.888812
1116.055249	-18.906543
1116.470884	-18.923252
1116.886829	-18.949996
1117.303084	-18.997986
1117.719650	-19.072406
1118.136526	-19.168535
1118.553713	-19.271908
1118.971212	-19.362765
1119.389022	-19.423533
1119.807145	-19.445901
1120.225580	-19.433714
1120.644328	-19.399732
1121.063389	-19.358925
1121.482763	-19.322442
1121.902452	-19.294759
1122.322454	-19.274861
1122.742771	-19.259722
1123.163404	-19.247587
1123.584351	-19.239735
1124.005614	-19.240187
1124.427193	-19.253575
1124.849089	-19.283007
1125.271301	-19.328898
1125.693830	-19.388959
1126.116677	-19.458977
1126.539842	-19.533919
1126.963324	-19.608385
1127.387126	-19.676815
1127.811246	-19.734022
1128.235685	-19.775683
1128.660444	-19.799526
1129.085522	-19.806202
1129.510922	-19.798975
1129.936641	-19.782323
1130.362682	-19.760141
1130.789044	-19.734755
1131.215728	-19.707160
1131.642734	-19.678435
1132.070063	-19.651260
1132.497714	-19.630214
1132.925689	-19.620600
1133.353987	-19.625995
1133.782610	-19.646465
1134.211556	-19.678429
1134.640827	-19.716186
1135.070424	-19.754741
1135.500345	-19.792050
1135.930593	-19.829143
1136.361166	-19.867810
1136.792067	-19.907584
1137.223294	-19.943851
1137.654848	-19.968951
1138.086730	-19.975871
1138.518940	-19.962282
1138.951479	-19.932784
1139.384346	-19.896629
1139.817543	-19.862885
1140.251069	-19.835833
1140.684925	-19.813220
1141.119111	-19.788433
1141.553628	-19.755743
1141.988475	-19.715279
1142.423655	-19.674623
1142.859166	-19.645865
1143.295009	-19.639765
1143.731185	-19.660310
1144.167694	-19.702621
1144.604536	-19.755118
1145.041711	-19.805393
1145.479221	-19.846686
1145.917065	-19.881333
1146.355245	-19.918717
1146.793759	-19.969012
1147.232609	-20.036659
1147.671795	-20.116979
1148.111317	-20.197404
1148.551177	-20.263635
1148.991373	-20.307278
1149.431907	-20.330033
1149.872779	-20.341652
1150.313989	-20.353294
1150.755538	-20.370548
1151.197426	-20.390200
1151.639653	-20.402494
1152.082220	-20.397517
1152.525128	-20.372155
1152.968376	-20.332869
1153.411966	-20.292203
1153.855897	-20.261439
1154.300169	-20.244072
1154.744784	-20.234235
1155.189742	-20.220478
1155.635042	-20.192888
1156.080687	-20.149584
1156.526674	-20.098510
1156.973007	-20.053378
1157.419683	-20.026075
1157.866705	-20.019915
1158.314072	-20.027901
1158.761786	-20.036339
1159.209845	-20.032689
1159.658251	-20.012635
1160.107004	-19.982058
1160.556104	-19.952985
1161.005553	-19.936317
1161.455349	-19.936072
1161.905494	-19.947597
1162.355989	-19.960395
1162.806832	-19.963925
1163.258026	-19.953199
1163.709570	-19.930989
1164.161464	-19.904703
1164.613710	-19.880906
1165.066307	-19.861388
1165.519256	-19.843124
1165.972558	-19.821612
1166.426212	-19.794408
1166.880219	-19.762672
1167.334580	-19.729459
1167.789295	-19.696869
1168.244364	-19.664560
1168.699788	-19.630123
1169.155567	-19.591550
1169.611702	-19.549459
1170.068193	-19.507808
1170.525041	-19.471799
1170.982245	-19.444787
1171.439807	-19.425685
1171.897726	-19.409096
1172.356004	-19.388524
1172.814640	-19.360662
1173.273635	-19.327749
1173.732989	-19.296195
1174.192703	-19.272431
1174.652778	-19.258614
1175.113213	-19.251151
1175.574009	-19.243136
1176.035167	-19.228520
1176.496687	-19.205882
1176.958569	-19.178859
1177.420814	-19.153670
1177.883422	-19.135070
1178.346394	-19.123709
1178.809730	-19.116168
1179.273430	-19.107125
1179.737496	-19.093037
1180.201927	-19.074008
1180.666723	-19.053775
1181.131886	-19.037198
1181.597416	-19.027401
1182.063312	-19.023888
1182.529576	-19.023080
1182.996209	-19.020608
1183.463209	-19.013903
1183.930579	-19.003488
1184.398317	-18.992350
1184.866426	-18.983842
1185.334904	-18.979516
1185.803754	-18.978237
1186.272974	-18.976918
1186.742566	-18.972206
1187.212529	-18.962248
1187.682865	-18.947286
1188.153574	-18.929160
1188.624656	-18.909925
1189.096112	-18.890833
1189.567942	-18.871524
1190.040147	-18.850575
1190.512726	-18.826237
1190.985681	-18.797235
1191.459012	-18.763232
1191.932720	-18.724881
1192.406804	-18.683531
1192.881265	-18.640566
1193.356104	-18.597041
1193.831322	-18.553168
1194.306918	-18.508400
1194.782893	-18.461755
1195.259248	-18.412380
1195.735982	-18.360339
1196.213097	-18.306663
1196.690593	-18.252918
1197.168471	-18.200389
1197.646730	-18.149678
1198.125371	-18.100210
1198.604395	-18.050877
1199.083803	-18.000838
1199.563594	-17.950054
1200.043769	-17.899281
1200.524329	-17.849385
1201.005273	-17.800561
1201.486604	-17.751835
1201.968320	-17.701439
1202.450422	-17.647845
1202.932912	-17.590766
1203.415789	-17.531179
1203.899054	-17.470522
1204.382707	-17.409424
1204.866748	-17.346905
1205.351179	-17.280654
1205.836000	-17.208396
1206.321211	-17.129384
1206.806812	-17.045284
1207.292805	-16.959369
1207.779189	-16.874615
1208.265965	-16.791958
1208.753134	-16.709806
1209.240696	-16.625113
1209.728651	-16.535910
1210.217000	-16.442926
1210.705744	-16.349596
1211.194883	-16.260191
1211.684417	-16.177326
1212.174347	-16.100166
1212.664673	-16.025056
1213.155396	-15.947686
1213.646516	-15.866108
1214.138034	-15.782035
1214.629951	-15.699809
1215.122266	-15.623239
1215.614980	-15.553106
1216.108095	-15.486412
1216.601609	-15.418377
1217.095524	-15.345374
1217.589841	-15.267580
1218.084559	-15.188621
1218.579679	-15.113006
1219.075202	-15.042931
1219.571128	-14.976722
1220.067458	-14.910002
1220.564191	-14.839075
1221.061330	-14.763443
1221.558874	-14.686268
1222.056823	-14.611972
1222.555178	-14.543094
1223.053940	-14.478770
1223.553109	-14.415410
1224.052686	-14.349549
1224.552671	-14.280704
1225.053065	-14.211429
1225.553867	-14.145373
1226.055079	-14.084391
1226.556702	-14.027061
1227.058735	-13.970033
1227.561179	-13.910636
1228.064035	-13.848939
1228.567303	-13.787652
1229.070983	-13.729833
1229.575077	-13.676391
1230.079585	-13.625321
1230.584506	-13.573368
1231.089842	-13.518936
1231.595594	-13.463280
1232.101761	-13.409640
1232.608345	-13.360559
1233.115345	-13.315657
1233.622762	-13.272068
1234.130597	-13.226698
1234.638851	-13.178819
1235.147523	-13.130770
1235.656615	-13.085961
1236.166126	-13.045909
1236.676058	-13.008872
1237.186411	-12.971176
1237.697185	-12.930183
1238.208381	-12.886443
1238.719999	-12.843235
1239.232040	-12.803736
1239.744505	-12.768261
1240.257394	-12.734029
1240.770708	-12.697418
1241.284446	-12.657132
1241.798610	-12.615400
1242.313201	-12.576031
1242.828218	-12.541249
1243.343662	-12.509881
1243.859534	-12.478426
1244.375834	-12.444134
1244.892563	-12.407587
1245.409721	-12.372112
1245.927309	-12.341007
1246.445327	-12.314739
1246.963777	-12.290455
1247.482657	-12.264663
1248.001970	-12.236324
1248.521716	-12.207758
1249.041894	-12.182612
1249.562506	-12.162554
1250.083553	-12.145822
1250.605034	-12.128825
1251.126950	-12.109338
1251.649302	-12.088454
1252.172091	-12.069584
1252.695316	-12.055395
1253.218979	-12.045288
1253.743079	-12.036029
1254.267619	-12.024764
1254.792597	-12.011456
1255.318015	-11.998953
1255.843874	-11.990205
1256.370173	-11.985535
1256.896913	-11.982480
1257.424095	-11.978032
1257.951720	-11.971490
1258.479787	-11.965062
1259.008298	-11.961574
1259.537254	-11.961834
1260.066654	-11.963924
1260.596499	-11.965137
1261.126790	-11.964660
1261.657527	-11.964308
1262.188711	-11.966623
1262.720342	-11.972354
1263.252422	-11.979704
1263.784950	-11.986170
1264.317928	-11.991142
1264.851355	-11.996525
1265.385232	-12.004753
1265.919560	-12.016287
1266.454340	-12.028954
1266.989572	-12.040025
1267.525256	-12.049101
1268.061394	-12.058342
1268.597985	-12.070344
1269.135031	-12.085322
1269.672531	-12.100640
1270.210487	-12.113336
1270.748899	-12.123033
1271.287768	-12.132386
1271.827094	-12.144357
1272.366877	-12.159089
1272.907119	-12.173714
1273.447820	-12.185152
1273.988981	-12.193136
1274.530601	-12.200579
1275.072683	-12.210636
1275.615226	-12.223511
1276.158230	-12.236310
1276.701697	-12.246092
1277.245627	-12.252900
1277.790021	-12.259686
1278.334879	-12.269173
1278.880202	-12.281170
1279.425991	-12.292749
1279.972245	-12.301419
1280.518966	-12.307726
1281.066155	-12.314577
1281.613811	-12.323822
1282.161936	-12.334370
1282.710529	-12.343237
1283.259593	-12.348771
1283.809126	-12.352378
1284.359131	-12.356827
1284.909607	-12.363126
1285.460555	-12.369132
1286.011976	-12.372006
1286.563870	-12.371366
1287.116237	-12.369587
1287.669080	-12.369354
1288.222397	-12.370517
1288.776191	-12.370263
1289.330460	-12.366236
1289.885207	-12.359352
1290.440431	-12.352944
1290.996133	-12.349024
1291.552314	-12.346186
1292.108975	-12.341173
1292.666115	-12.332606
1293.223737	-12.322564
1293.781839	-12.314413
1294.340424	-12.308978
1294.899491	-12.303717
1295.459041	-12.295580
1296.019075	-12.284553
1296.579593	-12.273527
1297.140597	-12.265011
1297.702086	-12.258232
1298.264061	-12.250041
1298.826524	-12.238623
1299.389474	-12.225550
1299.952912	-12.213878
1300.516839	-12.204551
1301.081255	-12.195437
1301.646162	-12.183833
1302.211559	-12.169843
1302.777448	-12.156204
1303.343829	-12.145154
1303.910702	-12.135917
1304.478069	-12.125805
1305.045930	-12.113656
1305.614285	-12.101168
1306.183136	-12.091069
1306.752483	-12.083800
1307.322326	-12.077310
1307.892666	-12.069771
1308.463504	-12.061701
1309.034841	-12.055324
1309.606677	-12.051705
1310.179012	-12.049680
1310.751849	-12.047394
1311.325186	-12.044781
1311.899025	-12.043332
1312.473366	-12.043949
1313.048211	-12.045775
1313.623559	-12.047338
1314.199412	-12.048640
1314.775770	-12.051086
1315.352634	-12.055370
1315.930004	-12.060318
1316.507881	-12.064242
1317.086266	-12.067378
1317.665159	-12.071514
1318.244562	-12.077749
1318.824474	-12.084681
1319.404897	-12.090129
1319.985831	-12.093860
1320.567276	-12.098078
1321.149234	-12.104497
1321.731706	-12.112041
1322.314691	-12.118054
1322.898190	-12.121669
1323.482205	-12.124914
1324.066736	-12.129997
1324.651783	-12.136327
1325.237347	-12.141205
1325.823430	-12.143244
1326.410031	-12.144034
1326.997151	-12.145754
1327.584791	-12.148181
1328.172952	-12.148838
1328.761634	-12.146349
1329.350839	-12.142063
1329.940566	-12.137999
1330.530817	-12.133873
1331.121592	-12.127572
1331.712891	-12.118189
1332.304716	-12.107382
1332.897068	-12.097016
1333.489946	-12.086633
1334.083352	-12.074187
1334.677287	-12.059378
1335.271750	-12.044420
1335.866744	-12.031225
1336.462268	-12.018843
1337.058323	-12.005200
1337.654910	-11.990326
1338.252029	-11.976754
1338.849682	-11.966082
1339.447869	-11.956955
1340.046591	-11.947049
1340.645848	-11.936822
1341.245641	-11.928885
1341.845972	-11.924389
1342.446840	-11.921315
1343.048246	-11.917394
1343.650191	-11.913438
1344.252677	-11.912210
1344.855702	-11.914228
1345.459269	-11.916997
1346.063379	-11.918640
1346.668030	-11.920541
1347.273226	-11.925185
1347.878965	-11.932323
1348.485250	-11.939221
1349.092080	-11.944621
1349.699456	-11.950395
1350.307380	-11.958410
1350.915851	-11.967564
1351.524871	-11.975359
1352.134441	-11.981361
1352.744560	-11.987422
1353.355231	-11.994285
1353.966453	-12.000093
1354.578227	-12.003342
1355.190555	-12.004963
1355.803436	-12.006538
1356.416872	-12.007337
1357.030863	-12.005186
1357.645411	-11.999974
1358.260515	-11.994022
1358.876177	-11.988209
1359.492397	-11.980331
1360.109176	-11.968597
1360.726516	-11.954868
1361.344416	-11.942277
1361.962877	-11.930705
1362.581901	-11.916899
1363.201487	-11.899966
1363.821637	-11.883028
1364.442352	-11.868787
1365.063632	-11.855872
1365.685478	-11.841426
1366.307891	-11.826125
1366.930871	-11.813393
1367.554420	-11.804238
1368.178538	-11.796272
1368.803226	-11.788079
1369.428485	-11.781586
1370.054315	-11.778683
1370.680717	-11.778135
1371.307693	-11.777875
1371.935242	-11.778873
1372.563366	-11.783345
1373.192065	-11.790580
1373.821341	-11.797707
1374.451193	-11.804407
1375.081623	-11.813260
1375.712632	-11.824919
1376.344221	-11.836054
1376.976389	-11.844398
1377.609139	-11.852247
1378.242470	-11.862245
1378.876384	-11.872488
1379.510881	-11.879002
1380.145963	-11.881962
1380.781629	-11.884868
1381.417881	-11.888254
1382.054720	-11.888712
1382.692147	-11.884847
1383.330161	-11.879767
1383.968765	-11.875903
1384.607959	-11.871486
1385.247743	-11.864630
1385.888119	-11.857608
1386.529087	-11.853190
1387.170648	-11.850027
1387.812804	-11.845675
1388.455554	-11.841866
1389.098899	-11.842185
1389.742842	-11.846226
1390.387381	-11.850954
1391.032519	-11.857006
1391.678256	-11.868024
1392.324592	-11.884036
1392.971529	-11.901067
1393.619068	-11.918192
1394.267208	-11.938892
1394.915952	-11.964084
1395.565300	-11.989606
1396.215253	-12.013236
1396.865812	-12.038197
1397.516977	-12.066291
1398.168749	-12.093395
1398.821130	-12.115898
1399.474120	-12.136255
1400.127719	-12.157047
1400.781930	-12.174975
1401.436752	-12.186540
1402.092186	-12.194934
1402.748234	-12.204898
1403.404897	-12.214794
1404.062174	-12.220875
1404.720067	-12.225348
1405.378577	-12.232629
1406.037705	-12.241272
1406.697451	-12.247671
1407.357817	-12.254501
1408.018803	-12.267270
1408.680410	-12.285108
1409.342639	-12.303952
1410.005492	-12.325562
1410.668968	-12.354686
1411.333068	-12.389491
1411.997795	-12.424502
1412.663147	-12.460661
1413.329127	-12.502479
1413.995736	-12.547741
1414.662973	-12.590150
1415.330840	-12.630154
1415.999339	-12.672440
1416.668469	-12.715218
1417.338232	-12.752807
1418.008628	-12.785971
1418.679659	-12.819190
1419.351325	-12.850084
1420.023628	-12.873332
1420.696568	-12.891629
1421.370145	-12.911517
1422.044362	-12.932609
1422.719219	-12.951775
1423.394717	-12.973279
1424.070856	-13.002532
1424.747638	-13.035579
1425.425064	-13.066126
1426.103134	-13.096961
1426.781850	-13.133229
1427.461212	-13.172365
1428.141221	-13.211767
1428.821878	-13.257414
1429.503185	-13.313994
1430.185141	-13.375726
1430.867749	-13.436251
1431.551008	-13.496788
1432.234920	-13.556546
1432.919486	-13.607729
1433.604707	-13.647618
1434.290583	-13.683073
1434.977116	-13.717406
1435.664307	-13.746997
1436.352156	-13.773658
1437.040664	-13.805047
1437.729833	-13.841606
1438.419663	-13.877871
1439.110156	-13.915965
1439.801312	-13.961965
1440.493132	-14.012985
1441.185617	-14.062533
1441.878768	-14.112355
1442.572586	-14.164841
1443.267072	-14.213802
1443.962228	-14.255577
1444.658053	-14.297664
1445.354549	-14.346560
1446.051717	-14.401077
1446.749558	-14.463570
1447.448073	-14.540971
1448.147263	-14.630285
1448.847128	-14.718636
1449.547671	-14.797574
1450.248891	-14.862463
1450.950789	-14.903300
1451.653368	-14.914690
1452.356627	-14.907899
1453.060568	-14.899137
1453.765192	-14.898280
1454.470500	-14.917145
1455.176492	-14.969870
1455.883170	-15.056473
1456.590534	-15.161341
1457.298586	-15.269198
1458.007327	-15.366268
1458.716758	-15.431608
1459.426880	-15.449843
1460.137693	-15.426953
1460.849199	-15.379142
1461.561398	-15.320848
1462.274293	-15.272285
1462.987883	-15.257551
1463.702170	-15.287657
1464.417155	-15.359704
1465.132838	-15.469101
1465.849222	-15.604561
1466.566306	-15.738441
1467.284093	-15.842260
1468.002582	-15.902877
1468.721775	-15.913557
1469.441674	-15.872029
1470.162278	-15.795009
1470.883590	-15.709151
1471.605609	-15.629640
1472.328338	-15.565069
1473.051777	-15.527469
1473.775928	-15.520409
1474.500790	-15.533984
1475.226367	-15.561143
1475.952657	-15.600780
1476.679663	-15.644569
1477.407386	-15.683612
1478.135826	-15.722404
1478.864985	-15.766459
1479.594863	-15.811056
1480.325463	-15.854557
1481.056784	-15.898960
1481.788828	-15.931592
1482.521597	-15.931912
1483.255090	-15.890014
1483.989309	-15.798646
1484.724256	-15.648648
1485.459931	-15.448502
1486.196336	-15.223795
1486.933471	-14.998222
1487.671337	-14.796456
1488.409937	-14.651079
1489.149270	-14.588082
1489.889337	-14.620346
1490.630141	-14.759562
1491.371682	-15.014464
1492.113961	-15.376461
1492.856979	-15.823391
1493.600738	-16.326233
1494.345238	-16.831675
1495.090481	-17.255174
1495.836467	-17.512390
1496.583198	-17.544125
1497.330675	-17.332080
1498.078899	-16.926009
1498.827872	-16.419997
1499.577593	-15.895313
1500.328065	-15.411159
1501.079289	-15.011467
1501.831265	-14.714326
1502.583995	-14.516884
1503.337480	-14.412661
1504.091721	-14.387733
1504.846719	-14.413721
1505.602475	-14.461083
1506.358991	-14.504820
1507.116268	-14.514773
1507.874306	-14.466040
1508.633108	-14.355853
1509.392673	-14.194362
1510.153004	-13.999244
1510.914101	-13.804232
1511.675965	-13.647136
1512.438599	-13.555581
1513.202002	-13.556293
1513.966176	-13.679249
1514.731122	-13.950126
1515.496842	-14.399187
1516.263336	-15.079171
1517.030607	-16.069786
1517.798654	-17.496071
1518.567479	-19.604312
1519.337083	-22.978832
1520.107468	-29.693078
1520.878634	-40.630709
1521.650584	-25.289165
1522.423317	-19.853910
1523.196836	-16.467875
1523.971141	-14.021072
1524.746233	-12.122494
1525.522115	-10.592882
1526.298786	-9.333607
1527.076249	-8.283828
1527.854504	-7.409188
1528.633553	-6.690460
1529.413397	-6.112828
1530.194037	-5.665214
1530.975474	-5.340504
1531.757709	-5.130463
1532.540745	-5.025414
1533.324581	-5.019045
1534.109220	-5.108235
1534.894662	-5.291136
1535.680909	-5.570763
1536.467961	-5.956282
1537.255821	-6.457964
1538.044489	-7.085999
1538.833967	-7.853400
1539.624256	-8.773355
1540.415357	-9.857198
1541.207271	-11.121634
1542.000000	-12.593914
1542.793545	-14.306517
1543.587907	-16.282345
1544.383087	-18.459621
1545.179088	-20.414710
1545.975909	-21.103996
1546.773552	-20.099730
1547.572019	-18.408381
1548.371311	-16.813897
1549.171428	-15.517816
1549.972373	-14.514411
1550.774147	-13.756739
1551.576751	-13.194022
1552.380185	-12.786631
1553.184453	-12.513629
1553.989554	-12.364826
1554.795490	-12.334990
1555.602263	-12.425340
1556.409873	-12.635804
1557.218322	-12.957637
1558.027612	-13.379579
1558.837743	-13.890082
1559.648717	-14.473855
1560.460536	-15.120848
1561.273200	-15.830776
1562.086710	-16.600862
1562.901069	-17.423428
1563.716278	-18.282995
1564.532337	-19.133769
1565.349249	-19.899941
1566.167014	-20.493785
1566.985634	-20.823576
1567.805111	-20.842321
1568.625444	-20.580279
1569.446637	-20.108298
1570.268690	-19.518332
1571.091605	-18.895848
1571.915382	-18.288953
1572.740024	-17.723492
1573.565532	-17.209244
1574.391907	-16.736320
1575.219150	-16.296446
1576.047262	-15.889718
1576.876246	-15.516821
1577.706103	-15.186663
1578.536833	-14.911214
1579.368439	-14.691463
1580.200922	-14.524162
1581.034282	-14.402643
1581.868522	-14.311715
1582.703643	-14.241341
1583.539646	-14.190071
1584.376532	-14.157087
1585.214304	-14.148977
1586.052962	-14.174230
1586.892508	-14.230801
1587.732943	-14.314783
1588.574269	-14.419151
1589.416487	-14.528917
1590.259599	-14.636970
1591.103605	-14.743136
1591.948508	-14.847033
1592.794309	-14.957162
1593.641009	-15.080329
1594.488609	-15.213584
1595.337112	-15.354194
1596.186518	-15.492307
1597.036829	-15.614818
1597.888047	-15.719392
1598.740172	-15.805405
1599.593207	-15.877266
1600.447153	-15.946331
1601.302010	-16.013304
1602.157782	-16.073787
1603.014469	-16.120484
1603.872072	-16.137056
1604.730593	-16.115869
1605.590034	-16.058588
1606.450397	-15.969078
1607.311681	-15.860648
1608.173890	-15.741157
1609.037024	-15.608671
1609.901085	-15.462499
1610.766075	-15.295896
1611.631995	-15.106748
1612.498846	-14.904894
1613.366630	-14.698544
1614.235349	-14.499550
1615.105004	-14.317069
1615.975596	-14.147902
1616.847128	-13.990285
1617.719600	-13.839988
1618.593014	-13.692413
1619.467372	-13.553932
1620.342675	-13.428271
1621.218924	-13.317764
1622.096122	-13.225174
1622.974270	-13.142092
1623.853369	-13.061857
1624.733420	-12.981237
1625.614427	-12.896129
1626.496389	-12.812558
1627.379308	-12.734845
1628.263187	-12.662225
1629.148026	-12.596078
1630.033828	-12.530236
1630.920593	-12.461942
1631.808324	-12.396334
1632.697022	-12.336022
1633.586688	-12.289067
1634.477324	-12.259748
1635.368932	-12.243152
1636.261514	-12.237254
1637.155070	-12.236260
1638.049602	-12.237516
1638.945113	-12.246001
1639.841603	-12.261244
1640.739075	-12.283166
1641.637529	-12.307933
1642.536968	-12.325746
1643.437393	-12.334708
1644.338806	-12.335021
1645.241209	-12.330721
1646.144602	-12.329774
1647.048988	-12.331547
1647.954368	-12.334960
1648.860744	-12.338419
1649.768118	-12.340293
1650.676491	-12.348299
1651.585865	-12.367975
1652.496241	-12.402110
1653.407621	-12.450676
1654.320008	-12.505199
1655.233401	-12.561769
1656.147804	-12.619834
1657.063218	-12.681253
1657.979645	-12.751809
1658.897085	-12.829054
1659.815542	-12.908539
1660.735016	-12.985340
1661.655509	-13.055346
1662.577023	-13.123672
1663.499560	-13.192376
1664.423121	-13.260845
1665.347709	-13.325215
1666.273324	-13.375856
1667.199969	-13.412623
1668.127645	-13.438725
1669.056353	-13.459236
1669.986097	-13.479761
1670.916877	-13.495618
1671.848695	-13.505668
1672.781553	-13.512429
1673.715452	-13.522124
1674.650395	-13.547025
1675.586383	-13.588541
1676.523418	-13.643691
1677.461501	-13.706492
1678.400635	-13.771464
1679.340821	-13.844417
1680.282061	-13.927889
1681.224357	-14.021636
1682.167710	-14.118741
1683.112122	-14.206533
1684.057595	-14.283416
1685.004132	-14.350495
1685.951732	-14.413202
1686.900400	-14.472088
1687.850135	-14.517967
1688.800940	-14.548190
1689.752818	-14.562603
1690.705768	-14.570886
1691.659795	-14.581789
1692.614898	-14.594139
1693.571081	-14.608197
1694.528345	-14.621206
1695.486691	-14.640772
1696.446122	-14.674290
1697.406640	-14.721129
1698.368245	-14.778237
1699.330941	-14.834487
1700.294729	-14.889382
1701.259611	-14.943418
1702.225588	-14.994774
1703.192664	-15.039807
1704.160838	-15.067185
1705.130114	-15.078672
1706.100493	-15.078662
1707.071977	-15.074817
1708.044568	-15.070798
1709.018268	-15.061606
1709.993079	-15.051431
1710.969003	-15.044157
1711.946041	-15.048850
1712.924196	-15.066098
1713.903469	-15.088190
1714.883862	-15.110600
1715.865378	-15.128078
1716.848017	-15.144026
1717.831783	-15.154682
1718.816677	-15.156132
1719.802701	-15.146848
1720.789857	-15.128427
1721.778147	-15.109206
1722.767573	-15.088422
1723.758136	-15.067057
1724.749840	-15.043914
1725.742685	-15.024129
1726.736673	-15.014195
1727.731808	-15.011756
1728.728090	-15.014379
1729.725521	-15.013835
1730.724105	-15.011464
1731.723842	-15.007555
1732.724735	-15.001482
1733.726785	-14.991855
1734.729995	-14.973469
1735.734366	-14.949806
1736.739902	-14.921294
1737.746603	-14.893474
1738.754472	-14.867002
1739.763510	-14.840997
1740.773721	-14.816071
1741.785105	-14.791280
1742.797665	-14.771303
1743.811403	-14.753082
1744.826321	-14.734256
1745.842422	-14.710627
1746.859706	-14.685469
1747.878177	-14.664496
1748.897835	-14.645727
1749.918685	-14.625678
1750.940726	-14.601596
1751.963963	-14.582232
1752.988395	-14.569118
1754.014027	-14.554996
1755.040860	-14.531134
1756.068895	-14.501025
1757.098135	-14.476182
1758.128583	-14.453439
1759.160240	-14.424123
1760.193109	-14.387031
1761.227191	-14.357146
1762.262488	-14.338334
1763.299004	-14.317234
1764.336740	-14.286131
1765.375697	-14.256350
1766.415880	-14.240776
1767.457288	-14.226879
1768.499926	-14.201843
1769.543794	-14.173596
1770.588895	-14.158980
1771.635231	-14.148924
1772.682805	-14.124350
1773.731619	-14.092201
1774.781674	-14.071973
1775.832973	-14.058755
1776.885519	-14.028952
1777.939312	-13.990934
1778.994357	-13.970828
1780.050654	-13.966670
1781.108207	-13.948031
1782.167017	-13.916246
1783.227087	-13.899858
1784.288418	-13.897190
1785.351013	-13.878441
1786.414875	-13.845340
1787.480006	-13.830934
1788.546407	-13.828983
1789.614082	-13.807116
1790.683032	-13.770813
1791.753259	-13.756407
1792.824767	-13.753005
1793.897557	-13.726788
1794.971632	-13.692043
1796.046994	-13.683526
1797.123645	-13.682071
1798.201588	-13.655220
1799.280824	-13.629025
1800.361357	-13.629245
1801.443188	-13.623730
1802.526320	-13.589199
1803.610756	-13.566799
1804.696497	-13.569313
1805.783546	-13.554289
1806.871906	-13.517549
1807.961578	-13.506240
1809.052565	-13.510203
1810.144870	-13.485707
1811.238494	-13.456608
1812.333441	-13.460557
1813.429713	-13.459482
1814.527311	-13.425968
1815.626239	-13.410007
1816.726499	-13.421252
1817.828094	-13.405235
1818.931025	-13.369971
1820.035295	-13.369263
1821.140906	-13.373647
1822.247862	-13.344578
1823.356165	-13.327401
1824.465816	-13.341126
1825.576819	-13.328292
1826.689175	-13.297992
1827.802888	-13.302789
1828.917960	-13.309135
1830.034394	-13.279617
1831.152191	-13.267608
1832.271354	-13.280028
1833.391887	-13.261222
1834.513790	-13.237434
1835.637068	-13.250682
1836.761722	-13.247678
1837.887755	-13.216828
1839.015169	-13.219298
1840.143968	-13.229269
1841.274153	-13.201486
1842.405727	-13.190068
1843.538693	-13.204335
1844.673053	-13.184047
1845.808810	-13.163624
1846.945966	-13.180174
1848.084525	-13.173049
1849.224488	-13.146055
1850.365858	-13.156454
1851.508638	-13.158694
1852.652831	-13.132829
1853.798438	-13.137762
1854.945463	-13.145886
1856.093909	-13.120807
1857.243777	-13.121901
1858.395071	-13.136258
1859.547794	-13.116094
1860.701947	-13.113317
1861.857533	-13.129540
1863.014556	-13.111187
1864.173018	-13.106349
1865.332922	-13.125595
1866.494270	-13.111607
1867.657065	-13.105291
1868.821309	-13.125647
1869.987006	-13.114505
1871.154158	-13.108364
1872.322768	-13.128157
1873.492839	-13.119078
1874.664373	-13.114330
1875.837373	-13.132992
1877.011841	-13.123872
1878.187782	-13.122816
1879.365197	-13.141172
1880.544089	-13.131571
1881.724460	-13.132017
1882.906315	-13.147143
1884.089655	-13.137461
1885.274483	-13.144357
1886.460803	-13.156818
1887.648616	-13.145697
1888.837927	-13.155833
1890.028736	-13.165856
1891.221049	-13.157522
1892.414866	-13.171330
1893.610192	-13.175323
1894.807028	-13.170624
1896.005379	-13.187464
1897.205246	-13.189398
1898.406633	-13.190876
1899.609542	-13.204563
1900.813977	-13.204208
1902.019940	-13.216923
1903.227434	-13.228203
1904.436462	-13.227880
1905.647028	-13.245891
1906.859133	-13.252251
1908.072781	-13.259459
1909.287976	-13.279681
1910.504719	-13.281301
1911.723013	-13.296416
1912.942863	-13.313175
1914.164270	-13.316196
1915.387238	-13.335008
1916.611770	-13.340991
1917.837868	-13.351175
1919.065536	-13.369222
1920.294777	-13.372411
1921.525594	-13.390826
1922.757989	-13.398020
1923.991967	-13.404996
1925.227529	-13.420622
1926.464679	-13.416444
1927.703420	-13.437927
1928.943755	-13.446875
1930.185688	-13.443849
1931.429221	-13.465133
1932.674356	-13.462182
1933.921099	-13.474920
1935.169451	-13.484953
1936.419415	-13.484556
1937.670996	-13.503276
1938.924195	-13.500635
1940.179017	-13.517546
1941.435463	-13.522976
1942.693538	-13.526509
1943.953245	-13.550329
1945.214586	-13.543388
1946.477566	-13.565157
1947.742186	-13.571331
1949.008451	-13.578105
1950.276363	-13.600062
1951.545926	-13.595040
1952.817143	-13.619225
1954.090017	-13.620212
1955.364551	-13.633640
1956.640749	-13.644672
1957.918615	-13.646380
1959.198150	-13.666314
1960.479359	-13.658913
1961.762244	-13.680162
1963.046810	-13.674073
1964.333059	-13.683831
1965.620995	-13.691609
1966.910621	-13.684484
1968.201940	-13.700988
1969.494956	-13.688132
1970.789672	-13.703224
1972.086091	-13.693031
1973.384217	-13.701422
1974.684053	-13.698562
1975.985602	-13.696232
1977.288869	-13.703999
1978.593855	-13.693578
1979.900566	-13.705793
1981.209003	-13.694676
1982.519171	-13.706965
1983.831073	-13.695998
1985.144712	-13.708068
1986.460093	-13.700737
1987.777217	-13.706272
1989.096089	-13.708131
1990.416713	-13.706493
1991.739092	-13.713310
1993.063228	-13.705389
1994.389127	-13.716539
1995.716791	-13.708038
1997.046223	-13.714742
1998.377428	-13.703922
1999.710409	-13.714397
2001.045169	-13.695922
2002.381713	-13.703510
2003.720043	-13.686647
2005.060163	-13.688714
2006.402077	-13.672128
2007.745788	-13.666835
2009.091301	-13.651023
2010.438618	-13.642944
2011.787743	-13.622461
2013.138680	-13.614586
2014.491433	-13.594117
2015.846005	-13.582652
2017.202399	-13.562655
2018.560621	-13.549848
2019.920673	-13.527929
2021.282558	-13.516448
2022.646281	-13.497723
2024.011846	-13.484550
2025.379256	-13.468475
2026.748515	-13.457034
2028.119626	-13.438028
2029.492594	-13.431403
2030.867422	-13.412094
2032.244114	-13.409012
2033.622673	-13.388435
2035.003104	-13.388093
2036.385411	-13.364411
2037.769597	-13.361542
2039.155665	-13.341406
2040.543621	-13.335781
2041.933467	-13.312834
2043.325208	-13.311454
2044.718847	-13.282060
2046.114389	-13.278787
2047.511837	-13.250472
2048.911195	-13.241701
2050.312467	-13.215022
2051.715657	-13.200634
2053.120769	-13.177785
2054.527807	-13.154997
2055.936775	-13.137167
2057.347677	-13.104856
2058.760516	-13.093859
2060.175297	-13.056011
2061.592025	-13.047991
2063.010701	-13.010241
2064.431332	-13.002285
2065.853921	-12.969239
2067.278472	-12.955110
2068.704988	-12.936099
2070.133475	-12.910877
2071.563936	-12.906523
2072.996375	-12.874928
2074.430796	-12.876657
2075.867204	-12.846716
2077.305603	-12.845156
2078.745996	-12.824537
2080.188389	-12.812658
2081.632784	-12.803929
2083.079187	-12.781061
2084.527601	-12.780336
2085.978030	-12.754080
2087.430480	-12.751022
2088.884954	-12.731042
2090.341455	-12.715540
2091.799990	-12.706977
2093.260561	-12.680713
2094.723173	-12.674574
2096.187831	-12.652231
2097.654538	-12.636593
2099.123300	-12.623924
2100.594119	-12.597571
2102.067001	-12.587975
2103.541950	-12.565426
2105.018971	-12.547594
2106.498067	-12.540150
2107.979243	-12.512924
2109.462503	-12.508052
2110.947853	-12.491618
2112.435295	-12.474549
2113.924836	-12.475534
2115.416478	-12.453844
2116.910227	-12.453622
2118.406087	-12.448502
2119.904063	-12.432389
2121.404158	-12.439945
2122.906378	-12.429050
2124.410727	-12.421421
2125.917210	-12.426402
2127.425831	-12.413313
2128.936594	-12.416536
2130.449505	-12.415598
2131.964567	-12.402694
2133.481786	-12.411486
2135.001166	-12.404762
2136.522711	-12.393296
2138.046427	-12.403893
2139.572317	-12.394732
2141.100388	-12.379712
2142.630642	-12.392909
2144.163085	-12.372024
2145.697722	-12.365361
2147.234558	-12.372527
2148.773596	-12.354643
2150.314842	-12.348337
2151.858301	-12.360332
2153.403977	-12.343149
2154.951875	-12.343966
2156.502000	-12.360584
2158.054357	-12.347625
2159.608950	-12.352527
2161.165785	-12.374923
2162.724866	-12.370556
2164.286198	-12.374529
2165.849786	-12.402879
2167.415635	-12.405138
2168.983749	-12.406074
2170.554134	-12.434878
2172.126795	-12.445802
2173.701737	-12.443577
2175.278964	-12.466690
2176.858481	-12.487440
2178.440294	-12.479974
2180.024408	-12.494998
2181.610827	-12.520632
2183.199557	-12.520200
2184.790602	-12.516185
2186.383968	-12.542463
2187.979660	-12.552816
2189.577683	-12.541430
2191.178041	-12.553679
2192.780741	-12.581198
2194.385787	-12.581979
2195.993185	-12.578699
2197.602939	-12.611193
2199.215054	-12.632178
