# 2022-03-21_17.02.20
# shape = sech2
# FWHM_ps = 0.1
# carrier_nm = 1542
# frep_MHz = 12126
# pow_mW = 8000
# GDD = 0.0
# propa_len = 0.12111111111111113
# untap_len = 0.01
# taper_len = 0.061111111111111116
# waist_len = 0.02
# uptap_len = 0.02
# untap_scale = 1.0
# waist_scale = 0.26666666666666666
# workingDir = NL_20110305_12 (Spirou)
# axis = slow
# window_ps = 10.0
# steps = 200
# points = 21700
# 
# wavelength [nm]	 power spectral density [dB]
600.043425	-72.558004
600.163550	-72.537668
600.283723	-72.514909
600.403943	-72.489338
600.524212	-72.463622
600.644529	-72.440893
600.764895	-72.423717
600.885308	-72.413963
601.005770	-72.412411
601.126280	-72.418650
601.246839	-72.431662
601.367446	-72.449693
601.488101	-72.470818
601.608804	-72.493256
601.729557	-72.515388
601.850357	-72.535782
601.971206	-72.553334
602.092104	-72.567659
602.213050	-72.579182
602.334045	-72.588970
602.455089	-72.598279
602.576181	-72.608372
602.697322	-72.620258
602.818511	-72.634515
602.939749	-72.651366
603.061036	-72.670477
603.182372	-72.691054
603.303757	-72.712160
603.425191	-72.732519
603.546673	-72.750627
603.668204	-72.765246
603.789785	-72.775562
603.911414	-72.781360
604.033092	-72.783088
604.154820	-72.781551
604.276596	-72.778036
604.398422	-72.773746
604.520297	-72.769181
604.642220	-72.764771
604.764193	-72.761053
604.886216	-72.758411
605.008287	-72.757068
605.130408	-72.757101
605.252578	-72.758300
605.374798	-72.760323
605.497066	-72.762673
605.619385	-72.764840
605.741752	-72.766596
605.864169	-72.768001
605.986636	-72.769093
606.109152	-72.769204
606.231718	-72.767403
606.354333	-72.763501
606.476998	-72.757729
606.599712	-72.750081
606.722476	-72.740652
606.845290	-72.729822
606.968154	-72.718012
607.091067	-72.706167
607.214030	-72.695274
607.337043	-72.685610
607.460106	-72.677235
607.583219	-72.670075
607.706381	-72.663478
607.829594	-72.655846
607.952856	-72.645011
608.076169	-72.628866
608.199531	-72.605861
608.322944	-72.575046
608.446407	-72.536306
608.569920	-72.490221
608.693483	-72.437669
608.817096	-72.379925
608.940759	-72.318853
609.064473	-72.256908
609.188237	-72.196471
609.312051	-72.139427
609.435916	-72.086800
609.559831	-72.039136
609.683796	-71.996574
609.807812	-71.958426
609.931878	-71.923318
610.055995	-71.889613
610.180162	-71.856269
610.304380	-71.822959
610.428648	-71.789173
610.552967	-71.754518
610.677337	-71.719803
610.801757	-71.687003
610.926228	-71.658224
611.050750	-71.635701
611.175323	-71.621321
611.299946	-71.616467
611.424620	-71.622237
611.549345	-71.639273
611.674121	-71.667093
611.798948	-71.704193
611.923826	-71.748457
612.048755	-71.797562
612.173734	-71.848718
612.298765	-71.898908
612.423847	-71.945808
612.548980	-71.988393
612.674165	-72.026776
612.799400	-72.061911
612.924687	-72.095117
613.050025	-72.128186
613.175414	-72.163323
613.300854	-72.203058
613.426346	-72.249452
613.551889	-72.304199
613.677484	-72.368590
613.803130	-72.442922
613.928827	-72.526402
614.054576	-72.617568
614.180377	-72.714014
614.306229	-72.812967
614.432132	-72.912438
614.558087	-73.010872
614.684094	-73.107044
614.810153	-73.200616
614.936263	-73.292027
615.062425	-73.382679
615.188639	-73.474884
615.314904	-73.571438
615.441222	-73.675268
615.567591	-73.789951
615.694012	-73.919239
615.820486	-74.065771
615.947011	-74.230503
616.073588	-74.413438
616.200217	-74.614195
616.326898	-74.832258
616.453632	-75.065402
616.580417	-75.310026
616.707255	-75.563034
616.834144	-75.821971
616.961086	-76.084908
617.088081	-76.349732
617.215127	-76.614021
617.342226	-76.876774
617.469378	-77.138510
617.596581	-77.401479
617.723837	-77.669534
617.851146	-77.945914
617.978507	-78.232662
618.105920	-78.531758
618.233386	-78.844858
618.360905	-79.172465
618.488476	-79.513235
618.616100	-79.864955
618.743777	-80.225517
618.871506	-80.592737
618.999288	-80.964061
619.127123	-81.334771
619.255011	-81.701039
619.382951	-82.062348
619.510945	-82.418775
619.638991	-82.768690
619.767090	-83.111292
619.895243	-83.447942
620.023448	-83.780492
620.151706	-84.109034
620.280017	-84.431196
620.408382	-84.743779
620.536799	-85.042302
620.665270	-85.322792
620.793794	-85.580190
620.922371	-85.809811
621.051002	-86.010256
621.179686	-86.177237
621.308423	-86.305167
621.437213	-86.393004
621.566057	-86.441000
621.694954	-86.445835
621.823905	-86.402044
621.952909	-86.304771
622.081967	-86.151887
622.211079	-85.946641
622.340244	-85.695072
622.469462	-85.403795
622.598735	-85.082969
622.728061	-84.742617
622.857441	-84.394651
622.986874	-84.051980
623.116361	-83.725696
623.245903	-83.420516
623.375498	-83.138143
623.505147	-82.880698
623.634850	-82.649265
623.764606	-82.444152
623.894417	-82.265289
624.024282	-82.109690
624.154201	-81.974792
624.284174	-81.858498
624.414202	-81.755927
624.544283	-81.661839
624.674419	-81.572963
624.804609	-81.486731
624.934853	-81.400330
625.065151	-81.310648
625.195504	-81.215605
625.325911	-81.114863
625.456373	-81.009558
625.586889	-80.901831
625.717460	-80.792615
625.848085	-80.683893
625.978764	-80.579207
626.109498	-80.480827
626.240287	-80.389247
626.371131	-80.304201
626.502029	-80.225655
626.632982	-80.153374
626.763989	-80.088284
626.895052	-80.030963
627.026169	-79.979681
627.157341	-79.931373
627.288568	-79.883466
627.419850	-79.834634
627.551187	-79.783528
627.682579	-79.729057
627.814026	-79.671381
627.945528	-79.610132
628.077085	-79.545141
628.208697	-79.476134
628.340364	-79.402197
628.472087	-79.323595
628.603865	-79.241063
628.735698	-79.155169
628.867586	-79.066894
628.999530	-78.976650
629.131529	-78.883452
629.263584	-78.786553
629.395694	-78.684306
629.527859	-78.575710
629.660080	-78.461168
629.792357	-78.341587
629.924689	-78.215010
630.057077	-78.078573
630.189520	-77.931651
630.322019	-77.775406
630.454574	-77.610408
630.587184	-77.437029
630.719851	-77.255485
630.852573	-77.066540
630.985351	-76.872055
631.118185	-76.673838
631.251075	-76.472939
631.384021	-76.270486
631.517023	-76.067148
631.650081	-75.864715
631.783195	-75.664886
631.916365	-75.467830
632.049592	-75.274574
632.182874	-75.086510
632.316213	-74.903950
632.449608	-74.726567
632.583059	-74.554657
632.716567	-74.388638
632.850131	-74.227842
632.983751	-74.071599
633.117428	-73.920055
633.251161	-73.773457
633.384951	-73.631990
633.518797	-73.496196
633.652700	-73.366941
633.786660	-73.244812
633.920676	-73.129923
634.054749	-73.021839
634.188879	-72.920575
634.323065	-72.826793
634.457308	-72.741392
634.591608	-72.665234
634.725965	-72.598759
634.860379	-72.541911
634.994850	-72.494305
635.129377	-72.455567
635.263962	-72.426178
635.398604	-72.407224
635.533303	-72.399185
635.668058	-72.401230
635.802872	-72.412169
635.937742	-72.430813
636.072669	-72.457320
636.207654	-72.492669
636.342696	-72.537208
636.477796	-72.589752
636.612953	-72.649265
636.748167	-72.715145
636.883439	-72.787297
637.018768	-72.865518
637.154155	-72.948882
637.289599	-73.037502
637.425101	-73.133372
637.560660	-73.238467
637.696277	-73.353264
637.831952	-73.476877
637.967685	-73.609311
638.103475	-73.752776
638.239324	-73.909985
638.375230	-74.082987
638.511194	-74.272090
638.647215	-74.478032
638.783295	-74.703516
638.919433	-74.950206
639.055629	-75.218607
639.191883	-75.509634
639.328195	-75.824580
639.464565	-76.164832
639.600994	-76.531468
639.737481	-76.924383
639.874025	-77.342181
640.010629	-77.785515
640.147290	-78.254253
640.284010	-78.746236
640.420789	-79.259187
640.557625	-79.790749
640.694521	-80.337243
640.831474	-80.893100
640.968487	-81.451519
641.105558	-82.005230
641.242687	-82.549689
641.379876	-83.078131
641.517123	-83.577007
641.654429	-84.030943
641.791793	-84.426404
641.929216	-84.751998
642.066699	-84.996278
642.204240	-85.142668
642.341840	-85.175791
642.479499	-85.091431
642.617217	-84.894782
642.754994	-84.593355
642.892830	-84.201580
643.030726	-83.741115
643.168680	-83.235902
643.306694	-82.705871
643.444767	-82.165397
643.582899	-81.625711
643.721091	-81.097425
643.859342	-80.586726
643.997652	-80.098642
644.136022	-79.639577
644.274451	-79.213327
644.412940	-78.820657
644.551488	-78.461949
644.690096	-78.135939
644.828763	-77.841265
644.967490	-77.577344
645.106277	-77.343928
645.245124	-77.140523
645.384030	-76.964528
645.522997	-76.814557
645.662023	-76.690623
645.801109	-76.590071
645.940255	-76.510776
646.079460	-76.451181
646.218726	-76.408352
646.358052	-76.381009
646.497438	-76.369464
646.636884	-76.373516
646.776391	-76.391696
646.915957	-76.422549
647.055584	-76.465597
647.195271	-76.520790
647.335019	-76.587274
647.474826	-76.665490
647.614695	-76.756154
647.754623	-76.858993
647.894612	-76.974124
648.034662	-77.101342
648.174772	-77.240703
648.314943	-77.394005
648.455174	-77.561315
648.595466	-77.742000
648.735819	-77.937415
648.876233	-78.148791
649.016707	-78.374996
649.157242	-78.613479
649.297838	-78.861190
649.438495	-79.118564
649.579213	-79.388461
649.719992	-79.668908
649.860832	-79.952465
650.001733	-80.232682
650.142695	-80.502159
650.283718	-80.750335
650.424803	-80.963855
650.565949	-81.130616
650.707156	-81.242523
650.848424	-81.291097
650.989754	-81.268109
651.131145	-81.167363
651.272597	-80.988910
651.414111	-80.739155
651.555687	-80.429279
651.697324	-80.073228
651.839022	-79.684813
651.980782	-79.276418
652.122604	-78.859050
652.264488	-78.440205
652.406433	-78.024916
652.548441	-77.617680
652.690510	-77.223989
652.832640	-76.848815
652.974833	-76.493177
653.117088	-76.156914
653.259405	-75.840686
653.401784	-75.544159
653.544224	-75.267256
653.686727	-75.010417
653.829293	-74.773277
653.971920	-74.554093
654.114609	-74.351533
654.257361	-74.165312
654.400175	-73.995463
654.543052	-73.840762
654.685991	-73.698770
654.828992	-73.567780
654.972056	-73.448111
655.115183	-73.340319
655.258372	-73.243164
655.401623	-73.155625
655.544937	-73.078247
655.688314	-73.011047
655.831754	-72.953928
655.975256	-72.906890
656.118822	-72.870223
656.262450	-72.844974
656.406141	-72.832308
656.549894	-72.832082
656.693711	-72.844831
656.837591	-72.871980
656.981534	-72.914533
657.125540	-72.972471
657.269610	-73.046812
657.413742	-73.138900
657.557938	-73.249725
657.702196	-73.379746
657.846519	-73.528162
657.990904	-73.694909
658.135353	-73.880936
658.279866	-74.087909
658.424441	-74.317150
658.569081	-74.568113
658.713784	-74.841056
658.858550	-75.136515
659.003381	-75.454914
659.148274	-75.797406
659.293232	-76.164824
659.438253	-76.556121
659.583339	-76.969713
659.728488	-77.404670
659.873701	-77.860193
660.018978	-78.335405
660.164318	-78.828790
660.309723	-79.335856
660.455192	-79.852563
660.600725	-80.373420
660.746323	-80.888528
660.891984	-81.387452
661.037710	-81.859292
661.183500	-82.290330
661.329354	-82.658545
661.475272	-82.934139
661.621255	-83.100018
661.767303	-83.148677
661.913415	-83.072415
662.059591	-82.869307
662.205833	-82.553555
662.352138	-82.153261
662.498509	-81.695616
662.644944	-81.199832
662.791443	-80.676599
662.938008	-80.138389
663.084638	-79.603561
663.231332	-79.083008
663.378091	-78.580416
663.524915	-78.098002
663.671804	-77.638382
663.818759	-77.204423
663.965778	-76.796762
664.112863	-76.416004
664.260012	-76.063152
664.407227	-75.739454
664.554507	-75.445434
664.701853	-75.179918
664.849264	-74.941648
664.996740	-74.731037
665.144282	-74.546945
665.291889	-74.387678
665.439561	-74.254075
665.587300	-74.145938
665.735103	-74.060986
665.882973	-73.996885
666.030908	-73.951318
666.178909	-73.922593
666.326976	-73.910725
666.475109	-73.913729
666.623307	-73.928451
666.771571	-73.953804
666.919902	-73.988749
667.068298	-74.032535
667.216761	-74.083159
667.365289	-74.138104
667.513884	-74.196521
667.662545	-74.257500
667.811272	-74.322033
667.960065	-74.391430
668.108925	-74.464347
668.257851	-74.543144
668.406843	-74.630929
668.555902	-74.728102
668.705027	-74.835506
668.854219	-74.955020
669.003478	-75.090887
669.152803	-75.246476
669.302195	-75.422256
669.451653	-75.620244
669.601179	-75.845313
669.750771	-76.101481
669.900430	-76.389970
670.050156	-76.710398
670.199949	-77.065061
670.349808	-77.457585
670.499735	-77.888884
670.649729	-78.359255
670.799790	-78.867906
670.949918	-79.410793
671.100114	-79.984876
671.250377	-80.582186
671.400707	-81.181646
671.551104	-81.753886
671.701569	-82.260004
671.852101	-82.656021
672.002700	-82.894484
672.153368	-82.937412
672.304102	-82.773648
672.454905	-82.420962
672.605775	-81.921619
672.756713	-81.330236
672.907718	-80.694876
673.058791	-80.050950
673.209933	-79.420521
673.361142	-78.818961
673.512419	-78.253959
673.663764	-77.726255
673.815177	-77.238435
673.966658	-76.791669
674.118207	-76.383972
674.269825	-76.010950
674.421510	-75.668750
674.573264	-75.355071
674.725086	-75.068393
674.876977	-74.804846
675.028936	-74.560533
675.180963	-74.331897
675.333059	-74.116190
675.485224	-73.911751
675.637457	-73.717535
675.789758	-73.533218
675.942129	-73.356136
676.094568	-73.183243
676.247075	-73.013715
676.399652	-72.848430
676.552298	-72.688462
676.705012	-72.533370
676.857795	-72.383447
677.010648	-72.239058
677.163569	-72.099673
677.316560	-71.965879
677.469619	-71.838359
677.622748	-71.717847
677.775946	-71.606041
677.929214	-71.503640
678.082551	-71.411099
678.235957	-71.328577
678.389432	-71.256833
678.542977	-71.197676
678.696592	-71.151161
678.850276	-71.116589
679.004030	-71.095413
679.157853	-71.089170
679.311746	-71.097298
679.465709	-71.118450
679.619742	-71.152597
679.773844	-71.200371
679.928017	-71.262410
680.082259	-71.337296
680.236571	-71.424082
680.390954	-71.523406
680.545406	-71.636018
680.699929	-71.761611
680.854522	-71.897575
681.009185	-72.040691
681.163918	-72.190906
681.318722	-72.348365
681.473596	-72.510852
681.628540	-72.675339
681.783555	-72.838719
681.938641	-72.998895
682.093797	-73.151898
682.249023	-73.293071
682.404321	-73.420443
682.559689	-73.531539
682.715128	-73.623485
682.870637	-73.694825
683.026218	-73.744303
683.181869	-73.772574
683.337591	-73.782728
683.493385	-73.779411
683.649249	-73.763779
683.805185	-73.738085
683.961191	-73.706464
684.117269	-73.672802
684.273418	-73.639771
684.429639	-73.610474
684.585930	-73.587358
684.742294	-73.570915
684.898728	-73.560934
685.055234	-73.556954
685.211812	-73.559774
685.368461	-73.567176
685.525182	-73.578168
685.681975	-73.591217
685.838839	-73.605018
685.995775	-73.619528
686.152783	-73.633601
686.309863	-73.645157
686.467014	-73.653333
686.624238	-73.659639
686.781534	-73.664391
686.938902	-73.666413
687.096342	-73.665413
687.253854	-73.662811
687.411438	-73.658248
687.569095	-73.650543
687.726824	-73.637792
687.884626	-73.617855
688.042499	-73.589387
688.200446	-73.548923
688.358465	-73.493518
688.516556	-73.422233
688.674720	-73.334087
688.832957	-73.228357
688.991266	-73.106089
689.149649	-72.970529
689.308104	-72.824715
689.466632	-72.671344
689.625233	-72.514856
689.783906	-72.359272
689.942653	-72.207311
690.101473	-72.060266
690.260367	-71.919765
690.419333	-71.786851
690.578372	-71.661552
690.737485	-71.543507
690.896672	-71.431398
691.055931	-71.323148
691.215264	-71.217201
691.374671	-71.112309
691.534151	-71.007876
691.693704	-70.902050
691.853332	-70.792911
692.013033	-70.681528
692.172807	-70.569255
692.332656	-70.456880
692.492578	-70.345683
692.652575	-70.237592
692.812645	-70.133620
692.972789	-70.034141
693.133007	-69.939722
693.293300	-69.851274
693.453666	-69.768280
693.614107	-69.688631
693.774622	-69.610803
693.935211	-69.535021
694.095875	-69.458825
694.256613	-69.380210
694.417426	-69.299623
694.578313	-69.216942
694.739274	-69.132010
694.900311	-69.045762
695.061421	-68.958916
695.222607	-68.872401
695.383868	-68.788294
695.545203	-68.708545
695.706613	-68.634313
695.868098	-68.567654
696.029658	-68.510128
696.191293	-68.464139
696.353003	-68.430007
696.514789	-68.407632
696.676649	-68.396946
696.838585	-68.397661
697.000596	-68.409314
697.162682	-68.431038
697.324844	-68.462809
697.487081	-68.503733
697.649394	-68.553067
697.811782	-68.610584
697.974246	-68.676974
698.136786	-68.753243
698.299401	-68.839832
698.462092	-68.938307
698.624859	-69.050039
698.787702	-69.176126
698.950621	-69.317015
699.113616	-69.473277
699.276686	-69.644386
699.439833	-69.829631
699.603056	-70.028059
699.766355	-70.237384
699.929731	-70.455498
700.093183	-70.678621
700.256711	-70.902520
700.420315	-71.124588
700.583996	-71.341084
700.747754	-71.545683
700.911588	-71.732905
701.075499	-71.899770
701.239486	-72.041351
701.403550	-72.153040
701.567691	-72.232303
701.731909	-72.275622
701.896203	-72.280048
702.060575	-72.247069
702.225024	-72.173475
702.389549	-72.058681
702.554152	-71.905396
702.718832	-71.715782
702.883589	-71.493083
703.048424	-71.240227
703.213335	-70.962280
703.378324	-70.666077
703.543391	-70.357172
703.708535	-70.040923
703.873757	-69.723500
704.039056	-69.408907
704.204433	-69.101768
704.369887	-68.804327
704.535420	-68.518401
704.701030	-68.246580
704.866718	-67.987949
705.032484	-67.740602
705.198328	-67.503635
705.364250	-67.276106
705.530250	-67.056045
705.696328	-66.842305
705.862485	-66.633401
706.028720	-66.429092
706.195033	-66.229618
706.361424	-66.034564
706.527894	-65.844589
706.694442	-65.660818
706.861069	-65.483910
707.027775	-65.315436
707.194559	-65.155828
707.361422	-65.004573
707.528363	-64.862361
707.695384	-64.729852
707.862483	-64.605853
708.029661	-64.489449
708.196918	-64.380234
708.364254	-64.277384
708.531670	-64.179567
708.699164	-64.085927
708.866738	-63.995416
709.034391	-63.907645
709.202123	-63.822771
709.369935	-63.740853
709.537826	-63.661880
709.705796	-63.586359
709.873847	-63.515353
710.041976	-63.450174
710.210186	-63.391664
710.378475	-63.340046
710.546844	-63.296118
710.715292	-63.259990
710.883821	-63.231610
711.052429	-63.210845
711.221118	-63.197564
711.389887	-63.190603
711.558735	-63.189644
711.727664	-63.194412
711.896673	-63.204085
712.065763	-63.218557
712.234932	-63.238760
712.404183	-63.265089
712.573513	-63.297683
712.742924	-63.337579
712.912416	-63.385931
713.081988	-63.443174
713.251641	-63.510902
713.421375	-63.590651
713.591190	-63.682200
713.761085	-63.786136
713.931061	-63.902934
714.101119	-64.032769
714.271257	-64.175592
714.441476	-64.331474
714.611777	-64.499353
714.782159	-64.679561
714.952622	-64.872961
715.123166	-65.078757
715.293792	-65.297283
715.464499	-65.530921
715.635288	-65.780175
715.806158	-66.046309
715.977110	-66.331694
716.148143	-66.637961
716.319259	-66.966015
716.490456	-67.318580
716.661735	-67.696596
716.833096	-68.098815
717.004538	-68.525091
717.176063	-68.974937
717.347670	-69.444958
717.519359	-69.932559
717.691130	-70.430490
717.862984	-70.929411
718.034920	-71.419308
718.206938	-71.882917
718.379039	-72.300020
718.551222	-72.648558
718.723488	-72.906895
718.895836	-73.052952
719.068267	-73.070428
719.240781	-72.957824
719.413377	-72.724776
719.586057	-72.387996
719.758819	-71.970875
719.931664	-71.498233
720.104593	-70.991812
720.277604	-70.471010
720.450699	-69.948507
720.623876	-69.431917
720.797137	-68.928397
720.970482	-68.441661
721.143910	-67.974012
721.317421	-67.526361
721.491016	-67.098236
721.664694	-66.689390
721.838456	-66.300620
722.012302	-65.931852
722.186231	-65.581708
722.360244	-65.249963
722.534342	-64.936189
722.708523	-64.640573
722.882788	-64.363451
723.057137	-64.103299
723.231570	-63.860053
723.406088	-63.633046
723.580689	-63.420767
723.755375	-63.221489
723.930146	-63.034362
724.105000	-62.858542
724.279940	-62.692591
724.454963	-62.535867
724.630072	-62.386795
724.805265	-62.244938
724.980543	-62.110297
725.155905	-61.982668
725.331353	-61.861453
725.506885	-61.746912
725.682503	-61.639522
725.858205	-61.539486
726.033993	-61.446865
726.209865	-61.361435
726.385823	-61.282944
726.561866	-61.211143
726.737995	-61.145088
726.914209	-61.083563
727.090508	-61.025616
727.266893	-60.970367
727.443364	-60.916689
727.619920	-60.863946
727.796562	-60.811875
727.973290	-60.760697
728.150103	-60.710595
728.327003	-60.660559
728.503988	-60.610958
728.681060	-60.562423
728.858218	-60.514240
729.035461	-60.466197
729.212791	-60.417936
729.390208	-60.368328
729.567710	-60.316818
729.745299	-60.263474
729.922975	-60.207519
730.100737	-60.148128
730.278586	-60.084951
730.456521	-60.018464
730.634543	-59.948971
730.812652	-59.876290
730.990848	-59.801072
731.169130	-59.723571
731.347500	-59.644281
731.525957	-59.564196
731.704500	-59.483468
731.883131	-59.402139
732.061850	-59.320604
732.240655	-59.238364
732.419548	-59.154868
732.598528	-59.070034
732.777596	-58.983841
732.956751	-58.896156
733.135994	-58.806658
733.315325	-58.715941
733.494744	-58.624845
733.674250	-58.533628
733.853844	-58.443275
734.033526	-58.354307
734.213296	-58.267290
734.393154	-58.183106
734.573101	-58.102280
734.753135	-58.025023
734.933258	-57.951191
735.113469	-57.880339
735.293769	-57.812318
735.474157	-57.747068
735.654633	-57.683989
735.835198	-57.622806
736.015852	-57.563550
736.196594	-57.506806
736.377426	-57.452918
736.558346	-57.402374
736.739355	-57.356288
736.920453	-57.315218
737.101640	-57.279904
737.282916	-57.250983
737.464282	-57.228337
737.645736	-57.212212
737.827280	-57.202378
738.008914	-57.198211
738.190637	-57.199499
738.372449	-57.205711
738.554351	-57.216129
738.736342	-57.231260
738.918424	-57.251094
739.100595	-57.275725
739.282855	-57.306009
739.465206	-57.342557
739.647647	-57.386202
739.830178	-57.437096
740.012799	-57.495531
740.195510	-57.561527
740.378311	-57.634932
740.561203	-57.715480
740.744185	-57.802606
740.927258	-57.896224
741.110421	-57.996712
741.293674	-58.103984
741.477018	-58.218003
741.660453	-58.339548
741.843979	-58.468917
742.027596	-58.606551
742.211303	-58.752672
742.395102	-58.907817
742.578991	-59.071884
742.762972	-59.244877
742.947044	-59.427176
743.131207	-59.618512
743.315461	-59.818127
743.499807	-60.025827
743.684244	-60.241457
743.868773	-60.465233
744.053394	-60.697438
744.238106	-60.937483
744.422910	-61.185788
744.607805	-61.442800
744.792793	-61.708276
744.977872	-61.981909
745.163044	-62.262999
745.348307	-62.551150
745.533663	-62.845521
745.719111	-63.145425
745.904651	-63.449461
746.090283	-63.756380
746.276008	-64.065647
746.461826	-64.376906
746.647735	-64.688660
746.833738	-64.998941
747.019833	-65.306734
747.206021	-65.608948
747.392302	-65.901883
747.578676	-66.181769
747.765143	-66.442978
747.951703	-66.681101
748.138356	-66.893169
748.325102	-67.074022
748.511941	-67.220583
748.698874	-67.330996
748.885900	-67.404931
749.073019	-67.442690
749.260232	-67.445297
749.447539	-67.414824
749.634939	-67.353132
749.822433	-67.264416
750.010021	-67.151456
750.197703	-67.015596
750.385479	-66.859864
750.573348	-66.688112
750.761312	-66.501667
750.949370	-66.303783
751.137523	-66.097586
751.325769	-65.886391
751.514110	-65.674041
751.702545	-65.464220
751.891075	-65.260106
752.079700	-65.063642
752.268419	-64.875122
752.457233	-64.696836
752.646142	-64.528806
752.835145	-64.370730
753.024244	-64.223142
753.213437	-64.086298
753.402726	-63.959501
753.592110	-63.842699
753.781589	-63.737267
753.971163	-63.643962
754.160833	-63.563736
754.350598	-63.497703
754.540459	-63.448186
754.730415	-63.414996
754.920467	-63.398005
755.110615	-63.397315
755.300858	-63.412186
755.491198	-63.442615
755.681633	-63.488733
755.872164	-63.550191
756.062792	-63.627698
756.253515	-63.723353
756.444335	-63.838850
756.635252	-63.977032
756.826264	-64.140749
757.017373	-64.331194
757.208579	-64.549675
757.399881	-64.796550
757.591280	-65.072205
757.782776	-65.377052
757.974368	-65.713539
758.166058	-66.083315
758.357844	-66.490248
758.549728	-66.936844
758.741708	-67.427923
758.933786	-67.968244
759.125961	-68.562919
759.318233	-69.217977
759.510603	-69.936216
759.703071	-70.720375
759.895635	-71.566903
760.088298	-72.464116
760.281058	-73.385484
760.473916	-74.278320
760.666872	-75.047829
760.859926	-75.558203
761.053078	-75.673640
761.246328	-75.339749
761.439676	-74.627557
761.633122	-73.677312
761.826667	-72.626904
762.020310	-71.569946
762.214052	-70.554808
762.407892	-69.605851
762.601831	-68.730512
762.795868	-67.925173
762.990004	-67.185448
763.184239	-66.504651
763.378573	-65.876702
763.573006	-65.294671
763.767538	-64.754234
763.962169	-64.252690
764.156900	-63.787677
764.351729	-63.357909
764.546658	-62.963191
764.741687	-62.602437
764.936815	-62.273953
765.132042	-61.976121
765.327370	-61.705322
765.522797	-61.458139
765.718324	-61.231318
765.913950	-61.021594
766.109677	-60.827241
766.305504	-60.648181
766.501431	-60.484205
766.697458	-60.335689
766.893586	-60.203041
767.089814	-60.086743
767.286142	-59.986495
767.482571	-59.901102
767.679100	-59.828693
767.875730	-59.766233
768.072461	-59.712203
768.269293	-59.664092
768.466225	-59.619461
768.663259	-59.576409
768.860393	-59.533626
769.057629	-59.490480
769.254966	-59.445828
769.452404	-59.397651
769.649944	-59.344059
769.847585	-59.282604
770.045328	-59.210984
770.243172	-59.127506
770.441118	-59.030825
770.639166	-58.919866
770.837315	-58.794894
771.035567	-58.656615
771.233920	-58.506006
771.432376	-58.344569
771.630934	-58.172692
771.829594	-57.991139
772.028356	-57.800322
772.227220	-57.600790
772.426188	-57.393434
772.625257	-57.178926
772.824430	-56.958509
773.023705	-56.733902
773.223083	-56.506724
773.422563	-56.278657
773.622147	-56.051332
773.821834	-55.825671
774.021624	-55.602532
774.221517	-55.382596
774.421513	-55.166270
774.621613	-54.953750
774.821816	-54.745166
775.022122	-54.540741
775.222532	-54.340643
775.423046	-54.144842
775.623664	-53.953565
775.824385	-53.766974
776.025211	-53.585746
776.226140	-53.409984
776.427173	-53.239856
776.628311	-53.075307
776.829553	-52.916143
777.030899	-52.762319
777.232350	-52.613237
777.433905	-52.468761
777.635564	-52.328969
777.837328	-52.194338
778.039197	-52.065008
778.241171	-51.941377
778.443250	-51.823528
778.645433	-51.711060
778.847722	-51.603621
779.050116	-51.500446
779.252615	-51.401249
779.455219	-51.305834
779.657929	-51.214100
779.860744	-51.126034
780.063665	-51.041547
780.266691	-50.960291
780.469823	-50.882283
780.673061	-50.807509
780.876405	-50.736032
781.079855	-50.668032
781.283410	-50.603536
781.487072	-50.542571
781.690840	-50.484780
781.894715	-50.429862
782.098695	-50.377452
782.302783	-50.326670
782.506976	-50.276941
782.711277	-50.227477
782.915684	-50.177915
783.120198	-50.127754
783.324818	-50.076626
783.529546	-50.024113
783.734381	-49.969823
783.939322	-49.913304
784.144372	-49.854049
784.349528	-49.791876
784.554792	-49.726569
784.760163	-49.657950
784.965642	-49.585830
785.171228	-49.510335
785.376922	-49.431362
785.582724	-49.349213
785.788634	-49.264432
785.994651	-49.177878
786.200777	-49.090190
786.407011	-49.001904
786.613353	-48.913167
786.819804	-48.824194
787.026363	-48.735296
787.233030	-48.646723
787.439806	-48.558815
787.646691	-48.472266
787.853684	-48.387796
788.060786	-48.306142
788.267997	-48.227892
788.475317	-48.153117
788.682746	-48.081671
788.890285	-48.013405
789.097932	-47.948229
789.305689	-47.885674
789.513555	-47.825190
789.721531	-47.766603
789.929617	-47.709712
790.137812	-47.654222
790.346117	-47.600070
790.554531	-47.547024
790.763056	-47.494754
790.971691	-47.442772
791.180436	-47.390325
791.389291	-47.336646
791.598256	-47.281164
791.807332	-47.223499
792.016518	-47.163425
792.225815	-47.100922
792.435222	-47.035572
792.644740	-46.966932
792.854369	-46.894185
793.064109	-46.816688
793.273960	-46.734264
793.483922	-46.647128
793.693995	-46.555881
793.904180	-46.461087
794.114475	-46.363413
794.324882	-46.263265
794.535401	-46.160886
794.746031	-46.056528
794.956774	-45.950887
795.167627	-45.844762
795.378593	-45.739278
795.589671	-45.635835
795.800861	-45.535784
796.012162	-45.440213
796.223577	-45.350034
796.435103	-45.265826
796.646742	-45.188097
796.858493	-45.116997
797.070357	-45.052894
797.282334	-44.996215
797.494423	-44.947617
797.706626	-44.907930
797.918941	-44.877659
798.131369	-44.856845
798.343911	-44.845182
798.556566	-44.842266
798.769334	-44.847586
798.982215	-44.860579
799.195210	-44.880674
799.408319	-44.907555
799.621541	-44.941150
799.834877	-44.981465
800.048327	-45.028258
800.261890	-45.081071
800.475568	-45.138957
800.689360	-45.200685
800.903266	-45.265024
801.117287	-45.330705
801.331422	-45.396867
801.545671	-45.462928
801.760036	-45.528557
801.974514	-45.593562
802.189108	-45.657386
802.403816	-45.719215
802.618640	-45.777927
802.833578	-45.832475
803.048632	-45.882029
803.263800	-45.925686
803.479085	-45.963045
803.694484	-45.993831
803.909999	-46.017868
804.125630	-46.034862
804.341376	-46.044371
804.557239	-46.045594
804.773217	-46.037844
804.989311	-46.020476
805.205521	-45.993197
805.421847	-45.956135
805.638290	-45.909464
805.854849	-45.853476
806.071524	-45.788268
806.288316	-45.714021
806.505225	-45.630976
806.722250	-45.539418
806.939393	-45.440220
807.156652	-45.334285
807.374028	-45.222720
807.591521	-45.106733
807.809132	-44.987254
808.026859	-44.865197
808.244705	-44.741493
808.462667	-44.616913
808.680748	-44.492506
808.898946	-44.369180
809.117261	-44.247917
809.335695	-44.129680
809.554246	-44.015205
809.772916	-43.905064
809.991704	-43.799609
810.210610	-43.699173
810.429634	-43.603967
810.648777	-43.514053
810.868039	-43.429618
811.087419	-43.350947
811.306918	-43.278319
811.526535	-43.211911
811.746272	-43.151669
811.966127	-43.097304
812.186102	-43.048645
812.406196	-43.005638
812.626409	-42.968203
812.846742	-42.936292
813.067194	-42.909837
813.287766	-42.888865
813.508457	-42.873371
813.729269	-42.863551
813.950200	-42.859371
814.171251	-42.860694
814.392422	-42.867368
814.613714	-42.879353
814.835126	-42.896962
815.056658	-42.920458
815.278311	-42.950195
815.500084	-42.986513
815.721978	-43.029718
815.943993	-43.080128
816.166128	-43.137604
816.388385	-43.202108
816.610762	-43.273700
816.833261	-43.352473
817.055881	-43.438450
817.278623	-43.531342
817.501486	-43.630518
817.724471	-43.735310
817.947577	-43.845031
818.170805	-43.958877
818.394155	-44.075941
818.617627	-44.195082
818.841221	-44.315091
819.064937	-44.434762
819.288775	-44.552822
819.512736	-44.667820
819.736819	-44.778331
819.961025	-44.882782
820.185354	-44.979721
820.409805	-45.067866
820.634379	-45.145949
820.859076	-45.212887
821.083897	-45.267478
821.308840	-45.308858
821.533907	-45.336671
821.759097	-45.351157
821.984411	-45.353058
822.209848	-45.343342
822.435409	-45.323169
822.661093	-45.293697
822.886902	-45.256199
823.112834	-45.212372
823.338891	-45.164103
823.565072	-45.113358
823.791377	-45.061985
824.017807	-45.011547
824.244361	-44.963377
824.471039	-44.918815
824.697843	-44.879224
824.924771	-44.845714
825.151824	-44.819041
825.379002	-44.800016
825.606306	-44.789361
825.833734	-44.788047
826.061288	-44.796770
826.288967	-44.815850
826.516772	-44.845100
826.744703	-44.884272
826.972759	-44.932925
827.200941	-44.990599
827.429249	-45.056279
827.657683	-45.128461
827.886243	-45.204970
828.114930	-45.283155
828.343743	-45.359831
828.572682	-45.431179
828.801748	-45.493240
829.030941	-45.541789
829.260260	-45.572610
829.489706	-45.581843
829.719280	-45.566265
829.948980	-45.523444
830.178808	-45.451899
830.408763	-45.351518
830.638845	-45.223666
830.869055	-45.071258
831.099393	-44.898377
831.329858	-44.710007
831.560451	-44.511316
831.791173	-44.307662
832.022022	-44.103951
832.252999	-43.904825
832.484105	-43.714565
832.715339	-43.537079
832.946702	-43.375850
833.178193	-43.233405
833.409813	-43.111752
833.641561	-43.012554
833.873439	-42.937215
834.105445	-42.886767
834.337581	-42.861810
834.569846	-42.862451
834.802241	-42.888534
835.034764	-42.939512
835.267418	-43.014089
835.500201	-43.110340
835.733114	-43.225697
835.966157	-43.356862
836.199329	-43.499734
836.432632	-43.649017
836.666065	-43.798287
836.899629	-43.940587
837.133323	-44.068624
837.367147	-44.175194
837.601102	-44.253397
837.835188	-44.297308
838.069405	-44.303042
838.303752	-44.269060
838.538231	-44.196351
838.772841	-44.088670
839.007582	-43.952188
839.242455	-43.794359
839.477459	-43.623262
839.712595	-43.446381
839.947863	-43.270780
840.183263	-43.102708
840.418794	-42.947656
840.654458	-42.810264
840.890254	-42.694156
841.126182	-42.602185
841.362242	-42.536526
841.598435	-42.498630
841.834761	-42.489184
842.071220	-42.508240
842.307811	-42.555593
842.544536	-42.630357
842.781393	-42.731100
843.018384	-42.855463
843.255508	-42.999870
843.492765	-43.159321
843.730156	-43.327687
843.967681	-43.497978
844.205339	-43.662603
844.443132	-43.813029
844.681058	-43.940170
844.919118	-44.034762
845.157313	-44.088803
845.395642	-44.096640
845.634105	-44.056329
845.872703	-43.969455
846.111436	-43.840536
846.350303	-43.676332
846.589306	-43.484907
846.828443	-43.275405
847.067716	-43.057225
847.307124	-42.839022
847.546667	-42.628339
847.786345	-42.431213
848.026160	-42.252416
848.266110	-42.095370
848.506195	-41.962315
848.746417	-41.854976
848.986775	-41.774539
849.227269	-41.721412
849.467899	-41.694933
849.708666	-41.693554
849.949569	-41.715114
850.190609	-41.756696
850.431785	-41.814267
850.673099	-41.882510
850.914549	-41.955118
851.156137	-42.025003
851.397861	-42.084683
851.639723	-42.126211
851.881723	-42.141716
852.123860	-42.124726
852.366135	-42.071062
852.608547	-41.979079
852.851098	-41.849644
853.093786	-41.686162
853.336613	-41.494025
853.579578	-41.280237
853.822681	-41.052736
854.065923	-40.819609
854.309304	-40.588279
854.552823	-40.365009
854.796481	-40.154691
855.040278	-39.961578
855.284215	-39.789424
855.528290	-39.640992
855.772505	-39.517648
856.016859	-39.419295
856.261353	-39.345158
856.505987	-39.294064
856.750760	-39.264289
856.995673	-39.253069
857.240727	-39.256505
857.485920	-39.269402
857.731254	-39.285797
857.976729	-39.299391
858.222343	-39.304185
858.468099	-39.294567
858.713995	-39.265393
858.960032	-39.212366
859.206211	-39.132539
859.452530	-39.025246
859.698991	-38.892413
859.945593	-38.738089
860.192336	-38.567358
860.439222	-38.385968
860.686248	-38.199799
860.933417	-38.014610
861.180728	-37.835812
861.428181	-37.668518
861.675776	-37.517156
861.923514	-37.384811
862.171394	-37.273044
862.419417	-37.182409
862.667582	-37.112999
862.915890	-37.064471
863.164342	-37.035715
863.412936	-37.024239
863.661674	-37.026238
863.910555	-37.037086
864.159579	-37.051808
864.408747	-37.065351
864.658059	-37.072596
864.907515	-37.068611
865.157114	-37.048933
865.406858	-37.010154
865.656746	-36.950450
865.906778	-36.869705
866.156955	-36.769640
866.407277	-36.653489
866.657743	-36.525427
866.908354	-36.390214
867.159110	-36.253007
867.410011	-36.118916
867.661057	-35.992659
867.912249	-35.878546
868.163586	-35.780021
868.415069	-35.699203
868.666697	-35.636847
868.918472	-35.592850
869.170392	-35.566575
869.422458	-35.556600
869.674671	-35.560268
869.927030	-35.573632
870.179536	-35.591792
870.432188	-35.609644
870.684987	-35.622202
870.937933	-35.624542
871.191026	-35.611969
871.444266	-35.580838
871.697653	-35.529109
871.951188	-35.456536
872.204870	-35.364664
872.458700	-35.256778
872.712677	-35.137507
872.966803	-35.012077
873.221076	-34.885964
873.475498	-34.764517
873.730068	-34.652858
873.984787	-34.555246
874.239654	-34.474668
874.494669	-34.412712
874.749834	-34.369801
875.005147	-34.345271
875.260610	-34.337449
875.516222	-34.343555
875.771983	-34.359546
876.027894	-34.380213
876.283954	-34.399815
876.540164	-34.412396
876.796524	-34.412343
877.053033	-34.394813
877.309693	-34.356184
877.566503	-34.294568
877.823464	-34.210390
878.080575	-34.106453
878.337837	-33.987347
878.595249	-33.858774
878.852813	-33.727012
879.110528	-33.598408
879.368393	-33.478796
879.626410	-33.372922
879.884579	-33.284267
880.142899	-33.215130
880.401371	-33.166511
880.659994	-33.137854
880.918770	-33.126875
881.177698	-33.129822
881.436778	-33.141822
881.696010	-33.157123
881.955395	-33.169286
882.214933	-33.171757
882.474623	-33.158590
882.734467	-33.125422
882.994463	-33.069805
883.254613	-32.991535
883.514916	-32.892712
883.775372	-32.777566
884.035982	-32.652029
884.296746	-32.522992
884.557664	-32.397320
884.818735	-32.281154
885.079961	-32.179625
885.341341	-32.096650
885.602876	-32.034574
885.864565	-31.993992
886.126409	-31.973765
886.388407	-31.971090
886.650561	-31.981740
886.912870	-32.000206
887.175334	-32.019829
887.437953	-32.033669
887.700728	-32.035342
887.963658	-32.019576
888.226745	-31.982826
888.489987	-31.923916
888.753385	-31.844367
889.016940	-31.748066
889.280651	-31.640700
889.544518	-31.528982
889.808543	-31.419811
890.072723	-31.319474
890.337061	-31.233199
890.601556	-31.164628
890.866208	-31.115662
891.131017	-31.086540
891.395984	-31.075785
891.661109	-31.080150
891.926391	-31.094861
892.191831	-31.113941
892.457429	-31.130876
892.723186	-31.139364
892.989100	-31.133875
893.255173	-31.110445
893.521405	-31.067377
893.787796	-31.005546
894.054345	-30.928166
894.321053	-30.840367
894.587921	-30.748352
894.854948	-30.658511
895.122134	-30.576791
895.389480	-30.508162
895.656986	-30.456100
895.924651	-30.422211
896.192477	-30.406219
896.460463	-30.406072
896.728609	-30.418111
896.996915	-30.437254
897.265382	-30.457517
897.534010	-30.472750
897.802799	-30.477234
898.071749	-30.466447
898.340860	-30.437880
898.610132	-30.391445
898.879566	-30.329503
899.149162	-30.256428
899.418919	-30.177912
899.688838	-30.100085
899.958919	-30.028632
900.229162	-29.968268
900.499568	-29.922372
900.770136	-29.892642
901.040867	-29.878868
901.311761	-29.878922
901.582817	-29.889011
901.854037	-29.904181
902.125420	-29.918725
902.396966	-29.926719
902.668676	-29.922982
902.940550	-29.903986
903.212587	-29.868351
903.484788	-29.817040
903.757153	-29.753212
904.029683	-29.681659
904.302377	-29.608162
904.575236	-29.538694
904.848259	-29.478529
905.121447	-29.431703
905.394800	-29.400775
905.668319	-29.386422
905.942002	-29.387215
906.215852	-29.399970
906.489866	-29.420065
906.764047	-29.441883
907.038393	-29.459423
907.312906	-29.467155
907.587584	-29.460974
907.862429	-29.438915
908.137441	-29.401233
908.412619	-29.350487
908.687964	-29.291134
908.963476	-29.228796
909.239155	-29.169317
909.515002	-29.117833
909.791015	-29.078199
910.067197	-29.052606
910.343546	-29.041308
910.620063	-29.042536
910.896748	-29.052832
911.173601	-29.067515
911.450623	-29.081061
911.727813	-29.087649
912.005171	-29.082367
912.282699	-29.062200
912.560395	-29.026557
912.838261	-28.977359
913.116296	-28.918594
913.394500	-28.855634
913.672874	-28.794470
913.951418	-28.740691
914.230131	-28.698468
914.509015	-28.670224
914.788068	-28.656603
915.067292	-28.656063
915.346687	-28.664849
915.626252	-28.677808
915.905988	-28.689086
916.185895	-28.692766
916.465973	-28.683902
916.746223	-28.659549
917.026644	-28.619380
917.307236	-28.565877
917.588000	-28.503871
917.868937	-28.439515
918.150045	-28.379428
918.431325	-28.329634
918.712778	-28.294403
918.994404	-28.275647
919.276202	-28.272964
919.558173	-28.283663
919.840317	-28.302733
920.122634	-28.323510
920.405125	-28.338903
920.687789	-28.342656
920.970627	-28.330239
921.253639	-28.299736
921.536824	-28.252463
921.820184	-28.192880
922.103718	-28.127661
922.387427	-28.064125
922.671310	-28.008992
922.955368	-27.967647
923.239601	-27.943145
923.524009	-27.935335
923.808592	-27.940964
924.093351	-27.954353
924.378285	-27.968008
924.663396	-27.973832
924.948682	-27.964785
925.234144	-27.936310
925.519782	-27.887301
925.805597	-27.820582
926.091589	-27.742309
926.377757	-27.660814
926.664102	-27.584966
926.950624	-27.522512
927.237323	-27.479040
927.524200	-27.457255
927.811255	-27.456303
928.098487	-27.471775
928.385897	-27.496537
928.673485	-27.521635
928.961251	-27.537715
929.249196	-27.537118
929.537319	-27.515704
929.825621	-27.473786
930.114102	-27.416025
930.402762	-27.350203
930.691601	-27.285830
930.980620	-27.232471
931.269818	-27.197593
931.559196	-27.185095
931.848753	-27.195108
932.138491	-27.223769
932.428409	-27.263346
932.718508	-27.303338
933.008787	-27.332505
933.299246	-27.341265
933.589887	-27.323799
933.880709	-27.279474
934.171712	-27.213374
934.462896	-27.135431
934.754262	-27.057703
935.045810	-26.991605
935.337539	-26.946120
935.629451	-26.926561
935.921545	-26.933332
936.213822	-26.961725
936.506281	-27.002960
936.798922	-27.045487
937.091747	-27.077025
937.384755	-27.087125
937.677946	-27.069891
937.971321	-27.025922
938.264879	-26.961965
938.558621	-26.889241
938.852547	-26.821042
939.146657	-26.769665
939.440952	-26.744080
939.735431	-26.748433
940.030095	-26.781202
940.324943	-26.835127
940.619977	-26.898418
940.915196	-26.956965
941.210600	-26.997034
941.506189	-27.008377
941.801965	-26.987273
942.097926	-26.937926
942.394074	-26.870967
942.690407	-26.800669
942.986927	-26.741881
943.283634	-26.706578
943.580527	-26.701578
943.877608	-26.727597
944.174875	-26.778925
944.472330	-26.844137
944.769972	-26.908054
945.067802	-26.955020
945.365820	-26.972928
945.664026	-26.956574
945.962420	-26.909095
946.261002	-26.841197
946.559773	-26.768080
946.858733	-26.705401
947.157881	-26.665827
947.457219	-26.656671
947.756746	-26.678569
948.056462	-26.725339
948.356368	-26.784913
948.656464	-26.841638
948.956749	-26.879792
949.257225	-26.887742
949.557891	-26.861740
949.858748	-26.807253
950.159796	-26.736930
950.461034	-26.666851
950.762463	-26.612368
951.064084	-26.584708
951.365896	-26.588649
951.667900	-26.621534
951.970095	-26.673953
952.272483	-26.731409
952.575063	-26.777028
952.877835	-26.796248
953.180799	-26.781465
953.483956	-26.734180
953.787307	-26.664580
954.090850	-26.588623
954.394586	-26.523268
954.698516	-26.481985
955.002640	-26.471890
955.306957	-26.492507
955.611469	-26.535868
955.916174	-26.587889
956.221074	-26.631569
956.526169	-26.651701
956.831458	-26.639207
957.136942	-26.594105
957.442622	-26.525898
957.748496	-26.450544
958.054567	-26.385373
958.360833	-26.344545
958.667294	-26.335846
958.973952	-26.358795
959.280806	-26.404637
959.587857	-26.458449
959.895104	-26.502568
960.202548	-26.521407
960.510189	-26.506425
960.818027	-26.459091
961.126062	-26.390376
961.434295	-26.317250
961.742726	-26.257451
962.051355	-26.224743
962.360182	-26.225549
962.669207	-26.257615
962.978431	-26.310296
963.287854	-26.366686
963.597475	-26.408192
963.907296	-26.419903
964.217315	-26.395552
964.527535	-26.340206
964.837954	-26.268218
965.148573	-26.197972
965.459392	-26.146581
965.770411	-26.125308
966.081630	-26.136884
966.393051	-26.175022
966.704672	-26.225654
967.016494	-26.270639
967.328517	-26.292903
967.640742	-26.282334
967.953169	-26.239496
968.265797	-26.175191
968.578627	-26.106741
968.891660	-26.052219
969.204895	-26.024750
969.518332	-26.029099
969.831972	-26.060819
970.145816	-26.107427
970.459862	-26.151374
970.774112	-26.175308
971.088565	-26.168564
971.403223	-26.130748
971.718084	-26.071717
972.033149	-26.008498
972.348419	-25.959060
972.663893	-25.936437
972.979572	-25.945286
973.295456	-25.980672
973.611546	-26.028862
973.927840	-26.070966
974.244340	-26.089635
974.561046	-26.074832
974.877958	-26.027469
975.195076	-25.959827
975.512401	-25.890487
975.829932	-25.837382
976.147670	-25.812737
976.465615	-25.819484
976.783767	-25.849960
977.102126	-25.888417
977.420693	-25.915923
977.739468	-25.916408
978.058451	-25.882861
978.377642	-25.820397
978.697041	-25.744009
979.016649	-25.672639
979.336466	-25.622823
979.656492	-25.603564
979.976727	-25.613458
980.297171	-25.641404
980.617825	-25.670062
980.938689	-25.681280
981.259763	-25.663121
981.581048	-25.614605
981.902542	-25.545847
982.224248	-25.474133
982.546164	-25.417244
982.868291	-25.387100
983.190630	-25.386270
983.513180	-25.407375
983.835942	-25.435282
984.158916	-25.452044
984.482101	-25.443803
984.805500	-25.406501
985.129110	-25.347241
985.452934	-25.281562
985.776970	-25.227178
986.101220	-25.197140
986.425683	-25.195812
986.750359	-25.217581
987.075250	-25.248244
987.400354	-25.270191
987.725673	-25.269044
988.051206	-25.239522
988.376954	-25.187832
988.702916	-25.128958
989.029094	-25.080328
989.355487	-25.055229
989.682095	-25.058392
990.008919	-25.084304
990.335959	-25.118722
990.663216	-25.143657
990.990688	-25.144876
991.318377	-25.117668
991.646283	-25.068965
991.974406	-25.014511
992.302746	-24.971741
992.631304	-24.953228
992.960079	-24.962270
993.289072	-24.991516
993.618283	-25.025425
993.947713	-25.046143
994.277361	-25.040736
994.607227	-25.006842
994.937313	-24.954036
995.267618	-24.899318
995.598142	-24.859711
995.928886	-24.845827
996.259849	-24.857564
996.591033	-24.884217
996.922437	-24.908536
997.254061	-24.913514
997.585906	-24.889884
997.917972	-24.840489
998.250260	-24.778949
998.582768	-24.723619
998.915498	-24.689767
999.248450	-24.683371
999.581624	-24.699192
999.915020	-24.722673
1000.248639	-24.735240
1000.582480	-24.722685
1000.916545	-24.681673
1001.250832	-24.621280
1001.585343	-24.558986
1001.920077	-24.512552
1002.255035	-24.492297
1002.590218	-24.497455
1002.925624	-24.516509
1003.261255	-24.531363
1003.597111	-24.525270
1003.933192	-24.490593
1004.269497	-24.432450
1004.606029	-24.366669
1004.942785	-24.312225
1005.279768	-24.282460
1005.616977	-24.279997
1005.954412	-24.295737
1006.292074	-24.312560
1006.629962	-24.312686
1006.968077	-24.285816
1007.306420	-24.234558
1007.644990	-24.173119
1007.983787	-24.120340
1008.322813	-24.090885
1008.662067	-24.088617
1009.001549	-24.105380
1009.341259	-24.124589
1009.681199	-24.128399
1010.021367	-24.106087
1010.361765	-24.059873
1010.702392	-24.003932
1011.043250	-23.957041
1011.384337	-23.933672
1011.725654	-23.937141
1012.067202	-23.958424
1012.408980	-23.979976
1012.750989	-23.983869
1013.093230	-23.960956
1013.435702	-23.915702
1013.778405	-23.864001
1014.121341	-23.824862
1014.464508	-23.811203
1014.807908	-23.823643
1015.151540	-23.849966
1015.495405	-23.870665
1015.839503	-23.868650
1016.183835	-23.838431
1016.528400	-23.789084
1016.873198	-23.739333
1017.218231	-23.708003
1017.563498	-23.704547
1017.908999	-23.724389
1018.254735	-23.750662
1018.600707	-23.762411
1018.946913	-23.745711
1019.293354	-23.701378
1019.640032	-23.644758
1019.986945	-23.597239
1020.334094	-23.575082
1020.681480	-23.581181
1021.029102	-23.603532
1021.376961	-23.620847
1021.725058	-23.613512
1022.073391	-23.574533
1022.421962	-23.513922
1022.770772	-23.453100
1023.119819	-23.412937
1023.469104	-23.402876
1023.818628	-23.416327
1024.168391	-23.433633
1024.518393	-23.432100
1024.868634	-23.398734
1025.219115	-23.337913
1025.569836	-23.268807
1025.920796	-23.214387
1026.271997	-23.188970
1026.623438	-23.190980
1026.975121	-23.203728
1027.327044	-23.204110
1027.679208	-23.175805
1028.031614	-23.118811
1028.384262	-23.049372
1028.737152	-22.990437
1029.090284	-22.958387
1029.443659	-22.954312
1029.797276	-22.963655
1030.151137	-22.964074
1030.505240	-22.938672
1030.859587	-22.886023
1031.214178	-22.821242
1031.569013	-22.766670
1031.924093	-22.738433
1032.279417	-22.737565
1032.634985	-22.749439
1032.990799	-22.751961
1033.346858	-22.728734
1033.703162	-22.679309
1034.059712	-22.619991
1034.416509	-22.573429
1034.773551	-22.554797
1035.130841	-22.563130
1035.488377	-22.581557
1035.846160	-22.586725
1036.204190	-22.563254
1036.562468	-22.513787
1036.920994	-22.457617
1037.279768	-22.418594
1037.638790	-22.410491
1037.998061	-22.428809
1038.357581	-22.452821
1038.717350	-22.457469
1039.077368	-22.429254
1039.437636	-22.375361
1039.798154	-22.319150
1040.158922	-22.285211
1040.519940	-22.284354
1040.881209	-22.307167
1041.242729	-22.328774
1041.604501	-22.324050
1041.966524	-22.283930
1042.328798	-22.221903
1042.691325	-22.164852
1043.054103	-22.135683
1043.417135	-22.139295
1043.780419	-22.159591
1044.143956	-22.168628
1044.507746	-22.144658
1044.871791	-22.086853
1045.236088	-22.015984
1045.600641	-21.960182
1045.965447	-21.936689
1046.330508	-21.941483
1046.695824	-21.951758
1047.061395	-21.940094
1047.427222	-21.893059
1047.793304	-21.820542
1048.159642	-21.748930
1048.526237	-21.703036
1048.893088	-21.690026
1049.260196	-21.695507
1049.627561	-21.692566
1049.995183	-21.659532
1050.363063	-21.595519
1050.731201	-21.520917
1051.099597	-21.462946
1051.468251	-21.437205
1051.837164	-21.437930
1052.206336	-21.441907
1052.575767	-21.423672
1052.945458	-21.373569
1053.315409	-21.304774
1053.685619	-21.243635
1054.056090	-21.211120
1054.426821	-21.208895
1054.797814	-21.218392
1055.169067	-21.213334
1055.540582	-21.178209
1055.912359	-21.119938
1056.284398	-21.062471
1056.656698	-21.029396
1057.029262	-21.027833
1057.402088	-21.043471
1057.775177	-21.050223
1058.148530	-21.028619
1058.522146	-20.980368
1058.896027	-20.927204
1059.270171	-20.894375
1059.644580	-20.892798
1060.019254	-20.911498
1060.394193	-20.925031
1060.769397	-20.911335
1061.144867	-20.868338
1061.520602	-20.815607
1061.896604	-20.779416
1062.272872	-20.773833
1062.649407	-20.790528
1063.026210	-20.804707
1063.403279	-20.792917
1063.780616	-20.750718
1064.158221	-20.696150
1064.536094	-20.655596
1064.914235	-20.644450
1065.292645	-20.656148
1065.671325	-20.667017
1066.050273	-20.653407
1066.429491	-20.609815
1066.808979	-20.552985
1067.188738	-20.508439
1067.568766	-20.491114
1067.949066	-20.494860
1068.329636	-20.497177
1068.710478	-20.476231
1069.091592	-20.427798
1069.472977	-20.368553
1069.854635	-20.322428
1070.236565	-20.302077
1070.618768	-20.300004
1071.001243	-20.294556
1071.383993	-20.266945
1071.767016	-20.216246
1072.150313	-20.160069
1072.533884	-20.120371
1072.917730	-20.106258
1073.301850	-20.107322
1073.686246	-20.101771
1074.070917	-20.073823
1074.455864	-20.026806
1074.841087	-19.980266
1075.226586	-19.953828
1075.612362	-19.951563
1075.998415	-19.958828
1076.384745	-19.953542
1076.771353	-19.924453
1077.158238	-19.880560
1077.545401	-19.843710
1077.932843	-19.830144
1078.320564	-19.837576
1078.708564	-19.846810
1079.096842	-19.837249
1079.485401	-19.804415
1079.874240	-19.763910
1080.263358	-19.738145
1080.652757	-19.737549
1081.042438	-19.752201
1081.432399	-19.760024
1081.822641	-19.745255
1082.213166	-19.711828
1082.603972	-19.679820
1082.995061	-19.667986
1083.386433	-19.678184
1083.778087	-19.693734
1084.170025	-19.693388
1084.562246	-19.669180
1084.954751	-19.633179
1085.347541	-19.606110
1085.740615	-19.599690
1086.133973	-19.606768
1086.527617	-19.607539
1086.921546	-19.586200
1087.315761	-19.544786
1087.710262	-19.500956
1088.105050	-19.472117
1088.500124	-19.460829
1088.895485	-19.453086
1089.291134	-19.430839
1089.687070	-19.387933
1090.083294	-19.335850
1090.479806	-19.293097
1090.876607	-19.269159
1091.273696	-19.256671
1091.671075	-19.238422
1092.068744	-19.202899
1092.466702	-19.154705
1092.864950	-19.110189
1093.263489	-19.082762
1093.662319	-19.070985
1094.061440	-19.060095
1094.460852	-19.035256
1094.860555	-18.995028
1095.260551	-18.952434
1095.660840	-18.922840
1096.061421	-18.909947
1096.462295	-18.902288
1096.863462	-18.883536
1097.264923	-18.847579
1097.666678	-18.804214
1098.068727	-18.770195
1098.471071	-18.753481
1098.873710	-18.746207
1099.276644	-18.731785
1099.679874	-18.700714
1100.083400	-18.659682
1100.487222	-18.625493
1100.891340	-18.609374
1101.295756	-18.606771
1101.700468	-18.601879
1102.105478	-18.582842
1102.510787	-18.553047
1102.916393	-18.527552
1103.322298	-18.518672
1103.728502	-18.524750
1104.135005	-18.532151
1104.541807	-18.527788
1104.948909	-18.511228
1105.356312	-18.494195
1105.764015	-18.488894
1106.172019	-18.496569
1106.580324	-18.506412
1106.988931	-18.505056
1107.397840	-18.488679
1107.807051	-18.465951
1108.216564	-18.449503
1108.626380	-18.443612
1109.036500	-18.439660
1109.446923	-18.423740
1109.857649	-18.390089
1110.268680	-18.347036
1110.680016	-18.309216
1111.091657	-18.283076
1111.503602	-18.260256
1111.915854	-18.225867
1112.328411	-18.174076
1112.741275	-18.115053
1113.154445	-18.065187
1113.567922	-18.030620
1113.981706	-18.001402
1114.395798	-17.962351
1114.810198	-17.909519
1115.224906	-17.854708
1115.639923	-17.813061
1116.055249	-17.787544
1116.470884	-17.766976
1116.886829	-17.738530
1117.303084	-17.700902
1117.719650	-17.664654
1118.136526	-17.640683
1118.553713	-17.629505
1118.971212	-17.621981
1119.389022	-17.608455
1119.807145	-17.587064
1120.225580	-17.564392
1120.644328	-17.548974
1121.063389	-17.543586
1121.482763	-17.542021
1121.902452	-17.533459
1122.322454	-17.512358
1122.742771	-17.485265
1123.163404	-17.465009
1123.584351	-17.456378
1124.005614	-17.448849
1124.427193	-17.427022
1124.849089	-17.389249
1125.271301	-17.351155
1125.693830	-17.326861
1126.116677	-17.310985
1126.539842	-17.284812
1126.963324	-17.240817
1127.387126	-17.193563
1127.811246	-17.160826
1128.235685	-17.139914
1128.660444	-17.111363
1129.085522	-17.066319
1129.510922	-17.020080
1129.936641	-16.991264
1130.362682	-16.975325
1130.789044	-16.950025
1131.215728	-16.907327
1131.642734	-16.867049
1132.070063	-16.850144
1132.497714	-16.848139
1132.925689	-16.832365
1133.353987	-16.794040
1133.782610	-16.758896
1134.211556	-16.752924
1134.640827	-16.765379
1135.070424	-16.760439
1135.500345	-16.725738
1135.930593	-16.690962
1136.361166	-16.687953
1136.792067	-16.707010
1137.223294	-16.708481
1137.654848	-16.675923
1138.086730	-16.638479
1138.518940	-16.630474
1138.951479	-16.645420
1139.384346	-16.645396
1139.817543	-16.612289
1140.251069	-16.570972
1140.684925	-16.553201
1141.119111	-16.555599
1141.553628	-16.546973
1141.988475	-16.511327
1142.423655	-16.467375
1142.859166	-16.440300
1143.295009	-16.429150
1143.731185	-16.412062
1144.167694	-16.376307
1144.604536	-16.332734
1145.041711	-16.298931
1145.479221	-16.277731
1145.917065	-16.257016
1146.355245	-16.225752
1146.793759	-16.185753
1147.232609	-16.148134
1147.671795	-16.121434
1148.111317	-16.102973
1148.551177	-16.080883
1148.991373	-16.047103
1149.431907	-16.008780
1149.872779	-15.981882
1150.313989	-15.970832
1150.755538	-15.960046
1151.197426	-15.932833
1151.639653	-15.895813
1152.082220	-15.872598
1152.525128	-15.871031
1152.968376	-15.869896
1153.411966	-15.846992
1153.855897	-15.811987
1154.300169	-15.794234
1154.744784	-15.800588
1155.189742	-15.803994
1155.635042	-15.781644
1156.080687	-15.748827
1156.526674	-15.736728
1156.973007	-15.746647
1157.419683	-15.747871
1157.866705	-15.722657
1158.314072	-15.692361
1158.761786	-15.684763
1159.209845	-15.692812
1159.658251	-15.685943
1160.107004	-15.656101
1160.556104	-15.628790
1161.005553	-15.623159
1161.455349	-15.623790
1161.905494	-15.605318
1162.355989	-15.571248
1162.806832	-15.546977
1163.258026	-15.539880
1163.709570	-15.529207
1164.161464	-15.499244
1164.613710	-15.463497
1165.066307	-15.442224
1165.519256	-15.430688
1165.972558	-15.407946
1166.426212	-15.370465
1166.880219	-15.336977
1167.334580	-15.318219
1167.789295	-15.300234
1168.244364	-15.267438
1168.699788	-15.227828
1169.155567	-15.199764
1169.611702	-15.182313
1170.068193	-15.157060
1170.525041	-15.117997
1170.982245	-15.081218
1171.439807	-15.059427
1171.897726	-15.041536
1172.356004	-15.010132
1172.814640	-14.969417
1173.273635	-14.938699
1173.732989	-14.922017
1174.192703	-14.901866
1174.652778	-14.866475
1175.113213	-14.828346
1175.574009	-14.804494
1176.035167	-14.790177
1176.496687	-14.766657
1176.958569	-14.730094
1177.420814	-14.697133
1177.883422	-14.678792
1178.346394	-14.663969
1178.809730	-14.637204
1179.273430	-14.602319
1179.737496	-14.575620
1180.201927	-14.560442
1180.666723	-14.542932
1181.131886	-14.514064
1181.597416	-14.483084
1182.063312	-14.462187
1182.529576	-14.447728
1182.996209	-14.426808
1183.463209	-14.397743
1183.930579	-14.372032
1184.398317	-14.355764
1184.866426	-14.340383
1185.334904	-14.316922
1185.803754	-14.290079
1186.272974	-14.270218
1186.742566	-14.257000
1187.212529	-14.240199
1187.682865	-14.216277
1188.153574	-14.193742
1188.624656	-14.179380
1189.096112	-14.167758
1189.567942	-14.150127
1190.040147	-14.128268
1190.512726	-14.111295
1190.985681	-14.101277
1191.459012	-14.090299
1191.932720	-14.073126
1192.406804	-14.055210
1192.881265	-14.043595
1193.356104	-14.036139
1193.831322	-14.025240
1194.306918	-14.009664
1194.782893	-13.996072
1195.259248	-13.988156
1195.735982	-13.981307
1196.213097	-13.970147
1196.690593	-13.956500
1197.168471	-13.946063
1197.646730	-13.939454
1198.125371	-13.931630
1198.604395	-13.919799
1199.083803	-13.907307
1199.563594	-13.898072
1200.043769	-13.890665
1200.524329	-13.880721
1201.005273	-13.867496
1201.486604	-13.854988
1201.968320	-13.845493
1202.450422	-13.836123
1202.932912	-13.823234
1203.415789	-13.808135
1203.899054	-13.795354
1204.382707	-13.785236
1204.866748	-13.773241
1205.351179	-13.757057
1205.836000	-13.740761
1206.321211	-13.728662
1206.806812	-13.717873
1207.292805	-13.702618
1207.779189	-13.683948
1208.265965	-13.668693
1208.753134	-13.658265
1209.240696	-13.645643
1209.728651	-13.626894
1210.217000	-13.608408
1210.705744	-13.596598
1211.194883	-13.586681
1211.684417	-13.570121
1212.174347	-13.549619
1212.664673	-13.535020
1213.155396	-13.526445
1213.646516	-13.513372
1214.138034	-13.492723
1214.629951	-13.474961
1215.122266	-13.466032
1215.614980	-13.456592
1216.108095	-13.437864
1216.601609	-13.417568
1217.095524	-13.406913
1217.589841	-13.400590
1218.084559	-13.385589
1218.579679	-13.364439
1219.075202	-13.351424
1219.571128	-13.347165
1220.067458	-13.337087
1220.564191	-13.317324
1221.061330	-13.302166
1221.558874	-13.298688
1222.056823	-13.293673
1222.555178	-13.277226
1223.053940	-13.260860
1223.553109	-13.256920
1224.052686	-13.256031
1224.552671	-13.243810
1225.053065	-13.227116
1225.553867	-13.221537
1226.055079	-13.222878
1226.556702	-13.214595
1227.058735	-13.198134
1227.561179	-13.190155
1228.064035	-13.191620
1228.567303	-13.186106
1229.070983	-13.170274
1229.575077	-13.159889
1230.079585	-13.160173
1230.584506	-13.156206
1231.089842	-13.141163
1231.595594	-13.129064
1232.101761	-13.128038
1232.608345	-13.125070
1233.115345	-13.111024
1233.622762	-13.098047
1234.130597	-13.096234
1234.638851	-13.094295
1235.147523	-13.081557
1235.656615	-13.068432
1236.166126	-13.066152
1236.676058	-13.065155
1237.186411	-13.053644
1237.697185	-13.040616
1238.208381	-13.037818
1238.719999	-13.036839
1239.232040	-13.025700
1239.744505	-13.012159
1240.257394	-13.008195
1240.770708	-13.006018
1241.284446	-12.993639
1241.798610	-12.978585
1242.313201	-12.972679
1242.828218	-12.968286
1243.343662	-12.953513
1243.859534	-12.936145
1244.375834	-12.928046
1244.892563	-12.921195
1245.409721	-12.903847
1245.927309	-12.884317
1246.445327	-12.874415
1246.963777	-12.865576
1247.482657	-12.846208
1248.001970	-12.825278
1248.521716	-12.814329
1249.041894	-12.803976
1249.562506	-12.783063
1250.083553	-12.761365
1250.605034	-12.749792
1251.126950	-12.738030
1251.649302	-12.715564
1252.172091	-12.693191
1252.695316	-12.680919
1253.218979	-12.667437
1253.743079	-12.643275
1254.267619	-12.620314
1254.792597	-12.607349
1255.318015	-12.592043
1255.843874	-12.566528
1256.370173	-12.543695
1256.896913	-12.530586
1257.424095	-12.514033
1257.951720	-12.488222
1258.479787	-12.466840
1259.008298	-12.454650
1259.537254	-12.437856
1260.066654	-12.413088
1260.596499	-12.394375
1261.126790	-12.383706
1261.657527	-12.367163
1262.188711	-12.344177
1262.720342	-12.328381
1263.252422	-12.318772
1263.784950	-12.302176
1264.317928	-12.281079
1264.851355	-12.267868
1265.385232	-12.258489
1265.919560	-12.241522
1266.454340	-12.222587
1266.989572	-12.211827
1267.525256	-12.202301
1268.061394	-12.185464
1268.597985	-12.169772
1269.135031	-12.161965
1269.672531	-12.152659
1270.210487	-12.137323
1270.748899	-12.126183
1271.287768	-12.121568
1271.827094	-12.112695
1272.366877	-12.099778
1272.907119	-12.093450
1273.447820	-12.090995
1273.988981	-12.082043
1274.530601	-12.071778
1275.072683	-12.069507
1275.615226	-12.067597
1276.158230	-12.058215
1276.701697	-12.051041
1277.245627	-12.051964
1277.790021	-12.049596
1278.334879	-12.040636
1278.880202	-12.037751
1279.425991	-12.041510
1279.972245	-12.038775
1280.518966	-12.032148
1281.066155	-12.034634
1281.613811	-12.040413
1282.161936	-12.037472
1282.710529	-12.034592
1283.259593	-12.041760
1283.809126	-12.047376
1284.359131	-12.043922
1284.909607	-12.045006
1285.460555	-12.054509
1286.011976	-12.057591
1286.563870	-12.054053
1287.116237	-12.058978
1287.669080	-12.068497
1288.222397	-12.068536
1288.776191	-12.066972
1289.330460	-12.075863
1289.885207	-12.084035
1290.440431	-12.082614
1290.996133	-12.085467
1291.552314	-12.097283
1292.108975	-12.102835
1292.666115	-12.101840
1293.223737	-12.109315
1293.781839	-12.120714
1294.340424	-12.122460
1294.899491	-12.123043
1295.459041	-12.132918
1296.019075	-12.140254
1296.579593	-12.138723
1297.140597	-12.141875
1297.702086	-12.151278
1298.264061	-12.153359
1298.826524	-12.151455
1299.389474	-12.157477
1299.952912	-12.163829
1300.516839	-12.161919
1301.081255	-12.162133
1301.646162	-12.168500
1302.211559	-12.169285
1302.777448	-12.165118
1303.343829	-12.166768
1303.910702	-12.169013
1304.478069	-12.163522
1305.045930	-12.158933
1305.614285	-12.159435
1306.183136	-12.155113
1306.752483	-12.146499
1307.322326	-12.143189
1307.892666	-12.140452
1308.463504	-12.131557
1309.034841	-12.124352
1309.606677	-12.121693
1310.179012	-12.114534
1310.751849	-12.104574
1311.325186	-12.099550
1311.899025	-12.093703
1312.473366	-12.082160
1313.048211	-12.073075
1313.623559	-12.066891
1314.199412	-12.055239
1314.775770	-12.042255
1315.352634	-12.034395
1315.930004	-12.024288
1316.507881	-12.009670
1317.086266	-11.999418
1317.665159	-11.991289
1318.244562	-11.977673
1318.824474	-11.964943
1319.404897	-11.957264
1319.985831	-11.945870
1320.567276	-11.931312
1321.149234	-11.921860
1321.731706	-11.912247
1322.314691	-11.897142
1322.898190	-11.884899
1323.482205	-11.876204
1324.066736	-11.862461
1324.651783	-11.848217
1325.237347	-11.839613
1325.823430	-11.828528
1326.410031	-11.813624
1326.997151	-11.803864
1327.584791	-11.795067
1328.172952	-11.780522
1328.761634	-11.768255
1329.350839	-11.760011
1329.940566	-11.746488
1330.530817	-11.731624
1331.121592	-11.722471
1331.712891	-11.710877
1332.304716	-11.695108
1332.897068	-11.684736
1333.489946	-11.675758
1334.083352	-11.661234
1334.677287	-11.649814
1335.271750	-11.643017
1335.866744	-11.631101
1336.462268	-11.618764
1337.058323	-11.612765
1337.654910	-11.603936
1338.252029	-11.591421
1338.849682	-11.585132
1339.447869	-11.579586
1340.046591	-11.568489
1340.645848	-11.561615
1341.245641	-11.558880
1341.845972	-11.550520
1342.446840	-11.542913
1343.048246	-11.541315
1343.650191	-11.535665
1344.252677	-11.527219
1344.855702	-11.524834
1345.459269	-11.521141
1346.063379	-11.512520
1346.668030	-11.508691
1347.273226	-11.506598
1347.878965	-11.499016
1348.485250	-11.494060
1349.092080	-11.493020
1349.699456	-11.487013
1350.307380	-11.481070
1350.915851	-11.479988
1351.524871	-11.475220
1352.134441	-11.468357
1352.744560	-11.466458
1353.355231	-11.462811
1353.966453	-11.455804
1354.578227	-11.453337
1355.190555	-11.451088
1355.803436	-11.444831
1356.416872	-11.442002
1357.030863	-11.440751
1357.645411	-11.435126
1358.260515	-11.431472
1358.876177	-11.430394
1359.492397	-11.425189
1360.109176	-11.420840
1360.726516	-11.419984
1361.344416	-11.415751
1361.962877	-11.411432
1362.581901	-11.411049
1363.201487	-11.407922
1363.821637	-11.403417
1364.442352	-11.402594
1365.063632	-11.399423
1365.685478	-11.393730
1366.307891	-11.391449
1366.930871	-11.387664
1367.554420	-11.380885
1368.178538	-11.377464
1368.803226	-11.373598
1369.428485	-11.366515
1370.054315	-11.362377
1370.680717	-11.358383
1371.307693	-11.350896
1371.935242	-11.345769
1372.563366	-11.341326
1373.192065	-11.333574
1373.821341	-11.328103
1374.451193	-11.324156
1375.081623	-11.317358
1375.712632	-11.312718
1376.344221	-11.309857
1376.976389	-11.304018
1377.609139	-11.299598
1378.242470	-11.296576
1378.876384	-11.290283
1379.510881	-11.284965
1380.145963	-11.281132
1380.781629	-11.274353
1381.417881	-11.268740
1382.054720	-11.264888
1382.692147	-11.258233
1383.330161	-11.252564
1383.968765	-11.248312
1384.607959	-11.240939
1385.247743	-11.234287
1385.888119	-11.228994
1386.529087	-11.220842
1387.170648	-11.213867
1387.812804	-11.208768
1388.455554	-11.201299
1389.098899	-11.195315
1389.742842	-11.191152
1390.387381	-11.184377
1391.032519	-11.178832
1391.678256	-11.174709
1392.324592	-11.167963
1392.971529	-11.162774
1393.619068	-11.159124
1394.267208	-11.153281
1394.915952	-11.149310
1395.565300	-11.146471
1396.215253	-11.141168
1396.865812	-11.137389
1397.516977	-11.133906
1398.168749	-11.127864
1398.821130	-11.123606
1399.474120	-11.119647
1400.127719	-11.113859
1400.781930	-11.110552
1401.436752	-11.107401
1402.092186	-11.102614
1402.748234	-11.100276
1403.404897	-11.097395
1404.062174	-11.093069
1404.720067	-11.091382
1405.378577	-11.088998
1406.037705	-11.085946
1406.697451	-11.085711
1407.357817	-11.084219
1408.018803	-11.082117
1408.680410	-11.082092
1409.342639	-11.079853
1410.005492	-11.077342
1410.668968	-11.076835
1411.333068	-11.074391
1411.997795	-11.072961
1412.663147	-11.073649
1413.329127	-11.072444
1413.995736	-11.072596
1414.662973	-11.073832
1415.330840	-11.072808
1415.999339	-11.073473
1416.668469	-11.074717
1417.338232	-11.074536
1418.008628	-11.076915
1418.679659	-11.079504
1419.351325	-11.081220
1420.023628	-11.085292
1420.696568	-11.088498
1421.370145	-11.091244
1422.044362	-11.096169
1422.719219	-11.099936
1423.394717	-11.104282
1424.070856	-11.110356
1424.747638	-11.114735
1425.425064	-11.119838
1426.103134	-11.125449
1426.781850	-11.129256
1427.461212	-11.134708
1428.141221	-11.140738
1428.821878	-11.146502
1429.503185	-11.155079
1430.185141	-11.163911
1430.867749	-11.173032
1431.551008	-11.184314
1432.234920	-11.194778
1432.919486	-11.205941
1433.604707	-11.218567
1434.290583	-11.229987
1434.977116	-11.242353
1435.664307	-11.254595
1436.352156	-11.264874
1437.040664	-11.275692
1437.729833	-11.285427
1438.419663	-11.294522
1439.110156	-11.305555
1439.801312	-11.316629
1440.493132	-11.329386
1441.185617	-11.344495
1441.878768	-11.359722
1442.572586	-11.377229
1443.267072	-11.395952
1443.962228	-11.414614
1444.658053	-11.435104
1445.354549	-11.454529
1446.051717	-11.472535
1446.749558	-11.489621
1447.448073	-11.502798
1448.147263	-11.514144
1448.847128	-11.523872
1449.547671	-11.531139
1450.248891	-11.539424
1450.950789	-11.547399
1451.653368	-11.555779
1452.356627	-11.566973
1453.060568	-11.578831
1453.765192	-11.593906
1454.470500	-11.612459
1455.176492	-11.632237
1455.883170	-11.655203
1456.590534	-11.677963
1457.298586	-11.699079
1458.007327	-11.719258
1458.716758	-11.734602
1459.426880	-11.746555
1460.137693	-11.754261
1460.849199	-11.755356
1461.561398	-11.752624
1462.274293	-11.744117
1462.987883	-11.731764
1463.702170	-11.719136
1464.417155	-11.705604
1465.132838	-11.695837
1465.849222	-11.690365
1466.566306	-11.689120
1467.284093	-11.695654
1468.002582	-11.707847
1468.721775	-11.727628
1469.441674	-11.755087
1470.162278	-11.786258
1470.883590	-11.821321
1471.605609	-11.854705
1472.328338	-11.883349
1473.051777	-11.906151
1473.775928	-11.918424
1474.500790	-11.921594
1475.226367	-11.913934
1475.952657	-11.895254
1476.679663	-11.869343
1477.407386	-11.836661
1478.135826	-11.803432
1478.864985	-11.773705
1479.594863	-11.750490
1480.325463	-11.739276
1481.056784	-11.739981
1481.788828	-11.755961
1482.521597	-11.788365
1483.255090	-11.836274
1483.989309	-11.901194
1484.724256	-11.978689
1485.459931	-12.066984
1486.196336	-12.162860
1486.933471	-12.261684
1487.671337	-12.362956
1488.409937	-12.461531
1489.149270	-12.555478
1489.889337	-12.641950
1490.630141	-12.717161
1491.371682	-12.782702
1492.113961	-12.836525
1492.856979	-12.880643
1493.600738	-12.915330
1494.345238	-12.939040
1495.090481	-12.954183
1495.836467	-12.959194
1496.583198	-12.957044
1497.330675	-12.948679
1498.078899	-12.933515
1498.827872	-12.913687
1499.577593	-12.887338
1500.328065	-12.857991
1501.079289	-12.827943
1501.831265	-12.799808
1502.583995	-12.778313
1503.337480	-12.763702
1504.091721	-12.760631
1504.846719	-12.771079
1505.602475	-12.797825
1506.358991	-12.843561
1507.116268	-12.904992
1507.874306	-12.980613
1508.633108	-13.062918
1509.392673	-13.145196
1510.153004	-13.218428
1510.914101	-13.268846
1511.675965	-13.284807
1512.438599	-13.250608
1513.202002	-13.158514
1513.966176	-13.004012
1514.731122	-12.789152
1515.496842	-12.522786
1516.263336	-12.213958
1517.030607	-11.878835
1517.798654	-11.531114
1518.567479	-11.186816
1519.337083	-10.858629
1520.107468	-10.554628
1520.878634	-10.283077
1521.650584	-10.047518
1522.423317	-9.853940
1523.196836	-9.704303
1523.971141	-9.598318
1524.746233	-9.534910
1525.522115	-9.509679
1526.298786	-9.521425
1527.076249	-9.564698
1527.854504	-9.632823
1528.633553	-9.716895
1529.413397	-9.805293
1530.194037	-9.889545
1530.975474	-9.957007
1531.757709	-9.996324
1532.540745	-9.997293
1533.324581	-9.953839
1534.109220	-9.868606
1534.894662	-9.744816
1535.680909	-9.591292
1536.467961	-9.419152
1537.255821	-9.242298
1538.044489	-9.076589
1538.833967	-8.932677
1539.624256	-8.822258
1540.415357	-8.755077
1541.207271	-8.741545
1542.000000	-8.790524
1542.793545	-8.906486
1543.587907	-9.096110
1544.383087	-9.365208
1545.179088	-9.722871
1545.975909	-10.176383
1546.773552	-10.732945
1547.572019	-11.405039
1548.371311	-12.208789
1549.171428	-13.169846
1549.972373	-14.316395
1550.774147	-15.693293
1551.576751	-17.374188
1552.380185	-19.490252
1553.184453	-22.296001
1553.989554	-26.352804
1554.795490	-33.268596
1555.602263	-35.847915
1556.409873	-28.117119
1557.218322	-23.830925
1558.027612	-21.062636
1558.837743	-19.071316
1559.648717	-17.548797
1560.460536	-16.339277
1561.273200	-15.362924
1562.086710	-14.564160
1562.901069	-13.905482
1563.716278	-13.357968
1564.532337	-12.905763
1565.349249	-12.538103
1566.167014	-12.242383
1566.985634	-12.007944
1567.805111	-11.826539
1568.625444	-11.697088
1569.446637	-11.615073
1570.268690	-11.575364
1571.091605	-11.572700
1571.915382	-11.606986
1572.740024	-11.678258
1573.565532	-11.782116
1574.391907	-11.914419
1575.219150	-12.073489
1576.047262	-12.262422
1576.876246	-12.478523
1577.706103	-12.717565
1578.536833	-12.975741
1579.368439	-13.254981
1580.200922	-13.554251
1581.034282	-13.867432
1581.868522	-14.189176
1582.703643	-14.518421
1583.539646	-14.856229
1584.376532	-15.194726
1585.214304	-15.526423
1586.052962	-15.845739
1586.892508	-16.153338
1587.732943	-16.440792
1588.574269	-16.699446
1589.416487	-16.924422
1590.259599	-17.118523
1591.103605	-17.276934
1591.948508	-17.389274
1592.794309	-17.452814
1593.641009	-17.474063
1594.488609	-17.457118
1595.337112	-17.394293
1596.186518	-17.286382
1597.036829	-17.142401
1597.888047	-16.972530
1598.740172	-16.771547
1599.593207	-16.541194
1600.447153	-16.290978
1601.302010	-16.033825
1602.157782	-15.768879
1603.014469	-15.498184
1603.872072	-15.228391
1604.730593	-14.966208
1605.590034	-14.710062
1606.450397	-14.462712
1607.311681	-14.233528
1608.173890	-14.026813
1609.037024	-13.838805
1609.901085	-13.667985
1610.766075	-13.520956
1611.631995	-13.397160
1612.498846	-13.290604
1613.366630	-13.198859
1614.235349	-13.129439
1615.105004	-13.080401
1615.975596	-13.044201
1616.847128	-13.015866
1617.719600	-12.999812
1618.593014	-12.991422
1619.467372	-12.984904
1620.342675	-12.978362
1621.218924	-12.974865
1622.096122	-12.966999
1622.974270	-12.951274
1623.853369	-12.930372
1624.733420	-12.907292
1625.614427	-12.875546
1626.496389	-12.836588
1627.379308	-12.795522
1628.263187	-12.751810
1629.148026	-12.700263
1630.033828	-12.647332
1630.920593	-12.598142
1631.808324	-12.548332
1632.697022	-12.494499
1633.586688	-12.444130
1634.477324	-12.398731
1635.368932	-12.353702
1636.261514	-12.310681
1637.155070	-12.275193
1638.049602	-12.243112
1638.945113	-12.211368
1639.841603	-12.184726
1640.739075	-12.164326
1641.637529	-12.144687
1642.536968	-12.127071
1643.437393	-12.113782
1644.338806	-12.099447
1645.241209	-12.082197
1646.144602	-12.067839
1647.048988	-12.053780
1647.954368	-12.033163
1648.860744	-12.009883
1649.768118	-11.988472
1650.676491	-11.963795
1651.585865	-11.935964
1652.496241	-11.911246
1653.407621	-11.887732
1654.320008	-11.862399
1655.233401	-11.840780
1656.147804	-11.823459
1657.063218	-11.806022
1657.979645	-11.791184
1658.897085	-11.780641
1659.815542	-11.768558
1660.735016	-11.756775
1661.655509	-11.749724
1662.577023	-11.741835
1663.499560	-11.730440
1664.423121	-11.721857
1665.347709	-11.713846
1666.273324	-11.702923
1667.199969	-11.694374
1668.127645	-11.687989
1669.056353	-11.678132
1669.986097	-11.670368
1670.916877	-11.667188
1671.848695	-11.662787
1672.781553	-11.658812
1673.715452	-11.658973
1674.650395	-11.657787
1675.586383	-11.657369
1676.523418	-11.660913
1677.461501	-11.662613
1678.400635	-11.662654
1679.340821	-11.667269
1680.282061	-11.670444
1681.224357	-11.671863
1682.167710	-11.677638
1683.112122	-11.683173
1684.057595	-11.685950
1685.004132	-11.693110
1685.951732	-11.701024
1686.900400	-11.706730
1687.850135	-11.715866
1688.800940	-11.724555
1689.752818	-11.731774
1690.705768	-11.743210
1691.659795	-11.754243
1692.614898	-11.762181
1693.571081	-11.774635
1694.528345	-11.786422
1695.486691	-11.796122
1696.446122	-11.809604
1697.406640	-11.821785
1698.368245	-11.832146
1699.330941	-11.847262
1700.294729	-11.861081
1701.259611	-11.873772
1702.225588	-11.890632
1703.192664	-11.905003
1704.160838	-11.920432
1705.130114	-11.939605
1706.100493	-11.954522
1707.071977	-11.970841
1708.044568	-11.991694
1709.018268	-12.008301
1709.993079	-12.027177
1710.969003	-12.048675
1711.946041	-12.066821
1712.924196	-12.088837
1713.903469	-12.110602
1714.883862	-12.129955
1715.865378	-12.154250
1716.848017	-12.175794
1717.831783	-12.196362
1718.816677	-12.222802
1719.802701	-12.244273
1720.789857	-12.266671
1721.778147	-12.293546
1722.767573	-12.315199
1723.758136	-12.339502
1724.749840	-12.364042
1725.742685	-12.385362
1726.736673	-12.411748
1727.731808	-12.435092
1728.728090	-12.458471
1729.725521	-12.486748
1730.724105	-12.509326
1731.723842	-12.534870
1732.724735	-12.561383
1733.726785	-12.583177
1734.729995	-12.611108
1735.734366	-12.635780
1736.739902	-12.659805
1737.746603	-12.688754
1738.754472	-12.712328
1739.763510	-12.739884
1740.773721	-12.766351
1741.785105	-12.789254
1742.797665	-12.818828
1743.811403	-12.842812
1744.826321	-12.868606
1745.842422	-12.897247
1746.859706	-12.921144
1747.878177	-12.951136
1748.897835	-12.975792
1749.918685	-13.001317
1750.940726	-13.031098
1751.963963	-13.053380
1752.988395	-13.081866
1754.014027	-13.107426
1755.040860	-13.132961
1756.068895	-13.162817
1757.098135	-13.185636
1758.128583	-13.215385
1759.160240	-13.241528
1760.193109	-13.266582
1761.227191	-13.295615
1762.262488	-13.318962
1763.299004	-13.349007
1764.336740	-13.374272
1765.375697	-13.401842
1766.415880	-13.431608
1767.457288	-13.455923
1768.499926	-13.487721
1769.543794	-13.511938
1770.588895	-13.540975
1771.635231	-13.570583
1772.682805	-13.595831
1773.731619	-13.627633
1774.781674	-13.653894
1775.832973	-13.685202
1776.885519	-13.710929
1777.939312	-13.739977
1778.994357	-13.769900
1780.050654	-13.793758
1781.108207	-13.825958
1782.167017	-13.850817
1783.227087	-13.881531
1784.288418	-13.907351
1785.351013	-13.934154
1786.414875	-13.962632
1787.480006	-13.985611
1788.546407	-14.014525
1789.614082	-14.036562
1790.683032	-14.065881
1791.753259	-14.087674
1792.824767	-14.113232
1793.897557	-14.136940
1794.971632	-14.157948
1796.046994	-14.182514
1797.123645	-14.201233
1798.201588	-14.227420
1799.280824	-14.245074
1800.361357	-14.270727
1801.443188	-14.288204
1802.526320	-14.310512
1803.610756	-14.329815
1804.696497	-14.348283
1805.783546	-14.370627
1806.871906	-14.388461
1807.961578	-14.411989
1809.052565	-14.428946
1810.144870	-14.453431
1811.238494	-14.467821
1812.333441	-14.492806
1813.429713	-14.508194
1814.527311	-14.530902
1815.626239	-14.549367
1816.726499	-14.568412
1817.828094	-14.586347
1818.931025	-14.604388
1820.035295	-14.622393
1821.140906	-14.639138
1822.247862	-14.662276
1823.356165	-14.676741
1824.465816	-14.697770
1825.576819	-14.708690
1826.689175	-14.726754
1827.802888	-14.732405
1828.917960	-14.753084
1830.034394	-14.768754
1831.152191	-14.790004
1832.271354	-14.792409
1833.391887	-14.804330
1834.513790	-14.812471
1835.637068	-14.831143
1836.761722	-14.837265
1837.887755	-14.848023
1839.015169	-14.852415
1840.143968	-14.865227
1841.274153	-14.868959
1842.405727	-14.881661
1843.538693	-14.887107
1844.673053	-14.895112
1845.808810	-14.897216
1846.945966	-14.906881
1848.084525	-14.906615
1849.224488	-14.914800
1850.365858	-14.915579
1851.508638	-14.921874
1852.652831	-14.920597
1853.798438	-14.927601
1854.945463	-14.923282
1856.093909	-14.929085
1857.243777	-14.923734
1858.395071	-14.928664
1859.547794	-14.922535
1860.701947	-14.926831
1861.857533	-14.920701
1863.014556	-14.923303
1864.173018	-14.916865
1865.332922	-14.917742
1866.494270	-14.909683
1867.657065	-14.909776
1868.821309	-14.903016
1869.987006	-14.901494
1871.154158	-14.895527
1872.322768	-14.890023
1873.492839	-14.884449
1874.664373	-14.873894
1875.837373	-14.870001
1877.011841	-14.857811
1878.187782	-14.854510
1879.365197	-14.841252
1880.544089	-14.837479
1881.724460	-14.822739
1882.906315	-14.818668
1884.089655	-14.806128
1885.274483	-14.798219
1886.460803	-14.787690
1887.648616	-14.774080
1888.837927	-14.767106
1890.028736	-14.752906
1891.221049	-14.748465
1892.414866	-14.734429
1893.610192	-14.726366
1894.807028	-14.709971
1896.005379	-14.697700
1897.205246	-14.684685
1898.406633	-14.671823
1899.609542	-14.663639
1900.813977	-14.647609
1902.019940	-14.636805
1903.227434	-14.617792
1904.436462	-14.603469
1905.647028	-14.588929
1906.859133	-14.571713
1908.072781	-14.560544
1909.287976	-14.537615
1910.504719	-14.523916
1911.723013	-14.502047
1912.942863	-14.484464
1914.164270	-14.470301
1915.387238	-14.445789
1916.611770	-14.433586
1917.837868	-14.406100
1919.065536	-14.389623
1920.294777	-14.370404
1921.525594	-14.347863
1922.757989	-14.335538
1923.991967	-14.309186
1925.227529	-14.293610
1926.464679	-14.272459
1927.703420	-14.250425
1928.943755	-14.236965
1930.185688	-14.211653
1931.429221	-14.196776
1932.674356	-14.176386
1933.921099	-14.155114
1935.169451	-14.141052
1936.419415	-14.117857
1937.670996	-14.100986
1938.924195	-14.083082
1940.179017	-14.060331
1941.435463	-14.046173
1942.693538	-14.025750
1943.953245	-14.006652
1945.214586	-13.992384
1946.477566	-13.969452
1947.742186	-13.953065
1949.008451	-13.936719
1950.276363	-13.914826
1951.545926	-13.902300
1952.817143	-13.884014
1954.090017	-13.863109
1955.364551	-13.850426
1956.640749	-13.826976
1957.918615	-13.809803
1959.198150	-13.795831
1960.479359	-13.772100
1961.762244	-13.755402
1963.046810	-13.736864
1964.333059	-13.712703
1965.620995	-13.697324
1966.910621	-13.678230
1968.201940	-13.653084
1969.494956	-13.636394
1970.789672	-13.616087
1972.086091	-13.593219
1973.384217	-13.579542
1974.684053	-13.559151
1975.985602	-13.534838
1977.288869	-13.521195
1978.593855	-13.501970
1979.900566	-13.481844
1981.209003	-13.470206
1982.519171	-13.451287
1983.831073	-13.428878
1985.144712	-13.416200
1986.460093	-13.399225
1987.777217	-13.378180
1989.096089	-13.366569
1990.416713	-13.351840
1991.739092	-13.331372
1993.063228	-13.321330
1994.389127	-13.310523
1995.716791	-13.292994
1997.046223	-13.280051
1998.377428	-13.271381
1999.710409	-13.255396
2001.045169	-13.243059
2002.381713	-13.239863
2003.720043	-13.227088
2005.060163	-13.212112
2006.402077	-13.203338
2007.745788	-13.196538
2009.091301	-13.182534
2010.438618	-13.172445
2011.787743	-13.168073
2013.138680	-13.154463
2014.491433	-13.139639
2015.846005	-13.132669
2017.202399	-13.124620
2018.560621	-13.110052
2019.920673	-13.098872
2021.282558	-13.094753
2022.646281	-13.082047
2024.011846	-13.067044
2025.379256	-13.059650
2026.748515	-13.053200
2028.119626	-13.040185
2029.492594	-13.027270
2030.867422	-13.023061
2032.244114	-13.016319
2033.622673	-13.001124
2035.003104	-12.990525
2036.385411	-12.986005
2037.769597	-12.979757
2039.155665	-12.967138
2040.543621	-12.957152
2041.933467	-12.955468
2043.325208	-12.949700
2044.718847	-12.939299
2046.114389	-12.932166
2047.511837	-12.930782
2048.911195	-12.929865
2050.312467	-12.921832
2051.715657	-12.917191
2053.120769	-12.919110
2054.527807	-12.920798
2055.936775	-12.916488
2057.347677	-12.909885
2058.760516	-12.911551
2060.175297	-12.916720
2061.592025	-12.916655
2063.010701	-12.909869
2064.431332	-12.904330
2065.853921	-12.908547
2067.278472	-12.913270
2068.704988	-12.910627
2070.133475	-12.903229
2071.563936	-12.899144
2072.996375	-12.903590
2074.430796	-12.908529
2075.867204	-12.903498
2077.305603	-12.896159
2078.745996	-12.892655
2080.188389	-12.896990
2081.632784	-12.902302
2083.079187	-12.898831
2084.527601	-12.891089
2085.978030	-12.887564
2087.430480	-12.890805
2088.884954	-12.897114
2090.341455	-12.898938
2091.799990	-12.895604
2093.260561	-12.892100
2094.723173	-12.894503
2096.187831	-12.903457
2097.654538	-12.912756
2099.123300	-12.918007
2100.594119	-12.918742
2102.067001	-12.919369
2103.541950	-12.927645
2105.018971	-12.941598
2106.498067	-12.956729
2107.979243	-12.968895
2109.462503	-12.975377
2110.947853	-12.981281
2112.435295	-12.992454
2113.924836	-13.009338
2115.416478	-13.029784
2116.910227	-13.047409
2118.406087	-13.060591
2119.904063	-13.069639
2121.404158	-13.077499
2122.906378	-13.090267
2124.410727	-13.107215
2125.917210	-13.127074
2127.425831	-13.145746
2128.936594	-13.159673
2130.449505	-13.169751
2131.964567	-13.177698
2133.481786	-13.185667
2135.001166	-13.196346
2136.522711	-13.210982
2138.046427	-13.227404
2139.572317	-13.244059
2141.100388	-13.258605
2142.630642	-13.271502
2144.163085	-13.281127
2145.697722	-13.287721
2147.234558	-13.295413
2148.773596	-13.306673
2150.314842	-13.321835
2151.858301	-13.340999
2153.403977	-13.363411
2154.951875	-13.387577
2156.502000	-13.411053
2158.054357	-13.433343
2159.608950	-13.454039
2161.165785	-13.474133
2162.724866	-13.493208
2164.286198	-13.513613
2165.849786	-13.535306
2167.415635	-13.557128
2168.983749	-13.586116
2170.554134	-13.618429
2172.126795	-13.654635
2173.701737	-13.693142
2175.278964	-13.729705
2176.858481	-13.767314
2178.440294	-13.805762
2180.024408	-13.841459
2181.610827	-13.873356
2183.199557	-13.903716
2184.790602	-13.932844
2186.383968	-13.960483
2187.979660	-13.986701
2189.577683	-14.011543
2191.178041	-14.036220
2192.780741	-14.060195
2194.385787	-14.080845
2195.993185	-14.099443
2197.602939	-14.121206
2199.215054	-14.143711
2200.829537	-14.164064
2202.446392	-14.185834
2204.065624	-14.212489
2205.687239	-14.241382
2207.311242	-14.271841
2208.937638	-14.302989
2210.566433	-14.335847
2212.197631	-14.371934
2213.831239	-14.410443
2215.467261	-14.451976
2217.105703	-14.496164
2218.746570	-14.543834
2220.389867	-14.593642
2222.035601	-14.646416
2223.683776	-14.702514
2225.334398	-14.762196
2226.987472	-14.825296
2228.643004	-14.889370
2230.300999	-14.952809
2231.961463	-15.018635
2233.624402	-15.087153
2235.289820	-15.153165
2236.957723	-15.215558
2238.628118	-15.276632
2240.301009	-15.337221
2241.976402	-15.396412
2243.654303	-15.451646
2245.334717	-15.502910
2247.017650	-15.552800
2248.703108	-15.598736
2250.391096	-15.642809
2252.081620	-15.690382
2253.774686	-15.739968
2255.470300	-15.788007
2257.168467	-15.834388
2258.869193	-15.881401
2260.572484	-15.932959
2262.278345	-15.990703
2263.986783	-16.052122
2265.697804	-16.114028
2267.411412	-16.172127
2269.127615	-16.223710
2270.846417	-16.271904
2272.567826	-16.320846
2274.291846	-16.372035
2276.018484	-16.429654
2277.747745	-16.494617
2279.479637	-16.560603
2281.214164	-16.626360
2282.951333	-16.694703
2284.691149	-16.767287
2286.433619	-16.846956
2288.178750	-16.934355
2289.926546	-17.025043
2291.677014	-17.115377
2293.430161	-17.202417
2295.185992	-17.282629
2296.944513	-17.355217
2298.705732	-17.423671
2300.469653	-17.495798
2302.236283	-17.572523
2304.005629	-17.651674
2305.777696	-17.737757
2307.552492	-17.829617
2309.330022	-17.922268
2311.110292	-18.019011
2312.893310	-18.121171
2314.679080	-18.221309
2316.467611	-18.312317
2318.258907	-18.388621
2320.052976	-18.455818
2321.849824	-18.515918
2323.649457	-18.578382
2325.451883	-18.650232
2327.257106	-18.733476
2329.065135	-18.814620
2330.875975	-18.885070
2332.689633	-18.952493
2334.506116	-19.024046
2336.325430	-19.104146
2338.147581	-19.193671
2339.972578	-19.283654
2341.800425	-19.366020
2343.631130	-19.446483
2345.464700	-19.538355
2347.301141	-19.646309
2349.140461	-19.761881
2350.982665	-19.874999
2352.827760	-19.984243
2354.675754	-20.096190
2356.526653	-20.220955
2358.380464	-20.357622
2360.237195	-20.487941
2362.096851	-20.602577
2363.959440	-20.714067
2365.824968	-20.842797
2367.693444	-20.985216
2369.564873	-21.112261
2371.439263	-21.224579
2373.316620	-21.341018
2375.196953	-21.468448
2377.080267	-21.596970
2378.966570	-21.704497
2380.855869	-21.796830
2382.748171	-21.898651
2384.643484	-22.003113
2386.541815	-22.091356
2388.443170	-22.160258
2390.347557	-22.236377
2392.254984	-22.332796
2394.165457	-22.422027
2396.078984	-22.498835
2397.995572	-22.596020
2399.915229	-22.722238
2401.837961	-22.840651
2403.763777	-22.949737
2405.692684	-23.091699
2407.624689	-23.246999
2409.559800	-23.376689
2411.498023	-23.504550
2413.439368	-23.653539
2415.383840	-23.794922
2417.331449	-23.912164
2419.282201	-24.051789
2421.236104	-24.218910
2423.193165	-24.369584
2425.153393	-24.526963
2427.116795	-24.715488
2429.083378	-24.887788
2431.053151	-25.038689
2433.026121	-25.196942
2435.002297	-25.331669
2436.981685	-25.424248
2438.964293	-25.525246
2440.950131	-25.638874
2442.939204	-25.733458
2444.931522	-25.871088
2446.927092	-26.047162
2448.925923	-26.198683
2450.928022	-26.343344
2452.933397	-26.489023
2454.942056	-26.581145
2456.954008	-26.654542
2458.969260	-26.755761
2460.987821	-26.856118
2463.009699	-26.967424
2465.034902	-27.136184
2467.063437	-27.266575
2469.095315	-27.403161
2471.130542	-27.543583
2473.169127	-27.643151
2475.211078	-27.792625
2477.256404	-27.968195
2479.305112	-28.134079
2481.357212	-28.351988
2483.412713	-28.543111
2485.471621	-28.710544
2487.533946	-28.915213
2489.599696	-29.100760
2491.668880	-29.307029
2493.741507	-29.515857
2495.817585	-29.674393
2497.897122	-29.864799
2499.980127	-30.028324
2502.066609	-30.198400
2504.156578	-30.380623
2506.250040	-30.507227
2508.347006	-30.657945
2510.447483	-30.783625
2512.551482	-30.917642
2514.659010	-31.050841
2516.770076	-31.158223
2518.884690	-31.292383
2521.002861	-31.393666
2523.124597	-31.543131
2525.249907	-31.642379
2527.378801	-31.751230
2529.511287	-31.866815
2531.647375	-31.963529
2533.787074	-32.100143
2535.930393	-32.194785
2538.077340	-32.354813
2540.227927	-32.466254
2542.382160	-32.657113
2544.540051	-32.835987
2546.701608	-33.048946
2548.866840	-33.286796
2551.035757	-33.531707
2553.208369	-33.798570
2555.384684	-34.045179
2557.564713	-34.330072
2559.748465	-34.542912
2561.935948	-34.841991
2564.127174	-35.033758
2566.322152	-35.288495
2568.520890	-35.463932
2570.723399	-35.698634
2572.929689	-35.845887
2575.139769	-36.064273
2577.353649	-36.189202
2579.571340	-36.369257
2581.792849	-36.478379
2584.018189	-36.645223
2586.247368	-36.711620
2588.480396	-36.823169
2590.717284	-36.874746
2592.958041	-36.974453
2595.202678	-37.038599
2597.451204	-37.139371
2599.703630	-37.132894
2601.959966	-37.225547
2604.220222	-37.290803
2606.484408	-37.381264
2608.752535	-37.510766
2611.024612	-37.586966
2613.300651	-37.781947
2615.580661	-38.000870
2617.864653	-38.237455
2620.152638	-38.448609
2622.444625	-38.817732
2624.740626	-39.123196
2627.040651	-39.520994
2629.344710	-39.842677
2631.652814	-40.140031
2633.964974	-40.579537
2636.281200	-40.881895
2638.601504	-41.274884
2640.925896	-41.475473
2643.254386	-41.745268
2645.586987	-42.207442
2647.923707	-42.345074
2650.264559	-42.586071
2652.609554	-42.840422
2654.958702	-43.061098
2657.312015	-43.256608
2659.669503	-43.169051
2662.031178	-43.274663
2664.397051	-43.321241
2666.767132	-43.247716
2669.141434	-43.192245
2671.519968	-42.974370
2673.902745	-42.953722
2676.289776	-42.991615
2678.681072	-42.787838
2681.076646	-42.826034
2683.476508	-42.899146
2685.880671	-42.915552
2688.289145	-43.033522
2690.701942	-43.171755
2693.119075	-43.415843
2695.540554	-43.702877
2697.966391	-43.996249
2700.396599	-44.390207
2702.831189	-44.838927
2705.270172	-45.270224
2707.713561	-45.625649
2710.161368	-46.172094
2712.613605	-46.582483
2715.070283	-46.931809
2717.531416	-47.516679
2719.997014	-48.046920
2722.467090	-48.595069
2724.941657	-49.356867
2727.420726	-49.905093
2729.904310	-50.580479
2732.392421	-51.058920
2734.885072	-51.381119
2737.382275	-51.655391
2739.884042	-51.551019
2742.390387	-51.347223
2744.901321	-51.231178
2747.416857	-50.746226
2749.937008	-50.358258
2752.461787	-49.913450
2754.991206	-49.633418
2757.525279	-49.313738
2760.064017	-48.955624
2762.607434	-48.945886
2765.155544	-48.896880
2767.708358	-48.660946
2770.265890	-48.980588
2772.828153	-49.178747
2775.395160	-49.260727
2777.966924	-49.639624
2780.543459	-49.908339
2783.124778	-50.251899
2785.710894	-50.355996
2788.301821	-50.559333
2790.897572	-51.187402
2793.498160	-51.348414
2796.103599	-51.551548
2798.713903	-52.439488
2801.329085	-52.825599
2803.949159	-53.736969
2806.574139	-55.137229
2809.204038	-55.724729
2811.838871	-57.153492
2814.478650	-58.760308
2817.123391	-60.666776
2819.773107	-61.983591
2822.427812	-63.181180
2825.087521	-63.010458
2827.752247	-62.562583
2830.422005	-61.527150
2833.096808	-60.518710
2835.776672	-58.841304
2838.461611	-58.304729
2841.151638	-57.505921
2843.846769	-56.849175
2846.547019	-56.856067
2849.252401	-56.925616
2851.962930	-56.991688
2854.678621	-57.128016
2857.399489	-57.025083
2860.125549	-56.708406
2862.856815	-56.706041
2865.593302	-56.546905
2868.335026	-56.467747
2871.082002	-56.322848
2873.834244	-56.183874
2876.591767	-55.938425
2879.354588	-56.215152
2882.122721	-56.310730
2884.896181	-57.047016
2887.674984	-57.471019
2890.459146	-58.510388
2893.248681	-59.410126
2896.043606	-60.113879
2898.843937	-61.619267
2901.649687	-62.432978
2904.460875	-63.999761
2907.277515	-67.081811
2910.099623	-69.960944
2912.927215	-75.806398
2915.760308	-76.535580
2918.598916	-76.158773
2921.443057	-71.886870
2924.292747	-69.711320
2927.148002	-71.397683
2930.008837	-69.624391
2932.875270	-71.300210
2935.747318	-72.836230
2938.624995	-70.678926
2941.508320	-74.993292
2944.397308	-69.485218
2947.291977	-69.998211
2950.192343	-67.476743
2953.098423	-65.225755
2956.010234	-65.670868
2958.927792	-63.554901
2961.851116	-62.928362
2964.780221	-63.312200
2967.715126	-62.366270
2970.655847	-63.161527
2973.602402	-62.860532
2976.554808	-62.847087
2979.513083	-63.822058
2982.477243	-63.785410
2985.447308	-64.471337
2988.423293	-65.662675
2991.405218	-66.261228
2994.393099	-68.672083
2997.386955	-71.674329
