# 2022-03-21_23.55.58
# shape = sech2
# FWHM_ps = 0.1
# carrier_nm = 1542
# frep_MHz = 12126
# pow_mW = 8000
# GDD = 0.0
# propa_len = 0.13244444444444445
# untap_len = 0.01
# taper_len = 0.07244444444444445
# waist_len = 0.02
# uptap_len = 0.02
# untap_scale = 1.0
# waist_scale = 0.24210526315789477
# workingDir = NL_20110305_12 (Spirou)
# axis = slow
# window_ps = 10.0
# steps = 200
# points = 21700
# 
# wavelength [nm]	 power spectral density [dB]
600.043425	-87.037643
600.163550	-87.261155
600.283723	-87.481037
600.403943	-87.640730
600.524212	-87.698971
600.644529	-87.641785
600.764895	-87.484222
600.885308	-87.262435
601.005770	-87.021518
601.126280	-86.803694
601.246839	-86.638854
601.367446	-86.542914
601.488101	-86.519961
601.608804	-86.554368
601.729557	-86.614811
601.850357	-86.661913
601.971206	-86.661692
602.092104	-86.592475
602.213050	-86.438443
602.334045	-86.195785
602.455089	-85.886115
602.576181	-85.543958
602.697322	-85.206368
602.818511	-84.905093
602.939749	-84.658174
603.061036	-84.479262
603.182372	-84.379280
603.303757	-84.360931
603.425191	-84.421669
603.546673	-84.551296
603.668204	-84.727866
603.789785	-84.924016
603.911414	-85.098117
604.033092	-85.202037
604.154820	-85.203142
604.276596	-85.093341
604.398422	-84.890366
604.520297	-84.628541
604.642220	-84.339423
604.764193	-84.058173
604.886216	-83.819320
605.008287	-83.645030
605.130408	-83.546347
605.252578	-83.522367
605.374798	-83.562480
605.497066	-83.655781
605.619385	-83.785544
605.741752	-83.931150
605.864169	-84.072859
605.986636	-84.183996
606.109152	-84.240748
606.231718	-84.233073
606.354333	-84.159282
606.476998	-84.030060
606.599712	-83.870152
606.722476	-83.703051
606.845290	-83.552502
606.968154	-83.438508
607.091067	-83.370392
607.214030	-83.353804
607.337043	-83.382678
607.460106	-83.437499
607.583219	-83.495357
607.706381	-83.532968
607.829594	-83.529638
607.952856	-83.479844
608.076169	-83.389258
608.199531	-83.267422
608.322944	-83.130069
608.446407	-82.995720
608.569920	-82.886143
608.693483	-82.820270
608.817096	-82.807567
608.940759	-82.849508
609.064473	-82.947994
609.188237	-83.102852
609.312051	-83.302423
609.435916	-83.525014
609.559831	-83.739579
609.683796	-83.909977
609.807812	-84.005635
609.931878	-84.004778
610.055995	-83.904660
610.180162	-83.722948
610.304380	-83.483801
610.428648	-83.220153
610.552967	-82.968147
610.677337	-82.751395
610.801757	-82.589156
610.926228	-82.494822
611.050750	-82.468533
611.175323	-82.505830
611.299946	-82.593002
611.424620	-82.717565
611.549345	-82.870742
611.674121	-83.034950
611.798948	-83.187178
611.923826	-83.305816
612.048755	-83.369781
612.173734	-83.370782
612.298765	-83.308036
612.423847	-83.193668
612.548980	-83.042121
612.674165	-82.871508
612.799400	-82.708691
612.924687	-82.579573
613.050025	-82.496998
613.175414	-82.466607
613.300854	-82.482858
613.426346	-82.539528
613.551889	-82.624799
613.677484	-82.720762
613.803130	-82.808287
613.928827	-82.868438
614.054576	-82.883409
614.180377	-82.850025
614.306229	-82.771287
614.432132	-82.657273
614.558087	-82.524116
614.684094	-82.389548
614.810153	-82.270707
614.936263	-82.179957
615.062425	-82.121586
615.188639	-82.095019
615.314904	-82.099679
615.441222	-82.130543
615.567591	-82.174454
615.694012	-82.215770
615.820486	-82.242229
615.947011	-82.245021
616.073588	-82.218280
616.200217	-82.158636
616.326898	-82.067479
616.453632	-81.952302
616.580417	-81.823292
616.707255	-81.691175
616.834144	-81.564497
616.961086	-81.451202
617.088081	-81.361595
617.215127	-81.304291
617.342226	-81.282022
617.469378	-81.292434
617.596581	-81.331655
617.723837	-81.396639
617.851146	-81.477848
617.978507	-81.558842
618.105920	-81.621318
618.233386	-81.654214
618.360905	-81.655772
618.488476	-81.621186
618.616100	-81.547474
618.743777	-81.439816
618.871506	-81.314675
618.999288	-81.191098
619.127123	-81.080891
619.255011	-80.988908
619.382951	-80.926493
619.510945	-80.902653
619.638991	-80.922073
619.767090	-80.984263
619.895243	-81.086111
620.023448	-81.222893
620.151706	-81.381484
620.280017	-81.544511
620.408382	-81.692735
620.536799	-81.803843
620.665270	-81.865591
620.793794	-81.873204
620.922371	-81.825392
621.051002	-81.729777
621.179686	-81.601915
621.308423	-81.462546
621.437213	-81.327339
621.566057	-81.201272
621.694954	-81.093011
621.823905	-81.012484
621.952909	-80.964868
622.081967	-80.951211
622.211079	-80.970107
622.340244	-81.021271
622.469462	-81.103735
622.598735	-81.207032
622.728061	-81.317482
622.857441	-81.421147
622.986874	-81.509016
623.116361	-81.566722
623.245903	-81.572409
623.375498	-81.519851
623.505147	-81.419357
623.634850	-81.284739
623.764606	-81.134739
623.894417	-80.984334
624.024282	-80.847044
624.154201	-80.738019
624.284174	-80.662502
624.414202	-80.621725
624.544283	-80.616192
624.674419	-80.635899
624.804609	-80.674457
624.934853	-80.726405
625.065151	-80.783051
625.195504	-80.842134
625.325911	-80.890707
625.456373	-80.919051
625.586889	-80.920794
625.717460	-80.890532
625.848085	-80.827673
625.978764	-80.734002
626.109498	-80.609943
626.240287	-80.470632
626.371131	-80.326356
626.502029	-80.188109
626.632982	-80.069209
626.763989	-79.979530
626.895052	-79.925502
627.026169	-79.911915
627.157341	-79.933475
627.288568	-79.987528
627.419850	-80.071746
627.551187	-80.179126
627.682579	-80.298032
627.814026	-80.415678
627.945528	-80.518316
628.077085	-80.593109
628.208697	-80.630961
628.340364	-80.629594
628.472087	-80.586662
628.603865	-80.506251
628.735698	-80.401551
628.867586	-80.281787
628.999530	-80.154230
629.131529	-80.026460
629.263584	-79.907232
629.395694	-79.810137
629.527859	-79.738593
629.660080	-79.687014
629.792357	-79.654117
629.924689	-79.643883
630.057077	-79.657446
630.189520	-79.690917
630.322019	-79.740230
630.454574	-79.795375
630.587184	-79.840869
630.719851	-79.862528
630.852573	-79.851318
630.985351	-79.805116
631.118185	-79.728810
631.251075	-79.628847
631.384021	-79.511494
631.517023	-79.387754
631.650081	-79.264328
631.783195	-79.150904
631.916365	-79.054918
632.049592	-78.971949
632.182874	-78.898905
632.316213	-78.835919
632.449608	-78.783436
632.583059	-78.746769
632.716567	-78.733472
632.850131	-78.745741
632.983751	-78.783376
633.117428	-78.844883
633.251161	-78.925555
633.384951	-79.018321
633.518797	-79.108634
633.652700	-79.180461
633.786660	-79.227441
633.920676	-79.248958
634.054749	-79.247173
634.188879	-79.226498
634.323065	-79.197024
634.457308	-79.165749
634.591608	-79.136857
634.725965	-79.115845
634.860379	-79.108877
634.994850	-79.117717
635.129377	-79.141243
635.263962	-79.183070
635.398604	-79.247768
635.533303	-79.335474
635.668058	-79.449278
635.802872	-79.593298
635.937742	-79.760590
636.072669	-79.941830
636.207654	-80.128065
636.342696	-80.313882
636.477796	-80.494425
636.612953	-80.652689
636.748167	-80.783560
636.883439	-80.900690
637.018768	-81.001444
637.154155	-81.082724
637.289599	-81.154135
637.425101	-81.214541
637.560660	-81.270315
637.696277	-81.322981
637.831952	-81.370677
637.967685	-81.424610
638.103475	-81.489481
638.239324	-81.569227
638.375230	-81.679099
638.511194	-81.824459
638.647215	-82.006453
638.783295	-82.227456
638.919433	-82.487912
639.055629	-82.789102
639.191883	-83.120375
639.328195	-83.464354
639.464565	-83.809769
639.600994	-84.144070
639.737481	-84.452437
639.874025	-84.723084
640.010629	-84.936754
640.147290	-85.089501
640.284010	-85.188947
640.420789	-85.229790
640.557625	-85.222844
640.694521	-85.177557
640.831474	-85.099042
640.968487	-85.006575
641.105558	-84.916045
641.242687	-84.828120
641.379876	-84.744141
641.517123	-84.672162
641.654429	-84.624060
641.791793	-84.602818
641.929216	-84.607395
642.066699	-84.636548
642.204240	-84.671001
642.341840	-84.701919
642.479499	-84.731724
642.617217	-84.737589
642.754994	-84.700619
642.892830	-84.607622
643.030726	-84.447591
643.168680	-84.228223
643.306694	-83.961736
643.444767	-83.650377
643.582899	-83.315509
643.721091	-82.977995
643.859342	-82.644080
643.997652	-82.326990
644.136022	-82.034462
644.274451	-81.765237
644.412940	-81.525778
644.551488	-81.321735
644.690096	-81.154681
644.828763	-81.013729
644.967490	-80.893555
645.106277	-80.787249
645.245124	-80.682117
645.384030	-80.571276
645.522997	-80.449441
645.662023	-80.311476
645.801109	-80.164542
645.940255	-80.014306
646.079460	-79.862438
646.218726	-79.716117
646.358052	-79.577847
646.497438	-79.438828
646.636884	-79.295613
646.776391	-79.152264
646.915957	-79.010907
647.055584	-78.869059
647.195271	-78.727859
647.335019	-78.589111
647.474826	-78.457935
647.614695	-78.335191
647.754623	-78.211190
647.894612	-78.077657
648.034662	-77.937596
648.174772	-77.787738
648.314943	-77.625820
648.455174	-77.460906
648.595466	-77.304511
648.735819	-77.166727
648.876233	-77.056689
649.016707	-76.973408
649.157242	-76.913843
649.297838	-76.881066
649.438495	-76.870578
649.579213	-76.870576
649.719992	-76.877445
649.860832	-76.891911
650.001733	-76.909651
650.142695	-76.928329
650.283718	-76.943437
650.424803	-76.950374
650.565949	-76.947808
650.707156	-76.932738
650.848424	-76.904031
650.989754	-76.870419
651.131145	-76.843342
651.272597	-76.831491
651.414111	-76.842481
651.555687	-76.884595
651.697324	-76.961364
651.839022	-77.071208
651.980782	-77.210670
652.122604	-77.371925
652.264488	-77.543368
652.406433	-77.720967
652.548441	-77.905623
652.690510	-78.089726
652.832640	-78.273050
652.974833	-78.458053
653.117088	-78.643900
653.259405	-78.833760
653.401784	-79.027904
653.544224	-79.230538
653.686727	-79.445707
653.829293	-79.676035
653.971920	-79.922709
654.114609	-80.185002
654.257361	-80.464193
654.400175	-80.753552
654.543052	-81.039807
654.685991	-81.324652
654.828992	-81.608887
654.972056	-81.886352
655.115183	-82.161375
655.258372	-82.439358
655.401623	-82.730387
655.544937	-83.049780
655.688314	-83.407863
655.831754	-83.818578
655.975256	-84.296985
656.118822	-84.856762
656.262450	-85.505322
656.406141	-86.247316
656.549894	-87.080240
656.693711	-88.000277
656.837591	-88.992338
656.981534	-90.041829
657.125540	-91.112742
657.269610	-92.196986
657.413742	-93.292039
657.557938	-94.350162
657.702196	-95.356834
657.846519	-96.230166
657.990904	-96.848492
658.135353	-97.167345
658.279866	-97.136180
658.424441	-96.795531
658.569081	-96.139252
658.713784	-95.185157
658.858550	-94.042799
659.003381	-92.788988
659.148274	-91.542044
659.293232	-90.360778
659.438253	-89.278285
659.583339	-88.306182
659.728488	-87.436164
659.873701	-86.657942
660.018978	-85.951189
660.164318	-85.296085
660.309723	-84.692901
660.455192	-84.129271
660.600725	-83.605442
660.746323	-83.113427
660.891984	-82.641066
661.037710	-82.191410
661.183500	-81.762806
661.329354	-81.349247
661.475272	-80.972442
661.621255	-80.649277
661.767303	-80.380300
661.913415	-80.167137
662.059591	-80.005056
662.205833	-79.874107
662.352138	-79.757706
662.498509	-79.640142
662.644944	-79.505265
662.791443	-79.345756
662.938008	-79.174382
663.084638	-79.008019
663.231332	-78.862955
663.378091	-78.742318
663.524915	-78.648756
663.671804	-78.583836
663.818759	-78.538238
663.965778	-78.509037
664.112863	-78.496780
664.260012	-78.497023
664.407227	-78.514931
664.554507	-78.556785
664.701853	-78.623308
664.849264	-78.712296
664.996740	-78.815320
665.144282	-78.935029
665.291889	-79.070777
665.439561	-79.223446
665.587300	-79.413138
665.735103	-79.643732
665.882973	-79.916167
666.030908	-80.245201
666.178909	-80.617851
666.326976	-81.017705
666.475109	-81.439499
666.623307	-81.867258
666.771571	-82.308336
666.919902	-82.775379
667.068298	-83.278494
667.216761	-83.840900
667.365289	-84.463349
667.513884	-85.146752
667.662545	-85.864850
667.811272	-86.561100
667.960065	-87.245646
668.108925	-87.910270
668.257851	-88.545722
668.406843	-89.233022
668.555902	-89.953551
668.705027	-90.712458
668.854219	-91.588904
669.003478	-92.510956
669.152803	-93.450792
669.302195	-94.513361
669.451653	-95.681471
669.601179	-96.956447
669.750771	-98.354415
669.900430	-99.550683
670.050156	-100.192047
670.199949	-100.274592
670.349808	-99.936909
670.499735	-99.365827
670.649729	-98.646066
670.799790	-97.600955
670.949918	-96.248150
671.100114	-94.741187
671.250377	-93.252818
671.400707	-91.942974
671.551104	-90.823641
671.701569	-89.860889
671.852101	-89.044126
672.002700	-88.310966
672.153368	-87.613160
672.304102	-86.965349
672.454905	-86.368850
672.605775	-85.823410
672.756713	-85.343252
672.907718	-84.915939
673.058791	-84.528959
673.209933	-84.174645
673.361142	-83.836010
673.512419	-83.520209
673.663764	-83.237816
673.815177	-82.994527
673.966658	-82.801866
674.118207	-82.651086
674.269825	-82.536042
674.421510	-82.459244
674.573264	-82.409873
674.725086	-82.396920
674.876977	-82.438270
675.028936	-82.540944
675.180963	-82.722078
675.333059	-82.984220
675.485224	-83.315979
675.637457	-83.710827
675.789758	-84.141787
675.942129	-84.584558
676.094568	-85.035683
676.247075	-85.506669
676.399652	-86.028912
676.552298	-86.656572
676.705012	-87.436265
676.857795	-88.393512
677.010648	-89.536888
677.163569	-90.825655
677.316560	-92.039396
677.469619	-92.772874
677.622748	-92.602631
677.775946	-91.599697
677.929214	-90.268738
678.082551	-88.938013
678.235957	-87.772574
678.389432	-86.805054
678.542977	-85.987260
678.696592	-85.272152
678.850276	-84.596155
679.004030	-83.919880
679.157853	-83.237557
679.311746	-82.557649
679.465709	-81.916358
679.619742	-81.342823
679.773844	-80.864207
679.928017	-80.502450
680.082259	-80.247764
680.236571	-80.080591
680.390954	-79.972377
680.545406	-79.881804
680.699929	-79.771916
680.854522	-79.619550
681.009185	-79.416387
681.163918	-79.172573
681.318722	-78.908131
681.473596	-78.649073
681.628540	-78.408060
681.783555	-78.205605
681.938641	-78.052353
682.093797	-77.944693
682.249023	-77.865396
682.404321	-77.792786
682.559689	-77.695188
682.715128	-77.553162
682.870637	-77.373071
683.026218	-77.161954
683.181869	-76.951841
683.337591	-76.773680
683.493385	-76.645189
683.649249	-76.585341
683.805185	-76.598426
683.961191	-76.675081
684.117269	-76.812647
684.273418	-77.004046
684.429639	-77.230978
684.585930	-77.493245
684.742294	-77.789145
684.898728	-78.122552
685.055234	-78.517175
685.211812	-78.985974
685.368461	-79.543526
685.525182	-80.219095
685.681975	-81.031106
685.838839	-82.000522
685.995775	-83.164819
686.152783	-84.520613
686.309863	-86.068709
686.467014	-87.694372
686.624238	-88.972889
686.781534	-89.270670
686.938902	-88.366134
687.096342	-86.839583
687.253854	-85.239076
687.411438	-83.760758
687.569095	-82.453979
687.726824	-81.311965
687.884626	-80.329464
688.042499	-79.485965
688.200446	-78.757497
688.358465	-78.127586
688.516556	-77.563353
688.674720	-77.046626
688.832957	-76.574992
688.991266	-76.143364
689.149649	-75.766257
689.308104	-75.452852
689.466632	-75.198638
689.625233	-75.007974
689.783906	-74.868200
689.942653	-74.762062
690.101473	-74.679831
690.260367	-74.598410
690.419333	-74.508708
690.578372	-74.406970
690.737485	-74.284591
690.896672	-74.155370
691.055931	-74.037384
691.215264	-73.938090
691.374671	-73.878506
691.534151	-73.856899
691.693704	-73.865857
691.853332	-73.897496
692.013033	-73.932349
692.172807	-73.959521
692.332656	-73.984623
692.492578	-74.014763
692.652575	-74.078324
692.812645	-74.197999
692.972789	-74.388771
693.133007	-74.667517
693.293300	-75.037928
693.453666	-75.493763
693.614107	-76.038251
693.774622	-76.661747
693.935211	-77.369840
694.095875	-78.191458
694.256613	-79.150955
694.417426	-80.314311
694.578313	-81.775074
694.739274	-83.648037
694.900311	-86.134418
695.061421	-89.469129
695.222607	-93.032331
695.383868	-92.314935
695.545203	-88.539344
695.706613	-85.353999
695.868098	-82.929098
696.029658	-81.001614
696.191293	-79.399730
696.353003	-78.024880
696.514789	-76.824246
696.676649	-75.773460
696.838585	-74.856880
697.000596	-74.066514
697.162682	-73.388307
697.324844	-72.805330
697.487081	-72.300235
697.649394	-71.854112
697.811782	-71.446964
697.974246	-71.067506
698.136786	-70.709736
698.299401	-70.369906
698.462092	-70.052726
698.624859	-69.762662
698.787702	-69.504222
698.950621	-69.282076
699.113616	-69.100037
699.276686	-68.955865
699.439833	-68.848357
699.603056	-68.769776
699.766355	-68.713465
699.929731	-68.670719
700.093183	-68.638259
700.256711	-68.619385
700.420315	-68.619828
700.583996	-68.652190
700.747754	-68.727787
700.911588	-68.850209
701.075499	-69.021254
701.239486	-69.234749
701.403550	-69.480857
701.567691	-69.758587
701.731909	-70.062087
701.896203	-70.397782
702.060575	-70.774241
702.225024	-71.198525
702.389549	-71.679571
702.554152	-72.221843
702.718832	-72.824051
702.883589	-73.471848
703.048424	-74.138375
703.213335	-74.779344
703.378324	-75.336612
703.543391	-75.734023
703.708535	-75.911728
703.873757	-75.826719
704.039056	-75.487515
704.204433	-74.954460
704.369887	-74.302542
704.535420	-73.597012
704.701030	-72.885273
704.866718	-72.193302
705.032484	-71.528278
705.198328	-70.896846
705.364250	-70.299498
705.530250	-69.744001
705.696328	-69.236031
705.862485	-68.783522
706.028720	-68.393873
706.195033	-68.067426
706.361424	-67.797987
706.527894	-67.579968
706.694442	-67.398356
706.861069	-67.240026
707.027775	-67.099430
707.194559	-66.971722
707.361422	-66.860752
707.528363	-66.775596
707.695384	-66.717951
707.862483	-66.690345
708.029661	-66.692366
708.196918	-66.719376
708.364254	-66.768164
708.531670	-66.834313
708.699164	-66.918238
708.866738	-67.021428
709.034391	-67.149201
709.202123	-67.313566
709.369935	-67.527722
709.537826	-67.807322
709.705796	-68.166462
709.873847	-68.610993
710.041976	-69.146641
710.210186	-69.774802
710.378475	-70.504340
710.546844	-71.353609
710.715292	-72.359836
710.883821	-73.564257
711.052429	-75.029494
711.221118	-76.819688
711.389887	-78.950471
711.558735	-81.155592
711.727664	-82.293784
711.896673	-81.210340
712.065763	-78.991956
712.234932	-76.812706
712.404183	-74.949163
712.573513	-73.385634
712.742924	-72.056873
712.912416	-70.916432
713.081988	-69.932759
713.251641	-69.087236
713.421375	-68.368128
713.591190	-67.762953
713.761085	-67.254241
713.931061	-66.822997
714.101119	-66.448293
714.271257	-66.114106
714.441476	-65.810232
714.611777	-65.537292
714.782159	-65.299681
714.952622	-65.102883
715.123166	-64.950396
715.293792	-64.841356
715.464499	-64.774780
715.635288	-64.746138
715.806158	-64.752231
715.977110	-64.792576
716.148143	-64.868628
716.319259	-64.987731
716.490456	-65.160357
716.661735	-65.399020
716.833096	-65.714047
717.004538	-66.113250
717.176063	-66.595871
717.347670	-67.156757
717.519359	-67.787322
717.691130	-68.480614
717.862984	-69.236631
718.034920	-70.050808
718.206938	-70.902709
718.379039	-71.716475
718.551222	-72.356617
718.723488	-72.665146
718.895836	-72.556566
719.068267	-72.084696
719.240781	-71.387484
719.413377	-70.586584
719.586057	-69.764469
719.758819	-68.965418
719.931664	-68.211368
720.104593	-67.517165
720.277604	-66.887850
720.450699	-66.325443
720.623876	-65.831821
720.797137	-65.400052
720.970482	-65.022369
721.143910	-64.687289
721.317421	-64.385453
721.491016	-64.112787
721.664694	-63.869638
721.838456	-63.658240
722.012302	-63.482490
722.186231	-63.345500
722.360244	-63.248043
722.534342	-63.189717
722.708523	-63.167348
722.882788	-63.178596
723.057137	-63.223530
723.231570	-63.303777
723.406088	-63.429392
723.580689	-63.607026
723.755375	-63.841733
723.930146	-64.131828
724.105000	-64.467410
724.279940	-64.837068
724.454963	-65.231154
724.630072	-65.641937
724.805265	-66.062634
724.980543	-66.481527
725.155905	-66.868137
725.331353	-67.171332
725.506885	-67.327378
725.682503	-67.285929
725.858205	-67.039246
726.033993	-66.625654
726.209865	-66.106612
726.385823	-65.538182
726.561866	-64.955782
726.737995	-64.378973
726.914209	-63.817861
727.090508	-63.284415
727.266893	-62.793026
727.443364	-62.357373
727.619920	-61.985009
727.796562	-61.678732
727.973290	-61.434787
728.150103	-61.248497
728.327003	-61.115937
728.503988	-61.033839
728.681060	-60.999758
728.858218	-61.011545
729.035461	-61.068025
729.212791	-61.167941
729.390208	-61.307164
729.567710	-61.479365
729.745299	-61.674166
729.922975	-61.877817
730.100737	-62.080851
730.278586	-62.278709
730.456521	-62.470464
730.634543	-62.656762
730.812652	-62.834343
730.990848	-62.991835
731.169130	-63.117200
731.347500	-63.200001
731.525957	-63.237838
731.704500	-63.236357
731.883131	-63.197517
732.061850	-63.123840
732.240655	-63.010362
732.419548	-62.852088
732.598528	-62.648955
732.777596	-62.408944
732.956751	-62.147365
733.135994	-61.883553
733.315325	-61.632109
733.494744	-61.398220
733.674250	-61.186007
733.853844	-60.998467
734.033526	-60.840610
734.213296	-60.720431
734.393154	-60.645300
734.573101	-60.619986
734.753135	-60.646374
734.933258	-60.718059
735.113469	-60.820221
735.293769	-60.937988
735.474157	-61.059434
735.654633	-61.182767
735.835198	-61.308404
736.015852	-61.435829
736.196594	-61.559479
736.377426	-61.668745
736.558346	-61.749256
736.739355	-61.795225
736.920453	-61.813226
737.101640	-61.817117
737.282916	-61.824171
737.464282	-61.840293
737.645736	-61.859688
737.827280	-61.862622
738.008914	-61.824364
738.190637	-61.727965
738.372449	-61.571841
738.554351	-61.370630
738.736342	-61.140402
738.918424	-60.891318
739.100595	-60.625870
739.282855	-60.343488
739.465206	-60.053330
739.647647	-59.773440
739.830178	-59.528195
740.012799	-59.339353
740.195510	-59.220229
740.378311	-59.174376
740.561203	-59.198888
740.744185	-59.289535
740.927258	-59.444983
741.110421	-59.667623
741.293674	-59.959430
741.477018	-60.322069
741.660453	-60.748394
741.843979	-61.220145
742.027596	-61.711925
742.211303	-62.192443
742.395102	-62.631711
742.578991	-63.002016
742.762972	-63.274068
742.947044	-63.420289
743.131207	-63.416521
743.315461	-63.259311
743.499807	-62.974226
743.684244	-62.607055
743.868773	-62.201583
744.053394	-61.785321
744.238106	-61.369952
744.422910	-60.962257
744.607805	-60.571589
744.792793	-60.211947
744.977872	-59.901569
745.163044	-59.653372
745.348307	-59.475242
745.533663	-59.366054
745.719111	-59.318435
745.904651	-59.328106
746.090283	-59.398146
746.276008	-59.536944
746.461826	-59.753459
746.647735	-60.050464
746.833738	-60.420360
747.019833	-60.846544
747.206021	-61.307950
747.392302	-61.785237
747.578676	-62.265758
747.765143	-62.736287
747.951703	-63.171410
748.138356	-63.532255
748.325102	-63.767727
748.511941	-63.837104
748.698874	-63.734383
748.885900	-63.494579
749.073019	-63.174588
749.260232	-62.816975
749.447539	-62.440309
749.634939	-62.054703
749.822433	-61.669108
750.010021	-61.303787
750.197703	-60.985189
750.385479	-60.730888
750.573348	-60.545812
750.761312	-60.422230
750.949370	-60.347950
751.137523	-60.321376
751.325769	-60.352394
751.514110	-60.458870
751.702545	-60.657230
751.891075	-60.954236
752.079700	-61.347916
752.268419	-61.831131
752.457233	-62.403542
752.646142	-63.082592
752.835145	-63.898732
753.024244	-64.878388
753.213437	-66.016161
753.402726	-67.213353
753.592110	-68.219072
753.781589	-68.663745
753.971163	-68.340952
754.160833	-67.424561
754.350598	-66.233951
754.540459	-64.998464
754.730415	-63.841542
754.920467	-62.824233
755.110615	-61.976793
755.300858	-61.305378
755.491198	-60.799544
755.681633	-60.439444
755.872164	-60.204721
756.062792	-60.083332
756.253515	-60.072072
756.444335	-60.173488
756.635252	-60.391479
756.826264	-60.730270
757.017373	-61.191978
757.208579	-61.778977
757.399881	-62.497641
757.591280	-63.363740
757.782776	-64.414468
757.974368	-65.711919
758.166058	-67.335340
758.357844	-69.350208
758.549728	-71.699335
758.741708	-73.805360
758.933786	-74.215069
759.125961	-72.597024
759.318233	-70.375718
759.510603	-68.336441
759.703071	-66.643874
759.895635	-65.301801
760.088298	-64.275335
760.281058	-63.516074
760.473916	-62.971155
760.666872	-62.588310
760.859926	-62.323921
761.053078	-62.153777
761.246328	-62.070122
761.439676	-62.075477
761.633122	-62.167789
761.826667	-62.333595
762.020310	-62.549045
762.214052	-62.794434
762.407892	-63.067541
762.601831	-63.389230
762.795868	-63.792473
762.990004	-64.301745
763.184239	-64.911357
763.378573	-65.580613
763.573006	-66.235208
763.767538	-66.783166
763.962169	-67.145154
764.156900	-67.259509
764.351729	-67.092419
764.546658	-66.661083
764.741687	-66.052025
764.936815	-65.390159
765.132042	-64.773043
765.327370	-64.245799
765.522797	-63.811473
765.718324	-63.449180
765.913950	-63.140501
766.109677	-62.874689
766.305504	-62.638142
766.501431	-62.413608
766.697458	-62.181719
766.893586	-61.930075
767.089814	-61.654619
767.286142	-61.358882
767.482571	-61.055427
767.679100	-60.754386
767.875730	-60.462780
768.072461	-60.186115
768.269293	-59.929750
768.466225	-59.706058
768.663259	-59.533864
768.860393	-59.427819
769.057629	-59.395776
769.254966	-59.436388
769.452404	-59.548019
769.649944	-59.733514
769.847585	-59.998072
770.045328	-60.338125
770.243172	-60.724837
770.441118	-61.096795
770.639166	-61.374075
770.837315	-61.483425
771.035567	-61.384162
771.233920	-61.076240
771.432376	-60.586573
771.630934	-59.966567
771.829594	-59.279500
772.028356	-58.587092
772.227220	-57.939588
772.426188	-57.366843
772.625257	-56.881452
772.824430	-56.482956
773.023705	-56.163244
773.223083	-55.918943
773.422563	-55.758361
773.622147	-55.694286
773.821834	-55.732853
774.021624	-55.868372
774.221517	-56.087314
774.421513	-56.374002
774.621613	-56.715952
774.821816	-57.098500
775.022122	-57.494186
775.222532	-57.855086
775.423046	-58.114000
775.623664	-58.204172
775.824385	-58.089848
776.025211	-57.782319
776.226140	-57.328632
776.427173	-56.785059
776.628311	-56.198657
776.829553	-55.605861
777.030899	-55.037512
777.232350	-54.517972
777.433905	-54.063775
777.635564	-53.685722
777.837328	-53.392083
778.039197	-53.188193
778.241171	-53.077621
778.443250	-53.062764
778.645433	-53.143631
778.847722	-53.319384
779.050116	-53.586742
779.252615	-53.935647
779.455219	-54.344640
779.657929	-54.776471
779.860744	-55.177358
780.063665	-55.486245
780.266691	-55.649034
780.469823	-55.631598
780.673061	-55.429209
780.876405	-55.065701
781.079855	-54.586365
781.283410	-54.045955
781.487072	-53.496460
781.690840	-52.978352
781.894715	-52.517777
782.098695	-52.126739
782.302783	-51.809120
782.506976	-51.569176
782.711277	-51.414265
782.915684	-51.351935
783.120198	-51.384329
783.324818	-51.505368
783.529546	-51.700560
783.734381	-51.950452
783.939322	-52.233908
784.144372	-52.529380
784.349528	-52.810064
784.554792	-53.039315
784.760163	-53.179192
784.965642	-53.203493
785.171228	-53.107708
785.376922	-52.906245
785.582724	-52.622392
785.788634	-52.281861
785.994651	-51.910085
786.200777	-51.530866
786.407011	-51.167295
786.613353	-50.841100
786.819804	-50.569706
787.026363	-50.367760
787.233030	-50.244904
787.439806	-50.204503
787.646691	-50.245751
787.853684	-50.364354
788.060786	-50.550729
788.267997	-50.791033
788.475317	-51.065251
788.682746	-51.344485
788.890285	-51.590269
789.097932	-51.760648
789.305689	-51.823250
789.513555	-51.764044
789.721531	-51.589660
789.929617	-51.319409
790.137812	-50.980082
790.346117	-50.602175
790.554531	-50.218535
790.763056	-49.860713
790.971691	-49.554276
791.180436	-49.313870
791.389291	-49.146244
791.598256	-49.054713
791.807332	-49.041244
792.016518	-49.106401
792.225815	-49.245571
792.435222	-49.446757
792.644740	-49.690483
792.854369	-49.951322
793.064109	-50.203392
793.273960	-50.422212
793.483922	-50.581452
793.693995	-50.654602
793.904180	-50.623967
794.114475	-50.489920
794.324882	-50.272017
794.535401	-49.999217
794.746031	-49.700646
794.956774	-49.401825
795.167627	-49.123544
795.378593	-48.882691
795.589671	-48.692291
795.800861	-48.560562
796.012162	-48.489859
796.223577	-48.474810
796.435103	-48.506004
796.646742	-48.575421
796.858493	-48.674898
797.070357	-48.791760
797.282334	-48.910634
797.494423	-49.016686
797.706626	-49.098725
797.918941	-49.148883
798.131369	-49.161677
798.343911	-49.137562
798.556566	-49.083678
798.769334	-49.009448
798.982215	-48.926983
799.195210	-48.847371
799.408319	-48.777899
799.621541	-48.722239
799.834877	-48.678001
800.048327	-48.638336
800.261890	-48.596014
800.475568	-48.543133
800.689360	-48.474378
800.903266	-48.389728
801.117287	-48.293556
801.331422	-48.193449
801.545671	-48.094730
801.760036	-48.002088
801.974514	-47.923256
802.189108	-47.866582
802.403816	-47.837620
802.618640	-47.840581
802.833578	-47.879831
803.048632	-47.959512
803.263800	-48.079185
803.479085	-48.232152
803.694484	-48.403608
803.909999	-48.569122
804.125630	-48.694047
804.341376	-48.741505
804.557239	-48.687766
804.773217	-48.529019
804.989311	-48.282093
805.205521	-47.980787
805.421847	-47.665601
805.638290	-47.373447
805.854849	-47.132165
806.071524	-46.960373
806.288316	-46.871438
806.505225	-46.872467
806.722250	-46.965645
806.939393	-47.150580
807.156652	-47.420594
807.374028	-47.759854
807.591521	-48.139971
807.809132	-48.513189
808.026859	-48.813945
808.244705	-48.968516
808.462667	-48.923617
808.680748	-48.676100
808.898946	-48.273839
809.117261	-47.792078
809.335695	-47.307442
809.554246	-46.879737
809.772916	-46.546224
809.991704	-46.326366
810.210610	-46.228158
810.429634	-46.253211
810.648777	-46.397172
810.868039	-46.649239
811.087419	-46.991925
811.306918	-47.398647
811.526535	-47.827985
811.746272	-48.220180
811.966127	-48.505886
812.186102	-48.622725
812.406196	-48.538251
812.626409	-48.269516
812.846742	-47.876024
813.067194	-47.435929
813.287766	-47.024468
813.508457	-46.695848
813.729269	-46.478799
813.950200	-46.386332
814.171251	-46.420579
814.392422	-46.572703
814.613714	-46.821857
814.835126	-47.129365
815.056658	-47.443081
815.278311	-47.708024
815.500084	-47.873043
815.721978	-47.906924
815.943993	-47.805794
816.166128	-47.588368
816.388385	-47.297724
816.610762	-46.986406
816.833261	-46.701750
817.055881	-46.483435
817.278623	-46.360399
817.501486	-46.352492
817.724471	-46.469500
817.947577	-46.705136
818.170805	-47.033530
818.394155	-47.402504
818.617627	-47.732078
818.841221	-47.935579
819.064937	-47.951620
819.288775	-47.776658
819.512736	-47.464024
819.736819	-47.093076
819.961025	-46.737390
820.185354	-46.446452
820.409805	-46.247311
820.634379	-46.153023
820.859076	-46.167201
821.083897	-46.289825
821.308840	-46.516101
821.533907	-46.826667
821.759097	-47.181393
821.984411	-47.516573
822.209848	-47.750771
822.435409	-47.808398
822.661093	-47.657649
822.886902	-47.339048
823.112834	-46.942548
823.338891	-46.560546
823.565072	-46.260763
823.791377	-46.081766
824.017807	-46.039194
824.244361	-46.131918
824.471039	-46.342990
824.697843	-46.640710
824.924771	-46.977775
825.151824	-47.294082
825.379002	-47.524480
825.606306	-47.609694
825.833734	-47.517850
826.061288	-47.263913
826.288967	-46.906331
826.516772	-46.522961
826.744703	-46.185751
826.972759	-45.948367
827.200941	-45.845731
827.429249	-45.896087
827.657683	-46.100947
827.886243	-46.439383
828.114930	-46.860529
828.343743	-47.279993
828.572682	-47.588249
828.801748	-47.686029
829.030941	-47.532380
829.260260	-47.169256
829.489706	-46.696502
829.719280	-46.219865
829.948980	-45.817546
830.178808	-45.535221
830.408763	-45.398475
830.638845	-45.422575
830.869055	-45.612572
831.099393	-45.958386
831.329858	-46.424318
831.560451	-46.938067
831.791173	-47.385528
832.022022	-47.623974
832.252999	-47.545466
832.484105	-47.165803
832.715339	-46.615774
832.946702	-46.048574
833.178193	-45.574511
833.409813	-45.250789
833.641561	-45.102195
833.873439	-45.133892
834.105445	-45.332998
834.337581	-45.666635
834.569846	-46.079607
834.802241	-46.496445
835.034764	-46.821240
835.267418	-46.953632
835.500201	-46.837741
835.733114	-46.497602
835.966157	-46.030427
836.199329	-45.557361
836.432632	-45.174388
836.666065	-44.943546
836.899629	-44.898584
837.133323	-45.046649
837.367147	-45.365897
837.601102	-45.795192
837.835188	-46.229266
838.069405	-46.532151
838.303752	-46.582667
838.538231	-46.346428
838.772841	-45.894343
839.007582	-45.351109
839.242455	-44.829552
839.477459	-44.405477
839.712595	-44.128404
839.947863	-44.028830
840.183263	-44.121100
840.418794	-44.404056
840.654458	-44.849878
840.890254	-45.387974
841.126182	-45.887694
841.362242	-46.171970
841.598435	-46.110215
841.834761	-45.720911
842.071220	-45.152589
842.307811	-44.570375
842.544536	-44.082707
842.781393	-43.743220
843.018384	-43.569838
843.255508	-43.557719
843.492765	-43.686973
843.730156	-43.922365
843.967681	-44.209405
844.205339	-44.472302
844.443132	-44.619837
844.681058	-44.582657
844.919118	-44.359401
845.157313	-44.022245
845.395642	-43.673941
845.634105	-43.401472
845.872703	-43.258869
846.111436	-43.265627
846.350303	-43.405916
846.589306	-43.628236
846.828443	-43.850206
847.067716	-43.978912
847.307124	-43.944589
847.546667	-43.729212
847.786345	-43.374712
848.026160	-42.960630
848.266110	-42.569990
848.506195	-42.270700
848.746417	-42.108932
848.986775	-42.111960
849.227269	-42.289423
849.467899	-42.620772
849.708666	-43.038745
849.949569	-43.422248
850.190609	-43.617492
850.431785	-43.515151
850.673099	-43.129671
850.914549	-42.585813
851.156137	-42.030790
851.397861	-41.571468
851.639723	-41.263453
851.881723	-41.127202
852.123860	-41.165760
852.366135	-41.367661
852.608547	-41.699546
852.851098	-42.093520
853.093786	-42.438242
853.336613	-42.600702
853.579578	-42.491078
853.822681	-42.128310
854.065923	-41.633398
854.309304	-41.147660
854.552823	-40.769412
854.796481	-40.545753
855.040278	-40.485466
855.284215	-40.571275
855.528290	-40.763840
855.772505	-41.002312
856.016859	-41.212936
856.261353	-41.324385
856.505987	-41.288378
856.750760	-41.100478
856.995673	-40.807576
857.240727	-40.492078
857.485920	-40.233622
857.731254	-40.081530
857.976729	-40.054371
858.222343	-40.138290
858.468099	-40.286089
858.713995	-40.427667
858.960032	-40.487680
859.206211	-40.421382
859.452530	-40.238227
859.698991	-39.985557
859.945593	-39.726559
860.192336	-39.519170
860.439222	-39.400304
860.686248	-39.387838
860.933417	-39.480882
861.180728	-39.649810
861.428181	-39.835476
861.675776	-39.957195
861.923514	-39.938788
862.171394	-39.755449
862.419417	-39.449809
862.667582	-39.103755
862.915890	-38.805390
863.164342	-38.619039
863.412936	-38.571649
863.661674	-38.657957
863.910555	-38.844452
864.159579	-39.071851
864.408747	-39.260712
864.658059	-39.326646
864.907515	-39.220844
865.157114	-38.958784
865.406858	-38.608434
865.656746	-38.260544
865.906778	-37.993252
866.156955	-37.858903
866.407277	-37.881346
866.657743	-38.042724
866.908354	-38.286928
867.159110	-38.530431
867.410011	-38.672538
867.661057	-38.644862
867.912249	-38.451801
868.163586	-38.155257
868.415069	-37.842082
868.666697	-37.583633
868.918472	-37.423134
869.170392	-37.386412
869.422458	-37.469932
869.674671	-37.635240
869.927030	-37.821294
870.179536	-37.943782
870.432188	-37.927075
870.684987	-37.761189
870.937933	-37.503218
871.191026	-37.239765
871.444266	-37.045618
871.697653	-36.954265
871.951188	-36.966408
872.204870	-37.060541
872.458700	-37.190201
872.712677	-37.297483
872.966803	-37.330482
873.221076	-37.254930
873.475498	-37.075640
873.730068	-36.840206
873.984787	-36.619101
874.239654	-36.478453
874.494669	-36.452965
874.749834	-36.534729
875.005147	-36.679512
875.260610	-36.818682
875.516222	-36.881890
875.771983	-36.828851
876.027894	-36.667508
876.283954	-36.444744
876.540164	-36.222276
876.796524	-36.056207
877.053033	-35.985520
877.309693	-36.025761
877.566503	-36.161945
877.823464	-36.340900
878.080575	-36.481027
878.337837	-36.507245
878.595249	-36.393463
878.852813	-36.178179
879.110528	-35.936586
879.368393	-35.739732
879.626410	-35.634227
879.884579	-35.635496
880.142899	-35.727952
880.401371	-35.871761
880.659994	-36.007777
880.918770	-36.068733
881.177698	-36.011427
881.436778	-35.846609
881.696010	-35.634193
881.955395	-35.448380
882.214933	-35.346475
882.474623	-35.354207
882.734467	-35.459121
882.994463	-35.611210
883.254613	-35.738165
883.514916	-35.771255
883.775372	-35.676829
884.035982	-35.477313
884.296746	-35.237261
884.557664	-35.032873
884.818735	-34.923079
885.079961	-34.932771
885.341341	-35.052995
885.602876	-35.241141
885.864565	-35.420941
886.126409	-35.504289
886.388407	-35.438019
886.650561	-35.238026
886.912870	-34.975141
887.175334	-34.736599
887.437953	-34.591310
887.700728	-34.568263
887.963658	-34.657862
888.226745	-34.818868
888.489987	-34.983561
888.753385	-35.078550
889.016940	-35.053963
889.280651	-34.909714
889.544518	-34.699063
889.808543	-34.497743
890.072723	-34.368370
890.337061	-34.339993
890.601556	-34.400918
890.866208	-34.505152
891.131017	-34.590684
891.395984	-34.607734
891.661109	-34.541408
891.926391	-34.415700
892.191831	-34.278732
892.457429	-34.178108
892.723186	-34.143214
892.989100	-34.179205
893.255173	-34.258357
893.521405	-34.324673
893.787796	-34.322084
894.054345	-34.225675
894.321053	-34.061276
894.587921	-33.891310
894.854948	-33.777575
895.122134	-33.756161
895.389480	-33.827294
895.656986	-33.956166
895.924651	-34.081769
896.192477	-34.131247
896.460463	-34.055899
896.728609	-33.865163
896.996915	-33.625182
897.265382	-33.423317
897.534010	-33.328178
897.802799	-33.367221
898.071749	-33.519468
898.340860	-33.717986
898.610132	-33.869385
898.879566	-33.891570
899.149162	-33.757862
899.418919	-33.515174
899.688838	-33.254693
899.958919	-33.063524
900.229162	-32.995810
900.499568	-33.060772
900.770136	-33.219450
901.040867	-33.392878
901.311761	-33.489664
901.582817	-33.454479
901.854037	-33.301722
902.125420	-33.101350
902.396966	-32.935656
902.668676	-32.859963
902.940550	-32.886987
903.212587	-32.986883
903.484788	-33.094316
903.757153	-33.134938
904.029683	-33.067625
904.302377	-32.910290
904.575236	-32.728949
904.848259	-32.597759
905.121447	-32.562216
905.394800	-32.625508
905.668319	-32.745738
905.942002	-32.848908
906.215852	-32.862767
906.489866	-32.755576
906.764047	-32.561996
907.038393	-32.361166
907.312906	-32.227418
907.587584	-32.204737
907.862429	-32.291664
908.137441	-32.437644
908.412619	-32.563080
908.687964	-32.589791
908.963476	-32.487966
909.239155	-32.301909
909.515002	-32.113275
909.791015	-31.994579
910.067197	-31.980909
910.343546	-32.056898
910.620063	-32.169420
910.896748	-32.247320
911.173601	-32.232325
911.450623	-32.121101
911.727813	-31.964583
912.005171	-31.835170
912.282699	-31.789924
912.560395	-31.837567
912.838261	-31.935419
913.116296	-32.010522
913.394500	-31.995376
913.672874	-31.873951
913.951418	-31.693772
914.230131	-31.533427
914.509015	-31.462169
914.788068	-31.510607
915.067292	-31.656277
915.346687	-31.822949
915.626252	-31.904437
915.905988	-31.828982
916.185895	-31.616022
916.465973	-31.360774
916.746223	-31.168819
917.026644	-31.105251
917.307236	-31.178555
917.588000	-31.341360
917.868937	-31.499617
918.150045	-31.548193
918.431325	-31.436528
918.712778	-31.208584
918.994404	-30.969246
919.276202	-30.814483
919.558173	-30.786692
919.840317	-30.867418
920.122634	-30.990106
920.405125	-31.068463
920.687789	-31.041775
920.970627	-30.913311
921.253639	-30.747245
921.536824	-30.624264
921.820184	-30.594584
922.103718	-30.653572
922.387427	-30.743521
922.671310	-30.783769
922.955368	-30.722462
923.239601	-30.573183
923.524009	-30.404289
923.808592	-30.292379
924.093351	-30.282026
924.378285	-30.366303
924.663396	-30.485501
924.948682	-30.549782
925.234144	-30.493358
925.519782	-30.324195
925.805597	-30.120298
926.091589	-29.974653
926.377757	-29.942981
926.664102	-30.023346
926.950624	-30.156538
927.237323	-30.250303
927.524200	-30.230816
927.811255	-30.094956
928.098487	-29.913057
928.385897	-29.777208
928.673485	-29.746477
928.961251	-29.821876
929.249196	-29.945688
929.537319	-30.027089
929.825621	-29.997052
930.114102	-29.859517
930.402762	-29.689777
930.691601	-29.578085
930.980620	-29.575416
931.269818	-29.670225
931.559196	-29.791193
931.848753	-29.842060
932.138491	-29.764389
932.428409	-29.582138
932.718508	-29.386967
933.008787	-29.274201
933.299246	-29.290344
933.589887	-29.414188
933.880709	-29.560735
934.171712	-29.623101
934.462896	-29.545375
934.754262	-29.364373
935.045810	-29.179932
935.337539	-29.084009
935.629451	-29.113844
935.921545	-29.239719
936.213822	-29.373936
936.506281	-29.417000
936.798922	-29.329157
937.091747	-29.162545
937.384755	-29.017941
937.677946	-28.971128
937.971321	-29.034232
938.264879	-29.153661
938.558621	-29.236834
938.852547	-29.209834
939.146657	-29.071632
939.440952	-28.898265
939.735431	-28.786291
940.030095	-28.787826
940.324943	-28.883828
940.619977	-28.993278
940.915196	-29.020920
941.210600	-28.928064
941.506189	-28.760054
941.801965	-28.607175
942.097926	-28.544023
942.394074	-28.589939
942.690407	-28.697084
942.986927	-28.772540
943.283634	-28.739864
943.580527	-28.604422
943.877608	-28.447247
944.174875	-28.356487
944.472330	-28.371416
944.769972	-28.463710
945.067802	-28.554166
945.365820	-28.559346
945.664026	-28.451672
945.962420	-28.289248
946.261002	-28.169048
946.559773	-28.156437
946.858733	-28.246777
947.157881	-28.363770
947.457219	-28.406966
947.756746	-28.324946
948.056462	-28.154946
948.356368	-27.995400
948.656464	-27.934299
948.956749	-27.997457
949.257225	-28.134787
949.557891	-28.240520
949.858748	-28.221463
950.159796	-28.078374
950.461034	-27.899676
950.762463	-27.787393
951.064084	-27.795073
951.365896	-27.901605
951.667900	-28.027805
951.970095	-28.079400
952.272483	-28.012873
952.575063	-27.876312
952.877835	-27.761314
953.180799	-27.731648
953.483956	-27.786888
953.787307	-27.867143
954.090850	-27.900386
954.394586	-27.858766
954.698516	-27.771628
955.002640	-27.704254
955.306957	-27.703571
955.611469	-27.759983
955.916174	-27.816520
956.221074	-27.807139
956.526169	-27.719035
956.831458	-27.610785
957.136942	-27.555209
957.442622	-27.589486
957.748496	-27.689904
958.054567	-27.778047
958.360833	-27.777048
958.667294	-27.668994
958.973952	-27.518575
959.280806	-27.427056
959.587857	-27.447772
959.895104	-27.558421
960.202548	-27.677046
960.510189	-27.709326
960.818027	-27.628092
961.126062	-27.491181
961.434295	-27.388503
961.742726	-27.386098
962.051355	-27.473625
962.360182	-27.574928
962.669207	-27.606521
962.978431	-27.540933
963.287854	-27.431721
963.597475	-27.361525
963.907296	-27.370773
964.217315	-27.443200
964.527535	-27.510614
964.837954	-27.503968
965.148573	-27.419992
965.459392	-27.319730
965.770411	-27.276636
966.081630	-27.315604
966.393051	-27.392007
966.704672	-27.431010
967.016494	-27.385208
967.328517	-27.273541
967.640742	-27.171609
967.953169	-27.145532
968.265797	-27.203499
968.578627	-27.286787
968.891660	-27.308657
969.204895	-27.234572
969.518332	-27.111394
969.831972	-27.019189
970.145816	-27.011324
970.459862	-27.077206
970.774112	-27.150855
971.088565	-27.157840
971.403223	-27.079180
971.718084	-26.972632
972.033149	-26.915173
972.348419	-26.935095
972.663893	-26.997625
972.979572	-27.034114
973.295456	-27.002081
973.611546	-26.922365
973.927840	-26.861210
974.244340	-26.871853
974.561046	-26.944782
974.877958	-27.008373
975.195076	-26.991850
975.512401	-26.895125
975.829932	-26.791400
976.147670	-26.762379
976.465615	-26.835195
976.783767	-26.958177
977.102126	-27.027195
977.420693	-26.971480
977.739468	-26.828551
978.058451	-26.709241
978.377642	-26.698091
978.697041	-26.795865
979.016649	-26.920852
979.336466	-26.966934
979.656492	-26.890648
979.976727	-26.755013
980.297171	-26.667638
980.617825	-26.685523
980.938689	-26.776000
981.259763	-26.849474
981.581048	-26.836721
981.902542	-26.751534
982.224248	-26.670200
982.546164	-26.658220
982.868291	-26.714657
983.190630	-26.773403
983.513180	-26.766292
983.835942	-26.694149
984.158916	-26.624368
984.482101	-26.620262
984.805500	-26.682263
985.129110	-26.745745
985.452934	-26.737176
985.776970	-26.650005
986.101220	-26.557640
986.425683	-26.542037
986.750359	-26.615570
987.075250	-26.704769
987.400354	-26.711630
987.725673	-26.611172
988.051206	-26.479919
988.376954	-26.424078
988.702916	-26.483727
989.029094	-26.597574
989.355487	-26.644975
989.682095	-26.559848
990.008919	-26.404058
990.335959	-26.301662
990.663216	-26.322638
990.990688	-26.430359
991.318377	-26.509295
991.646283	-26.465095
991.974406	-26.323120
992.302746	-26.200199
992.631304	-26.186269
992.960079	-26.268566
993.289072	-26.347530
993.618283	-26.328079
993.947713	-26.214736
994.277361	-26.101766
994.607227	-26.074763
994.937313	-26.131898
995.267618	-26.189646
995.598142	-26.167194
995.928886	-26.071639
996.259849	-25.984148
996.591033	-25.969975
996.922437	-26.014855
997.254061	-26.041516
997.585906	-25.989766
997.917972	-25.888547
998.250260	-25.824935
998.582768	-25.848150
998.915498	-25.915975
999.248450	-25.931975
999.581624	-25.847209
999.915020	-25.719714
1000.248639	-25.656526
1000.582480	-25.707191
1000.916545	-25.812237
1001.250832	-25.850466
1001.585343	-25.763651
1001.920077	-25.623817
1002.255035	-25.554130
1002.590218	-25.607560
1002.925624	-25.721456
1003.261255	-25.770191
1003.597111	-25.694342
1003.933192	-25.566590
1004.269497	-25.505046
1004.606029	-25.552477
1004.942785	-25.641367
1005.279768	-25.662248
1005.616977	-25.580380
1005.954412	-25.472264
1006.292074	-25.432616
1006.629962	-25.474029
1006.968077	-25.519589
1007.306420	-25.488777
1007.644990	-25.390491
1007.983787	-25.309436
1008.322813	-25.305234
1008.662067	-25.346772
1009.001549	-25.346252
1009.341259	-25.261340
1009.681199	-25.150941
1010.021367	-25.105268
1010.361765	-25.143554
1010.702392	-25.188743
1011.043250	-25.147446
1011.384337	-25.021264
1011.725654	-24.909868
1012.067202	-24.897458
1012.408980	-24.962451
1012.750989	-24.995832
1013.093230	-24.917822
1013.435702	-24.774209
1013.778405	-24.682228
1014.121341	-24.698530
1014.464508	-24.762502
1014.807908	-24.758345
1015.151540	-24.647581
1015.495405	-24.516078
1015.839503	-24.468950
1016.183835	-24.514603
1016.528400	-24.557523
1016.873198	-24.504358
1017.218231	-24.375580
1017.563498	-24.280963
1017.908999	-24.288332
1018.254735	-24.350281
1018.600707	-24.357151
1018.946913	-24.264781
1019.293354	-24.148704
1019.640032	-24.109837
1019.986945	-24.157880
1020.334094	-24.201551
1020.681480	-24.154570
1021.029102	-24.043606
1021.376961	-23.972755
1021.725058	-23.996116
1022.073391	-24.056022
1022.421962	-24.046786
1022.770772	-23.945835
1023.119819	-23.845908
1023.469104	-23.837939
1023.818628	-23.903697
1024.168391	-23.935337
1024.518393	-23.861138
1024.868634	-23.739551
1025.219115	-23.686519
1025.569836	-23.735100
1025.920796	-23.797411
1026.271997	-23.766019
1026.623438	-23.648271
1026.975121	-23.557232
1027.327044	-23.570565
1027.679208	-23.639806
1028.031614	-23.645652
1028.384262	-23.546646
1028.737152	-23.433209
1029.090284	-23.409129
1029.443659	-23.467790
1029.797276	-23.499972
1030.151137	-23.425947
1030.505240	-23.300515
1030.859587	-23.240156
1031.214178	-23.276048
1031.569013	-23.319124
1031.924093	-23.271310
1032.279417	-23.151926
1032.634985	-23.068854
1032.990799	-23.081070
1033.346858	-23.126147
1033.703162	-23.096948
1034.059712	-22.985759
1034.416509	-22.890955
1034.773551	-22.885077
1035.130841	-22.927600
1035.488377	-22.912181
1035.846160	-22.808486
1036.204190	-22.705566
1036.562468	-22.686605
1036.920994	-22.725592
1037.279768	-22.719509
1037.638790	-22.620616
1037.998061	-22.508738
1038.357581	-22.481863
1038.717350	-22.525731
1039.077368	-22.535053
1039.437636	-22.447423
1039.798154	-22.328822
1040.158922	-22.288295
1040.519940	-22.332973
1040.881209	-22.359524
1041.242729	-22.291389
1041.604501	-22.178431
1041.966524	-22.129444
1042.328798	-22.168873
1042.691325	-22.199948
1043.054103	-22.138701
1043.417135	-22.031643
1043.780419	-21.982639
1044.143956	-22.021096
1044.507746	-22.060393
1044.871791	-22.005704
1045.236088	-21.897476
1045.600641	-21.847885
1045.965447	-21.884037
1046.330508	-21.924078
1046.695824	-21.879922
1047.061395	-21.780547
1047.427222	-21.735552
1047.793304	-21.774562
1048.159642	-21.809023
1048.526237	-21.759805
1048.893088	-21.664833
1049.260196	-21.626843
1049.627561	-21.669446
1049.995183	-21.697887
1050.363063	-21.634960
1050.731201	-21.536097
1051.099597	-21.504329
1051.468251	-21.550230
1051.837164	-21.572375
1052.206336	-21.495816
1052.575767	-21.389800
1052.945458	-21.363842
1053.315409	-21.414028
1053.685619	-21.430929
1054.056090	-21.348162
1054.426821	-21.241491
1054.797814	-21.219793
1055.169067	-21.268356
1055.540582	-21.271413
1055.912359	-21.178906
1056.284398	-21.077768
1056.656698	-21.063523
1057.029262	-21.106999
1057.402088	-21.093379
1057.775177	-20.991694
1058.148530	-20.899780
1058.522146	-20.895323
1058.896027	-20.930156
1059.270171	-20.900639
1059.644580	-20.802137
1060.019254	-20.734744
1060.394193	-20.748108
1060.769397	-20.771018
1061.144867	-20.719220
1061.520602	-20.624328
1061.896604	-20.586028
1062.272872	-20.619434
1062.649407	-20.629403
1063.026210	-20.553586
1063.403279	-20.461338
1063.780616	-20.447509
1064.158221	-20.492052
1064.536094	-20.486299
1064.914235	-20.396671
1065.292645	-20.318998
1065.671325	-20.331533
1066.050273	-20.380256
1066.429491	-20.357443
1066.808979	-20.266745
1067.188738	-20.215889
1067.568766	-20.251351
1067.949066	-20.291293
1068.329636	-20.248283
1068.710478	-20.165622
1069.091592	-20.145249
1069.472977	-20.189047
1069.854635	-20.199521
1070.236565	-20.131707
1070.618768	-20.065636
1071.001243	-20.076023
1071.383993	-20.115177
1071.767016	-20.087865
1072.150313	-20.004594
1072.533884	-19.965073
1072.917730	-19.999721
1073.301850	-20.020790
1073.686246	-19.960964
1074.070917	-19.882627
1074.455864	-19.875652
1074.841087	-19.916333
1075.226586	-19.903006
1075.612362	-19.819800
1075.998415	-19.763293
1076.384745	-19.783531
1076.771353	-19.806899
1077.158238	-19.752183
1077.545401	-19.663426
1077.932843	-19.636980
1078.320564	-19.665562
1078.708564	-19.651529
1079.096842	-19.566567
1079.485401	-19.496831
1079.874240	-19.500351
1080.263358	-19.515060
1080.652757	-19.460463
1081.042438	-19.372292
1081.432399	-19.340369
1081.822641	-19.362327
1082.213166	-19.350328
1082.603972	-19.276129
1082.995061	-19.216960
1083.386433	-19.223224
1083.778087	-19.238315
1084.170025	-19.195765
1084.562246	-19.130698
1084.954751	-19.115129
1085.347541	-19.133453
1085.740615	-19.110261
1086.133973	-19.044209
1086.527617	-19.010335
1086.921546	-19.028220
1087.315761	-19.023938
1087.710262	-18.956221
1088.105050	-18.895229
1088.500124	-18.905706
1088.895485	-18.935435
1089.291134	-18.897138
1089.687070	-18.816797
1090.083294	-18.794175
1090.479806	-18.838572
1090.876607	-18.853231
1091.273696	-18.793911
1091.671075	-18.740760
1092.068744	-18.759834
1092.466702	-18.797382
1092.864950	-18.773669
1093.263489	-18.717561
1093.662319	-18.707985
1094.061440	-18.736283
1094.460852	-18.725540
1094.860555	-18.667645
1095.260551	-18.635211
1095.660840	-18.650008
1096.061421	-18.644815
1096.462295	-18.581813
1096.863462	-18.519747
1097.264923	-18.511145
1097.666678	-18.514588
1098.068727	-18.468286
1098.471071	-18.395177
1098.873710	-18.358225
1099.276644	-18.356410
1099.679874	-18.337649
1100.083400	-18.290150
1100.487222	-18.251251
1100.891340	-18.235156
1101.295756	-18.219007
1101.700468	-18.195835
1102.105478	-18.180702
1102.510787	-18.167422
1102.916393	-18.135534
1103.322298	-18.100809
1103.728502	-18.095640
1104.135005	-18.101684
1104.541807	-18.068523
1104.948909	-18.005544
1105.356312	-17.976926
1105.764015	-17.989711
1106.172019	-17.973416
1106.580324	-17.899615
1106.988931	-17.836732
1107.397840	-17.832596
1107.807051	-17.832028
1108.216564	-17.773859
1108.626380	-17.699634
1109.036500	-17.677888
1109.446923	-17.685583
1109.857649	-17.655561
1110.268680	-17.598555
1110.680016	-17.578311
1111.091657	-17.594451
1111.503602	-17.588929
1111.915854	-17.554882
1112.328411	-17.544898
1112.741275	-17.569349
1113.154445	-17.578940
1113.567922	-17.558840
1113.981706	-17.552998
1114.395798	-17.577001
1114.810198	-17.589629
1115.224906	-17.572355
1115.639923	-17.560887
1116.055249	-17.570288
1116.470884	-17.567091
1116.886829	-17.537244
1117.303084	-17.511484
1117.719650	-17.499413
1118.136526	-17.470248
1118.553713	-17.418638
1118.971212	-17.376953
1119.389022	-17.350539
1119.807145	-17.307079
1120.225580	-17.243047
1120.644328	-17.193509
1121.063389	-17.164259
1121.482763	-17.121688
1121.902452	-17.059498
1122.322454	-17.012781
1122.742771	-16.990125
1123.163404	-16.959008
1123.584351	-16.910446
1124.005614	-16.876877
1124.427193	-16.868330
1124.849089	-16.853770
1125.271301	-16.822869
1125.693830	-16.804589
1126.116677	-16.808144
1126.539842	-16.804460
1126.963324	-16.784200
1127.387126	-16.773525
1127.811246	-16.778957
1128.235685	-16.775274
1128.660444	-16.757546
1129.085522	-16.748399
1129.510922	-16.748415
1129.936641	-16.735924
1130.362682	-16.712900
1130.789044	-16.698871
1131.215728	-16.687802
1131.642734	-16.660892
1132.070063	-16.627760
1132.497714	-16.606916
1132.925689	-16.586904
1133.353987	-16.550316
1133.782610	-16.511654
1134.211556	-16.489723
1134.640827	-16.468932
1135.070424	-16.431481
1135.500345	-16.394347
1135.930593	-16.375254
1136.361166	-16.356205
1136.792067	-16.322612
1137.223294	-16.294985
1137.654848	-16.284181
1138.086730	-16.268181
1138.518940	-16.241690
1138.951479	-16.228855
1139.384346	-16.226740
1139.817543	-16.210428
1140.251069	-16.189929
1140.684925	-16.188535
1141.119111	-16.187016
1141.553628	-16.165001
1141.988475	-16.148114
1142.423655	-16.151242
1142.859166	-16.143925
1143.295009	-16.116686
1143.731185	-16.101922
1144.167694	-16.101335
1144.604536	-16.083123
1145.041711	-16.050502
1145.479221	-16.033219
1145.917065	-16.021741
1146.355245	-15.992355
1146.793759	-15.959566
1147.232609	-15.941574
1147.671795	-15.918922
1148.111317	-15.882655
1148.551177	-15.856855
1148.991373	-15.839719
1149.431907	-15.804777
1149.872779	-15.766382
1150.313989	-15.750968
1150.755538	-15.732025
1151.197426	-15.689728
1151.639653	-15.660705
1152.082220	-15.655319
1152.525128	-15.631180
1152.968376	-15.591395
1153.411966	-15.575833
1153.855897	-15.568841
1154.300169	-15.538605
1154.744784	-15.510441
1155.189742	-15.502769
1155.635042	-15.487625
1156.080687	-15.460125
1156.526674	-15.444872
1156.973007	-15.436548
1157.419683	-15.416768
1157.866705	-15.394820
1158.314072	-15.382312
1158.761786	-15.371717
1159.209845	-15.352930
1159.658251	-15.332128
1160.107004	-15.322455
1160.556104	-15.315651
1161.005553	-15.292935
1161.455349	-15.272938
1161.905494	-15.274540
1162.355989	-15.262459
1162.806832	-15.227596
1163.258026	-15.221879
1163.709570	-15.231852
1164.161464	-15.200196
1164.613710	-15.171442
1165.066307	-15.188595
1165.519256	-15.179178
1165.972558	-15.134000
1166.426212	-15.135864
1166.880219	-15.147179
1167.334580	-15.102140
1167.789295	-15.080867
1168.244364	-15.104071
1168.699788	-15.073879
1169.155567	-15.029060
1169.611702	-15.047508
1170.068193	-15.039717
1170.525041	-14.981999
1170.982245	-14.980834
1171.439807	-14.989187
1171.897726	-14.932673
1172.356004	-14.912999
1172.814640	-14.931080
1173.273635	-14.879396
1173.732989	-14.840766
1174.192703	-14.866375
1174.652778	-14.824387
1175.113213	-14.762536
1175.574009	-14.791778
1176.035167	-14.771320
1176.496687	-14.686380
1176.958569	-14.710360
1177.420814	-14.726135
1177.883422	-14.621179
1178.346394	-14.614527
1178.809730	-14.675374
1179.273430	-14.578879
1179.737496	-14.518369
1180.201927	-14.604744
1180.666723	-14.553909
1181.131886	-14.443413
1181.597416	-14.519485
1182.063312	-14.531403
1182.529576	-14.391609
1182.996209	-14.423860
1183.463209	-14.499853
1183.930579	-14.369323
1184.398317	-14.333140
1184.866426	-14.446764
1185.334904	-14.371987
1185.803754	-14.271658
1186.272974	-14.371509
1186.742566	-14.371588
1187.212529	-14.244715
1187.682865	-14.296060
1188.153574	-14.356334
1188.624656	-14.244096
1189.096112	-14.237363
1189.567942	-14.326649
1190.040147	-14.255039
1190.512726	-14.197418
1190.985681	-14.282389
1191.459012	-14.264727
1191.932720	-14.179685
1192.406804	-14.234092
1192.881265	-14.263788
1193.356104	-14.178441
1193.831322	-14.188697
1194.306918	-14.243862
1194.782893	-14.180969
1195.259248	-14.151582
1195.735982	-14.208011
1196.213097	-14.178357
1196.690593	-14.125988
1197.168471	-14.163772
1197.646730	-14.159862
1198.125371	-14.101301
1198.604395	-14.115362
1199.083803	-14.125859
1199.563594	-14.071979
1200.043769	-14.065360
1200.524329	-14.080951
1201.005273	-14.035213
1201.486604	-14.010077
1201.968320	-14.023238
1202.450422	-13.989944
1202.932912	-13.952839
1203.415789	-13.956760
1203.899054	-13.936685
1204.382707	-13.897606
1204.866748	-13.887130
1205.351179	-13.872106
1205.836000	-13.839012
1206.321211	-13.819009
1206.806812	-13.802764
1207.292805	-13.776890
1207.779189	-13.753454
1208.265965	-13.732679
1208.753134	-13.710980
1209.240696	-13.686981
1209.728651	-13.661855
1210.217000	-13.643317
1210.705744	-13.622232
1211.194883	-13.593936
1211.684417	-13.576415
1212.174347	-13.559400
1212.664673	-13.529080
1213.155396	-13.510732
1213.646516	-13.498061
1214.138034	-13.469008
1214.629951	-13.450577
1215.122266	-13.441546
1215.614980	-13.413273
1216.108095	-13.393989
1216.601609	-13.388548
1217.095524	-13.361594
1217.589841	-13.341328
1218.084559	-13.340864
1218.579679	-13.317410
1219.075202	-13.294376
1219.571128	-13.296846
1220.067458	-13.278968
1220.564191	-13.254041
1221.061330	-13.257413
1221.558874	-13.247332
1222.056823	-13.224156
1222.555178	-13.225427
1223.053940	-13.218761
1223.553109	-13.199154
1224.052686	-13.200313
1224.552671	-13.194336
1225.053065	-13.176837
1225.553867	-13.181004
1226.055079	-13.175929
1226.556702	-13.155528
1227.058735	-13.160292
1227.561179	-13.159984
1228.064035	-13.138145
1228.567303	-13.140212
1229.070983	-13.144497
1229.575077	-13.123644
1230.079585	-13.120073
1230.584506	-13.124644
1231.089842	-13.106883
1231.595594	-13.099948
1232.101761	-13.102191
1232.608345	-13.085984
1233.115345	-13.076731
1233.622762	-13.074734
1234.130597	-13.057587
1234.638851	-13.048075
1235.147523	-13.044783
1235.656615	-13.025712
1236.166126	-13.014346
1236.676058	-13.010404
1237.186411	-12.989911
1237.697185	-12.975637
1238.208381	-12.971913
1238.719999	-12.952450
1239.232040	-12.934952
1239.744505	-12.928680
1240.257394	-12.910004
1240.770708	-12.890743
1241.284446	-12.882028
1241.798610	-12.864579
1242.313201	-12.845349
1242.828218	-12.834192
1243.343662	-12.816352
1243.859534	-12.797719
1244.375834	-12.785894
1244.892563	-12.768382
1245.409721	-12.750407
1245.927309	-12.738036
1246.445327	-12.719849
1246.963777	-12.701404
1247.482657	-12.688815
1248.001970	-12.671132
1248.521716	-12.653020
1249.041894	-12.639923
1249.562506	-12.622174
1250.083553	-12.604591
1250.605034	-12.592286
1251.126950	-12.575542
1251.649302	-12.559129
1252.172091	-12.548263
1252.695316	-12.532389
1253.218979	-12.516569
1253.743079	-12.507087
1254.267619	-12.492913
1254.792597	-12.478187
1255.318015	-12.470225
1255.843874	-12.457215
1256.370173	-12.443425
1256.896913	-12.437438
1257.424095	-12.426787
1257.951720	-12.414734
1258.479787	-12.410675
1259.008298	-12.402215
1259.537254	-12.391883
1260.066654	-12.388747
1260.596499	-12.381716
1261.126790	-12.374035
1261.657527	-12.371585
1262.188711	-12.363890
1262.720342	-12.358175
1263.252422	-12.357200
1263.784950	-12.348898
1264.317928	-12.345141
1264.851355	-12.345866
1265.385232	-12.336960
1265.919560	-12.334498
1266.454340	-12.335983
1266.989572	-12.326793
1267.525256	-12.325755
1268.061394	-12.326765
1268.597985	-12.316359
1269.135031	-12.315982
1269.672531	-12.315673
1270.210487	-12.305163
1270.748899	-12.305697
1271.287768	-12.303062
1271.827094	-12.292731
1272.366877	-12.293956
1272.907119	-12.288339
1273.447820	-12.278937
1273.988981	-12.280059
1274.530601	-12.270282
1275.072683	-12.261622
1275.615226	-12.261498
1276.158230	-12.248180
1276.701697	-12.241713
1277.245627	-12.239540
1277.790021	-12.223352
1278.334879	-12.219678
1278.880202	-12.215136
1279.425991	-12.198010
1279.972245	-12.196741
1280.518966	-12.188263
1281.066155	-12.171356
1281.613811	-12.171167
1282.161936	-12.158102
1282.710529	-12.143197
1283.259593	-12.142277
1283.809126	-12.125016
1284.359131	-12.113729
1284.909607	-12.110350
1285.460555	-12.090870
1286.011976	-12.083809
1286.563870	-12.075466
1287.116237	-12.055505
1287.669080	-12.051875
1288.222397	-12.037531
1288.776191	-12.019776
1289.330460	-12.017621
1289.885207	-11.998245
1290.440431	-11.985551
1290.996133	-11.982451
1291.552314	-11.960784
1292.108975	-11.954307
1292.666115	-11.947002
1293.223737	-11.925912
1293.781839	-11.924183
1294.340424	-11.910820
1294.899491	-11.893747
1295.459041	-11.893246
1296.019075	-11.874630
1296.579593	-11.864913
1297.140597	-11.862476
1297.702086	-11.842364
1298.264061	-11.840239
1298.826524	-11.832597
1299.389474	-11.815621
1299.952912	-11.817928
1300.516839	-11.803893
1301.081255	-11.793822
1301.646162	-11.795578
1302.211559	-11.778216
1302.777448	-11.776850
1303.343829	-11.773548
1303.910702	-11.758331
1304.478069	-11.763056
1305.045930	-11.752512
1305.614285	-11.744208
1306.183136	-11.748825
1306.752483	-11.733171
1307.322326	-11.733448
1307.892666	-11.731989
1308.463504	-11.717807
1309.034841	-11.724562
1309.606677	-11.715395
1310.179012	-11.709046
1310.751849	-11.715204
1311.325186	-11.701296
1311.899025	-11.704483
1312.473366	-11.703134
1313.048211	-11.691248
1313.623559	-11.699333
1314.199412	-11.689609
1314.775770	-11.687484
1315.352634	-11.693145
1315.930004	-11.680356
1316.507881	-11.688122
1317.086266	-11.685444
1317.665159	-11.678498
1318.244562	-11.688534
1318.824474	-11.677299
1319.404897	-11.680808
1319.985831	-11.684838
1320.567276	-11.674351
1321.149234	-11.684896
1321.731706	-11.678674
1322.314691	-11.677876
1322.898190	-11.686053
1323.482205	-11.674648
1324.066736	-11.682968
1324.651783	-11.680285
1325.237347	-11.674847
1325.823430	-11.684468
1326.410031	-11.673286
1326.997151	-11.679000
1327.584791	-11.679797
1328.172952	-11.671437
1328.761634	-11.681956
1329.350839	-11.671371
1329.940566	-11.673646
1330.530817	-11.676982
1331.121592	-11.665407
1331.712891	-11.675593
1332.304716	-11.667152
1332.897068	-11.666300
1333.489946	-11.672298
1334.083352	-11.660145
1334.677287	-11.668847
1335.271750	-11.661918
1335.866744	-11.658409
1336.462268	-11.664481
1337.058323	-11.651829
1337.654910	-11.659352
1338.252029	-11.653525
1338.849682	-11.649503
1339.447869	-11.656141
1340.046591	-11.643303
1340.645848	-11.650434
1341.245641	-11.644277
1341.845972	-11.639000
1342.446840	-11.645567
1343.048246	-11.632062
1343.650191	-11.639260
1344.252677	-11.633701
1344.855702	-11.628174
1345.459269	-11.634641
1346.063379	-11.620993
1346.668030	-11.627332
1347.273226	-11.620675
1347.878965	-11.615125
1348.485250	-11.620431
1349.092080	-11.607362
1349.699456	-11.614203
1350.307380	-11.606536
1350.915851	-11.602718
1351.524871	-11.606504
1352.134441	-11.593442
1352.744560	-11.600619
1353.355231	-11.591063
1353.966453	-11.589394
1354.578227	-11.592195
1355.190555	-11.580370
1355.803436	-11.588313
1356.416872	-11.577835
1357.030863	-11.578578
1357.645411	-11.578571
1358.260515	-11.568848
1358.876177	-11.576772
1359.492397	-11.565512
1360.109176	-11.570154
1360.726516	-11.567805
1361.344416	-11.561656
1361.962877	-11.569043
1362.581901	-11.557404
1363.201487	-11.564597
1363.821637	-11.559245
1364.442352	-11.557530
1365.063632	-11.562990
1365.685478	-11.553497
1366.307891	-11.562835
1366.930871	-11.554817
1367.554420	-11.557877
1368.178538	-11.559148
1368.803226	-11.552902
1369.428485	-11.562260
1370.054315	-11.553326
1370.680717	-11.561479
1371.307693	-11.558913
1371.935242	-11.558161
1372.563366	-11.564761
1373.192065	-11.556949
1373.821341	-11.567139
1374.451193	-11.560924
1375.081623	-11.566601
1375.712632	-11.568546
1376.344221	-11.565769
1376.976389	-11.575064
1377.609139	-11.567593
1378.242470	-11.577414
1378.876384	-11.573645
1379.510881	-11.577447
1380.145963	-11.582463
1380.781629	-11.579097
1381.417881	-11.590124
1382.054720	-11.584289
1382.692147	-11.594289
1383.330161	-11.593039
1383.968765	-11.596666
1384.607959	-11.603583
1385.247743	-11.600856
1385.888119	-11.612906
1386.529087	-11.608411
1387.170648	-11.618607
1387.812804	-11.618361
1388.455554	-11.622283
1389.098899	-11.629282
1389.742842	-11.627349
1390.387381	-11.639357
1391.032519	-11.635603
1391.678256	-11.646387
1392.324592	-11.646172
1392.971529	-11.651516
1393.619068	-11.658051
1394.267208	-11.658338
1394.915952	-11.670400
1395.565300	-11.668722
1396.215253	-11.681420
1396.865812	-11.681430
1397.516977	-11.690035
1398.168749	-11.695248
1398.821130	-11.698524
1399.474120	-11.709449
1400.127719	-11.709291
1400.781930	-11.722658
1401.436752	-11.722079
1402.092186	-11.733400
1402.748234	-11.736472
1403.404897	-11.743275
1404.062174	-11.751909
1404.720067	-11.754357
1405.378577	-11.766688
1406.037705	-11.766625
1406.697451	-11.779173
1407.357817	-11.780213
1408.018803	-11.791062
1408.680410	-11.796639
1409.342639	-11.804291
1410.005492	-11.814953
1410.668968	-11.818720
1411.333068	-11.832226
1411.997795	-11.834058
1412.663147	-11.848273
1413.329127	-11.851772
1413.995736	-11.864549
1414.662973	-11.871999
1415.330840	-11.881414
1415.999339	-11.892866
1416.668469	-11.899382
1417.338232	-11.914661
1418.008628	-11.920155
1418.679659	-11.936969
1419.351325	-11.942727
1420.023628	-11.957683
1420.696568	-11.964832
1421.370145	-11.976757
1422.044362	-11.987734
1422.719219	-11.997717
1423.394717	-12.013025
1424.070856	-12.021673
1424.747638	-12.039666
1425.425064	-12.047677
1426.103134	-12.066618
1426.781850	-12.075847
1427.461212	-12.093507
1428.141221	-12.104582
1428.821878	-12.118718
1429.503185	-12.131566
1430.185141	-12.142540
1430.867749	-12.158926
1431.551008	-12.169853
1432.234920	-12.190453
1432.919486	-12.202730
1433.604707	-12.225790
1434.290583	-12.239612
1434.977116	-12.262694
1435.664307	-12.278480
1436.352156	-12.299372
1437.040664	-12.316094
1437.729833	-12.332494
1438.419663	-12.349389
1439.110156	-12.362384
1439.801312	-12.381685
1440.493132	-12.395254
1441.185617	-12.419045
1441.878768	-12.435634
1442.572586	-12.463452
1443.267072	-12.483735
1443.962228	-12.514024
1444.658053	-12.537773
1445.354549	-12.567307
1446.051717	-12.590959
1446.749558	-12.614949
1447.448073	-12.635517
1448.147263	-12.653082
1448.847128	-12.671895
1449.547671	-12.686429
1450.248891	-12.707145
1450.950789	-12.722887
1451.653368	-12.749452
1452.356627	-12.771945
1453.060568	-12.808149
1453.765192	-12.840247
1454.470500	-12.884203
1455.176492	-12.921833
1455.883170	-12.966335
1456.590534	-13.002727
1457.298586	-13.041315
1458.007327	-13.071627
1458.716758	-13.099993
1459.426880	-13.122094
1460.137693	-13.141456
1460.849199	-13.161194
1461.561398	-13.181017
1462.274293	-13.208996
1462.987883	-13.239573
1463.702170	-13.283390
1464.417155	-13.330484
1465.132838	-13.394047
1465.849222	-13.460128
1466.566306	-13.541499
1467.284093	-13.620435
1468.002582	-13.709445
1468.721775	-13.789879
1469.441674	-13.875080
1470.162278	-13.947541
1470.883590	-14.019913
1471.605609	-14.076401
1472.328338	-14.130234
1473.051777	-14.170806
1473.775928	-14.212318
1474.500790	-14.248259
1475.226367	-14.291510
1475.952657	-14.337843
1476.679663	-14.398241
1477.407386	-14.471630
1478.135826	-14.565873
1478.864985	-14.679201
1479.594863	-14.812643
1480.325463	-14.962860
1481.056784	-15.124902
1481.788828	-15.293700
1482.521597	-15.457796
1483.255090	-15.608630
1483.989309	-15.729085
1484.724256	-15.813011
1485.459931	-15.847767
1486.196336	-15.836814
1486.933471	-15.776106
1487.671337	-15.679561
1488.409937	-15.550947
1489.149270	-15.411827
1489.889337	-15.269703
1490.630141	-15.145618
1491.371682	-15.041404
1492.113961	-14.973588
1492.856979	-14.939395
1493.600738	-14.952671
1494.345238	-15.006008
1495.090481	-15.108866
1495.836467	-15.246520
1496.583198	-15.425413
1497.330675	-15.627469
1498.078899	-15.855454
1498.827872	-16.083880
1499.577593	-16.309664
1500.328065	-16.502619
1501.079289	-16.660229
1501.831265	-16.755365
1502.583995	-16.790524
1503.337480	-16.746784
1504.091721	-16.639350
1504.846719	-16.465258
1505.602475	-16.250256
1506.358991	-15.998028
1507.116268	-15.732906
1507.874306	-15.458226
1508.633108	-15.196533
1509.392673	-14.949604
1510.153004	-14.733454
1510.914101	-14.545855
1511.675965	-14.399980
1512.438599	-14.294270
1513.202002	-14.241674
1513.966176	-14.238763
1514.731122	-14.296553
1515.496842	-14.413963
1516.263336	-14.605204
1517.030607	-14.871259
1517.798654	-15.227547
1518.567479	-15.678431
1519.337083	-16.247836
1520.107468	-16.952906
1520.878634	-17.832376
1521.650584	-18.927142
1522.423317	-20.322007
1523.196836	-22.150111
1523.971141	-24.693527
1524.746233	-28.616762
1525.522115	-36.266591
1526.298786	-37.437073
1527.076249	-28.452149
1527.854504	-23.765304
1528.633553	-20.591874
1529.413397	-18.176562
1530.194037	-16.221714
1530.975474	-14.574960
1531.757709	-13.159554
1532.540745	-11.920317
1533.324581	-10.828769
1534.109220	-9.856942
1534.894662	-8.994031
1535.680909	-8.224683
1536.467961	-7.545468
1537.255821	-6.945031
1538.044489	-6.422700
1538.833967	-5.970911
1539.624256	-5.590875
1540.415357	-5.276334
1541.207271	-5.028150
1542.000000	-4.841322
1542.793545	-4.717590
1543.587907	-4.652794
1544.383087	-4.647559
1545.179088	-4.698402
1545.975909	-4.805822
1546.773552	-4.967947
1547.572019	-5.183853
1548.371311	-5.452138
1549.171428	-5.771421
1549.972373	-6.142258
1550.774147	-6.562103
1551.576751	-7.032166
1552.380185	-7.548577
1553.184453	-8.115061
1553.989554	-8.726937
1554.795490	-9.387744
1555.602263	-10.091413
1556.409873	-10.841710
1557.218322	-11.632424
1558.027612	-12.462938
1558.837743	-13.322355
1559.648717	-14.200620
1560.460536	-15.080153
1561.273200	-15.928879
1562.086710	-16.711062
1562.901069	-17.365927
1563.716278	-17.852932
1564.532337	-18.122786
1565.349249	-18.174956
1566.167014	-18.027073
1566.985634	-17.728938
1567.805111	-17.339416
1568.625444	-16.899746
1569.446637	-16.452807
1570.268690	-16.013355
1571.091605	-15.606157
1571.915382	-15.233775
1572.740024	-14.905254
1573.565532	-14.618977
1574.391907	-14.376611
1575.219150	-14.180250
1576.047262	-14.024290
1576.876246	-13.911223
1577.706103	-13.833041
1578.536833	-13.794561
1579.368439	-13.787094
1580.200922	-13.810955
1581.034282	-13.860355
1581.868522	-13.933193
1582.703643	-14.027314
1583.539646	-14.134297
1584.376532	-14.255362
1585.214304	-14.382659
1586.052962	-14.518959
1586.892508	-14.656111
1587.732943	-14.795905
1588.574269	-14.937261
1589.416487	-15.079605
1590.259599	-15.224600
1591.103605	-15.368668
1591.948508	-15.519264
1592.794309	-15.672090
1593.641009	-15.831878
1594.488609	-15.995893
1595.337112	-16.168011
1596.186518	-16.349884
1597.036829	-16.537482
1597.888047	-16.735743
1598.740172	-16.939927
1599.593207	-17.155410
1600.447153	-17.375488
1601.302010	-17.600353
1602.157782	-17.831246
1603.014469	-18.061933
1603.872072	-18.294697
1604.730593	-18.519137
1605.590034	-18.739259
1606.450397	-18.948065
1607.311681	-19.138927
1608.173890	-19.311970
1609.037024	-19.457554
1609.901085	-19.580852
1610.766075	-19.669886
1611.631995	-19.726876
1612.498846	-19.753078
1613.366630	-19.743378
1614.235349	-19.704970
1615.105004	-19.630244
1615.975596	-19.531100
1616.847128	-19.405461
1617.719600	-19.254523
1618.593014	-19.087202
1619.467372	-18.900894
1620.342675	-18.706767
1621.218924	-18.500766
1622.096122	-18.290236
1622.974270	-18.080617
1623.853369	-17.869199
1624.733420	-17.663533
1625.614427	-17.461447
1626.496389	-17.267887
1627.379308	-17.082964
1628.263187	-16.903632
1629.148026	-16.736187
1630.033828	-16.575830
1630.920593	-16.423660
1631.808324	-16.278822
1632.697022	-16.138739
1633.586688	-16.005896
1634.477324	-15.873138
1635.368932	-15.743391
1636.261514	-15.614377
1637.155070	-15.483492
1638.049602	-15.352150
1638.945113	-15.218080
1639.841603	-15.084057
1640.739075	-14.949150
1641.637529	-14.813687
1642.536968	-14.682457
1643.437393	-14.553066
1644.338806	-14.428850
1645.241209	-14.310524
1646.144602	-14.198299
1647.048988	-14.093813
1647.954368	-13.994338
1648.860744	-13.902735
1649.768118	-13.817179
1650.676491	-13.735658
1651.585865	-13.659935
1652.496241	-13.587292
1653.407621	-13.517583
1654.320008	-13.449953
1655.233401	-13.383268
1656.147804	-13.319186
1657.063218	-13.254681
1657.979645	-13.191788
1658.897085	-13.131324
1659.815542	-13.071389
1660.735016	-13.014743
1661.655509	-12.961001
1662.577023	-12.910186
1663.499560	-12.863276
1664.423121	-12.818951
1665.347709	-12.778910
1666.273324	-12.741513
1667.199969	-12.706025
1668.127645	-12.674307
1669.056353	-12.643382
1669.986097	-12.613852
1670.916877	-12.586343
1671.848695	-12.559065
1672.781553	-12.533149
1673.715452	-12.508323
1674.650395	-12.484300
1675.586383	-12.462382
1676.523418	-12.441006
1677.461501	-12.421806
1678.400635	-12.404662
1679.340821	-12.388144
1680.282061	-12.374175
1681.224357	-12.361767
1682.167710	-12.349794
1683.112122	-12.339728
1684.057595	-12.330388
1685.004132	-12.321498
1685.951732	-12.313873
1686.900400	-12.306700
1687.850135	-12.300549
1688.800940	-12.295072
1689.752818	-12.290469
1690.705768	-12.287551
1691.659795	-12.285197
1692.614898	-12.284180
1693.571081	-12.284734
1694.528345	-12.285318
1695.486691	-12.286740
1696.446122	-12.289297
1697.406640	-12.291259
1698.368245	-12.294031
1699.330941	-12.297578
1700.294729	-12.300857
1701.259611	-12.305102
1702.225588	-12.310151
1703.192664	-12.315361
1704.160838	-12.321151
1705.130114	-12.327434
1706.100493	-12.333606
1707.071977	-12.339834
1708.044568	-12.346200
1709.018268	-12.352673
1709.993079	-12.358999
1710.969003	-12.365592
1711.946041	-12.372690
1712.924196	-12.379586
1713.903469	-12.387086
1714.883862	-12.395020
1715.865378	-12.402551
1716.848017	-12.410464
1717.831783	-12.418921
1718.816677	-12.426650
1719.802701	-12.435036
1720.789857	-12.443798
1721.778147	-12.451760
1722.767573	-12.460336
1723.758136	-12.469088
1724.749840	-12.477121
1725.742685	-12.485882
1726.736673	-12.494876
1727.731808	-12.503374
1728.728090	-12.512570
1729.725521	-12.522102
1730.724105	-12.530856
1731.723842	-12.540486
1732.724735	-12.550317
1733.726785	-12.559632
1734.729995	-12.570288
1735.734366	-12.581200
1736.739902	-12.592086
1737.746603	-12.604467
1738.754472	-12.616797
1739.763510	-12.629240
1740.773721	-12.642771
1741.785105	-12.655917
1742.797665	-12.669406
1743.811403	-12.683548
1744.826321	-12.697841
1745.842422	-12.712393
1746.859706	-12.727518
1747.878177	-12.742695
1748.897835	-12.757777
1749.918685	-12.773119
1750.940726	-12.788043
1751.963963	-12.802872
1752.988395	-12.817778
1754.014027	-12.832448
1755.040860	-12.847099
1756.068895	-12.861994
1757.098135	-12.876419
1758.128583	-12.890898
1759.160240	-12.905138
1760.193109	-12.918909
1761.227191	-12.932876
1762.262488	-12.946415
1763.299004	-12.960220
1764.336740	-12.974163
1765.375697	-12.987895
1766.415880	-13.001946
1767.457288	-13.015863
1768.499926	-13.029902
1769.543794	-13.044397
1770.588895	-13.058903
1771.635231	-13.073533
1772.682805	-13.088359
1773.731619	-13.103049
1774.781674	-13.117934
1775.832973	-13.133090
1776.885519	-13.148063
1777.939312	-13.163626
1778.994357	-13.179113
1780.050654	-13.194535
1781.108207	-13.210374
1782.167017	-13.225159
1783.227087	-13.239885
1784.288418	-13.255070
1785.351013	-13.269604
1786.414875	-13.285035
1787.480006	-13.300573
1788.546407	-13.315183
1789.614082	-13.329787
1790.683032	-13.343965
1791.753259	-13.357924
1792.824767	-13.371794
1793.897557	-13.385705
1794.971632	-13.399423
1796.046994	-13.412289
1797.123645	-13.425439
1798.201588	-13.438756
1799.280824	-13.451444
1800.361357	-13.464627
1801.443188	-13.477724
1802.526320	-13.490194
1803.610756	-13.503343
1804.696497	-13.516726
1805.783546	-13.530703
1806.871906	-13.545184
1807.961578	-13.559412
1809.052565	-13.574156
1810.144870	-13.588521
1811.238494	-13.602379
1812.333441	-13.617168
1813.429713	-13.631950
1814.527311	-13.646360
1815.626239	-13.661210
1816.726499	-13.675974
1817.828094	-13.690502
1818.931025	-13.704937
1820.035295	-13.719165
1821.140906	-13.733350
1822.247862	-13.746650
1823.356165	-13.758921
1824.465816	-13.771270
1825.576819	-13.783266
1826.689175	-13.794017
1827.802888	-13.804723
1828.917960	-13.815826
1830.034394	-13.825693
1831.152191	-13.835123
1832.271354	-13.844613
1833.391887	-13.853147
1834.513790	-13.861209
1835.637068	-13.869322
1836.761722	-13.877027
1837.887755	-13.884999
1839.015169	-13.893490
1840.143968	-13.901119
1841.274153	-13.907617
1842.405727	-13.914051
1843.538693	-13.919883
1844.673053	-13.925243
1845.808810	-13.930787
1846.945966	-13.936044
1848.084525	-13.941170
1849.224488	-13.945844
1850.365858	-13.949901
1851.508638	-13.953400
1852.652831	-13.957650
1853.798438	-13.962776
1854.945463	-13.966118
1856.093909	-13.968918
1857.243777	-13.972283
1858.395071	-13.975347
1859.547794	-13.978176
1860.701947	-13.981074
1861.857533	-13.984803
1863.014556	-13.987321
1864.173018	-13.989098
1865.332922	-13.991260
1866.494270	-13.992526
1867.657065	-13.993169
1868.821309	-13.993286
1869.987006	-13.994426
1871.154158	-13.995209
1872.322768	-13.994780
1873.492839	-13.994142
1874.664373	-13.993671
1875.837373	-13.993530
1877.011841	-13.992086
1878.187782	-13.989922
1879.365197	-13.987094
1880.544089	-13.984080
1881.724460	-13.980694
1882.906315	-13.976928
1884.089655	-13.972750
1885.274483	-13.967614
1886.460803	-13.961803
1887.648616	-13.955432
1888.837927	-13.949221
1890.028736	-13.943037
1891.221049	-13.936414
1892.414866	-13.928858
1893.610192	-13.920280
1894.807028	-13.911345
1896.005379	-13.902471
1897.205246	-13.893690
1898.406633	-13.884362
1899.609542	-13.874376
1900.813977	-13.863347
1902.019940	-13.852047
1903.227434	-13.840578
1904.436462	-13.829343
1905.647028	-13.818353
1906.859133	-13.807649
1908.072781	-13.796994
1909.287976	-13.785750
1910.504719	-13.773808
1911.723013	-13.761444
1912.942863	-13.749616
1914.164270	-13.738400
1915.387238	-13.728038
1916.611770	-13.717735
1917.837868	-13.707132
1919.065536	-13.695971
1920.294777	-13.684533
1921.525594	-13.672960
1922.757989	-13.661332
1923.991967	-13.649893
1925.227529	-13.638645
1926.464679	-13.627712
1927.703420	-13.616845
1928.943755	-13.605867
1930.185688	-13.594064
1931.429221	-13.581247
1932.674356	-13.567318
1933.921099	-13.553081
1935.169451	-13.539233
1936.419415	-13.526124
1937.670996	-13.513448
1938.924195	-13.500759
1940.179017	-13.487386
1941.435463	-13.473123
1942.693538	-13.457717
1943.953245	-13.441380
1945.214586	-13.424315
1946.477566	-13.406853
1947.742186	-13.389064
1949.008451	-13.371542
1950.276363	-13.354437
1951.545926	-13.338181
1952.817143	-13.322685
1954.090017	-13.307710
1955.364551	-13.292983
1956.640749	-13.278949
1957.918615	-13.265320
1959.198150	-13.252032
1960.479359	-13.239131
1961.762244	-13.226049
1963.046810	-13.212640
1964.333059	-13.198547
1965.620995	-13.184088
1966.910621	-13.169704
1968.201940	-13.156092
1969.494956	-13.143722
1970.789672	-13.132038
1972.086091	-13.120459
1973.384217	-13.108419
1974.684053	-13.095974
1975.985602	-13.083974
1977.288869	-13.072728
1978.593855	-13.062314
1979.900566	-13.051971
1981.209003	-13.041403
1982.519171	-13.030613
1983.831073	-13.019741
1985.144712	-13.008872
1986.460093	-12.997922
1987.777217	-12.986666
1989.096089	-12.974827
1990.416713	-12.962721
1991.739092	-12.950781
1993.063228	-12.939717
1994.389127	-12.928996
1995.716791	-12.918185
1997.046223	-12.906875
1998.377428	-12.895237
1999.710409	-12.883759
2001.045169	-12.872670
2002.381713	-12.862041
2003.720043	-12.851654
2005.060163	-12.841782
2006.402077	-12.833036
2007.745788	-12.825242
2009.091301	-12.817862
2010.438618	-12.809885
2011.787743	-12.801642
2013.138680	-12.793788
2014.491433	-12.786683
2015.846005	-12.780304
2017.202399	-12.773913
2018.560621	-12.767616
2019.920673	-12.761568
2021.282558	-12.756497
2022.646281	-12.752301
2024.011846	-12.748740
2025.379256	-12.745621
2026.748515	-12.742920
2028.119626	-12.740622
2029.492594	-12.738991
2030.867422	-12.737390
2032.244114	-12.735728
2033.622673	-12.733576
2035.003104	-12.731255
2036.385411	-12.728973
2037.769597	-12.726382
2039.155665	-12.723287
2040.543621	-12.719753
2041.933467	-12.715833
2043.325208	-12.711802
2044.718847	-12.707548
2046.114389	-12.703273
2047.511837	-12.699326
2048.911195	-12.695898
2050.312467	-12.692699
2051.715657	-12.689009
2053.120769	-12.684660
2054.527807	-12.679998
2055.936775	-12.675396
2057.347677	-12.670923
2058.760516	-12.666718
2060.175297	-12.663478
2061.592025	-12.661808
2063.010701	-12.661641
2064.431332	-12.662545
2065.853921	-12.664115
2067.278472	-12.665998
2068.704988	-12.667797
2070.133475	-12.670235
2071.563936	-12.673817
2072.996375	-12.678598
2074.430796	-12.684994
2075.867204	-12.693098
2077.305603	-12.702660
2078.745996	-12.711720
2080.188389	-12.719305
2081.632784	-12.726603
2083.079187	-12.734995
2084.527601	-12.745046
2085.978030	-12.755483
2087.430480	-12.765089
2088.884954	-12.773491
2090.341455	-12.781179
2091.799990	-12.789083
2093.260561	-12.797377
2094.723173	-12.805653
2096.187831	-12.813455
2097.654538	-12.820556
2099.123300	-12.826899
2100.594119	-12.833458
2102.067001	-12.840682
2103.541950	-12.848313
2105.018971	-12.855014
2106.498067	-12.860402
2107.979243	-12.866119
2109.462503	-12.873800
2110.947853	-12.883151
2112.435295	-12.891984
2113.924836	-12.899070
2115.416478	-12.905482
2116.910227	-12.913587
2118.406087	-12.925490
2119.904063	-12.940410
2121.404158	-12.956404
2122.906378	-12.972255
2124.410727	-12.987650
2125.917210	-13.002468
2127.425831	-13.017806
2128.936594	-13.035798
2130.449505	-13.056918
2131.964567	-13.079898
2133.481786	-13.102868
2135.001166	-13.125117
2136.522711	-13.146784
2138.046427	-13.168241
2139.572317	-13.189988
2141.100388	-13.213035
2142.630642	-13.238499
2144.163085	-13.265269
2145.697722	-13.290486
2147.234558	-13.311999
2148.773596	-13.330371
2150.314842	-13.347564
2151.858301	-13.366110
2153.403977	-13.387546
2154.951875	-13.412841
2156.502000	-13.441695
2158.054357	-13.471723
2159.608950	-13.500185
2161.165785	-13.525554
2162.724866	-13.546725
2164.286198	-13.561425
2165.849786	-13.568974
2167.415635	-13.572598
2168.983749	-13.577192
2170.554134	-13.586242
2172.126795	-13.601817
2173.701737	-13.626901
2175.278964	-13.663871
2176.858481	-13.711335
2178.440294	-13.764409
2180.024408	-13.817721
2181.610827	-13.867388
2183.199557	-13.910028
2184.790602	-13.941844
2186.383968	-13.961338
2187.979660	-13.970898
2189.577683	-13.974043
2191.178041	-13.973412
2192.780741	-13.973617
2194.385787	-13.979852
2195.993185	-13.994925
2197.602939	-14.019482
2199.215054	-14.054366
2200.829537	-14.098743
2202.446392	-14.151252
2204.065624	-14.210601
2205.687239	-14.273697
2207.311242	-14.339516
2208.937638	-14.408433
2210.566433	-14.477504
2212.197631	-14.543396
2213.831239	-14.607639
2215.467261	-14.671021
2217.105703	-14.731094
2218.746570	-14.787209
2220.389867	-14.841765
2222.035601	-14.895875
2223.683776	-14.947286
2225.334398	-14.996478
2226.987472	-15.044965
2228.643004	-15.090474
2230.300999	-15.133479
2231.961463	-15.175845
2233.624402	-15.216007
2235.289820	-15.253055
2236.957723	-15.285984
2238.628118	-15.315182
2240.301009	-15.342097
2241.976402	-15.364427
2243.654303	-15.383490
2245.334717	-15.404526
2247.017650	-15.429142
2248.703108	-15.457690
2250.391096	-15.493380
2252.081620	-15.540891
2253.774686	-15.600672
2255.470300	-15.671799
2257.168467	-15.754037
2258.869193	-15.845801
2260.572484	-15.943220
2262.278345	-16.038676
2263.986783	-16.127841
2265.697804	-16.206536
2267.411412	-16.268985
2269.127615	-16.315436
2270.846417	-16.351287
2272.567826	-16.378491
2274.291846	-16.402055
2276.018484	-16.432658
2277.747745	-16.473602
2279.479637	-16.526843
2281.214164	-16.589600
2282.951333	-16.661626
2284.691149	-16.739764
2286.433619	-16.815587
2288.178750	-16.887980
2289.926546	-16.956955
2291.677014	-17.022880
2293.430161	-17.090247
2295.185992	-17.163910
2296.944513	-17.242401
2298.705732	-17.323904
2300.469653	-17.409389
2302.236283	-17.499511
2304.005629	-17.589203
2305.777696	-17.680564
2307.552492	-17.773126
2309.330022	-17.864372
2311.110292	-17.948046
2312.893310	-18.026592
2314.679080	-18.104791
2316.467611	-18.182807
2318.258907	-18.260622
2320.052976	-18.338620
2321.849824	-18.416546
2323.649457	-18.491472
2325.451883	-18.564183
2327.257106	-18.637306
2329.065135	-18.711323
2330.875975	-18.783913
2332.689633	-18.855372
2334.506116	-18.926168
2336.325430	-18.996148
2338.147581	-19.069055
2339.972578	-19.144274
2341.800425	-19.217164
2343.631130	-19.289435
2345.464700	-19.368921
2347.301141	-19.452063
2349.140461	-19.536105
2350.982665	-19.623960
2352.827760	-19.719547
2354.675754	-19.816083
2356.526653	-19.917153
2358.380464	-20.026716
2360.237195	-20.139354
2362.096851	-20.251176
2363.959440	-20.368222
2365.824968	-20.486346
2367.693444	-20.599338
2369.564873	-20.711159
2371.439263	-20.821839
2373.316620	-20.926202
2375.196953	-21.028031
2377.080267	-21.127513
2378.966570	-21.221754
2380.855869	-21.316417
2382.748171	-21.411686
2384.643484	-21.501373
2386.541815	-21.592896
2388.443170	-21.688662
2390.347557	-21.779651
2392.254984	-21.869164
2394.165457	-21.961028
2396.078984	-22.049914
2397.995572	-22.135618
2399.915229	-22.224432
2401.837961	-22.315871
2403.763777	-22.407630
2405.692684	-22.502840
2407.624689	-22.601911
2409.559800	-22.707404
2411.498023	-22.818595
2413.439368	-22.931315
2415.383840	-23.046476
2417.331449	-23.168611
2419.282201	-23.298602
2421.236104	-23.429547
2423.193165	-23.564693
2425.153393	-23.705689
2427.116795	-23.847835
2429.083378	-23.989454
2431.053151	-24.129147
2433.026121	-24.265305
2435.002297	-24.395141
2436.981685	-24.522210
2438.964293	-24.643764
2440.950131	-24.757236
2442.939204	-24.866622
2444.931522	-24.969344
2446.927092	-25.073454
2448.925923	-25.175755
2450.928022	-25.271737
2452.933397	-25.370123
2454.942056	-25.465957
2456.954008	-25.565727
2458.969260	-25.661566
2460.987821	-25.755634
2463.009699	-25.860348
2465.034902	-25.967124
2467.063437	-26.071595
2469.095315	-26.182952
2471.130542	-26.299475
2473.169127	-26.416364
2475.211078	-26.540683
2477.256404	-26.674302
2479.305112	-26.815399
2481.357212	-26.960367
2483.412713	-27.120903
2485.471621	-27.295775
2487.533946	-27.467962
2489.599696	-27.648786
2491.668880	-27.834632
2493.741507	-28.016824
2495.817585	-28.179281
2497.897122	-28.329871
2499.980127	-28.485504
2502.066609	-28.623702
2504.156578	-28.739974
2506.250040	-28.864862
2508.347006	-28.984214
2510.447483	-29.086309
2512.551482	-29.194379
2514.659010	-29.303761
2516.770076	-29.402235
2518.884690	-29.504977
2521.002861	-29.609733
2523.124597	-29.701064
2525.249907	-29.787918
2527.378801	-29.889672
2529.511287	-29.986089
2531.647375	-30.080241
2533.787074	-30.198071
2535.930393	-30.322968
2538.077340	-30.437262
2540.227927	-30.579267
2542.382160	-30.739540
2544.540051	-30.883462
2546.701608	-31.063498
2548.866840	-31.282366
2551.035757	-31.481367
2553.208369	-31.692353
2555.384684	-31.946109
2557.564713	-32.167101
2559.748465	-32.373516
2561.935948	-32.602232
2564.127174	-32.799298
2566.322152	-32.981488
2568.520890	-33.145065
2570.723399	-33.285901
2572.929689	-33.428239
2575.139769	-33.561160
2577.353649	-33.671966
2579.571340	-33.761734
2581.792849	-33.900817
2584.018189	-34.003464
2586.247368	-34.065444
2588.480396	-34.186170
2590.717284	-34.270629
2592.958041	-34.326501
2595.202678	-34.369219
2597.451204	-34.443555
2599.703630	-34.541409
2601.959966	-34.580648
2604.220222	-34.686293
2606.484408	-34.820976
2608.752535	-34.927350
2611.024612	-35.066783
2613.300651	-35.272016
2615.580661	-35.520783
2617.864653	-35.708810
2620.152638	-35.978183
2622.444625	-36.291442
2624.740626	-36.543581
2627.040651	-36.825983
2629.344710	-37.140302
2631.652814	-37.443323
2633.964974	-37.658215
2636.281200	-37.916066
2638.601504	-38.168895
2640.925896	-38.345981
2643.254386	-38.522057
2645.586987	-38.690358
2647.923707	-38.905913
2650.264559	-39.065790
2652.609554	-39.232156
2654.958702	-39.382497
2657.312015	-39.456539
2659.669503	-39.498370
2662.031178	-39.508210
2664.397051	-39.483731
2666.767132	-39.454222
2669.141434	-39.485860
2671.519968	-39.410690
2673.902745	-39.452907
2676.289776	-39.536475
2678.681072	-39.522139
2681.076646	-39.621754
2683.476508	-39.793365
2685.880671	-39.901480
2688.289145	-40.098730
2690.701942	-40.400118
2693.119075	-40.635674
2695.540554	-40.959226
2697.966391	-41.258285
2700.396599	-41.586723
2702.831189	-41.968911
2705.270172	-42.246474
2707.713561	-42.528746
2710.161368	-42.928063
2712.613605	-43.202460
2715.070283	-43.502546
2717.531416	-44.019702
2719.997014	-44.379581
2722.467090	-44.758797
2724.941657	-45.166397
2727.420726	-45.523782
2729.904310	-45.825880
2732.392421	-45.894399
2734.885072	-45.890311
2737.382275	-45.966800
2739.884042	-45.807297
2742.390387	-45.655466
2744.901321	-45.642332
2747.416857	-45.432286
2749.937008	-45.254247
2752.461787	-45.223219
2754.991206	-45.129244
2757.525279	-45.087722
2760.064017	-45.080668
2762.607434	-45.181182
2765.155544	-45.437202
2767.708358	-45.511816
2770.265890	-45.704100
2772.828153	-46.022038
2775.395160	-46.115229
2777.966924	-46.300972
2780.543459	-46.494347
2783.124778	-46.622916
2785.710894	-46.910239
2788.301821	-47.209888
2790.897572	-47.625121
2793.498160	-48.035748
2796.103599	-48.520773
2798.713903	-49.225278
2801.329085	-49.941174
2803.949159	-50.648219
2806.574139	-51.474321
2809.204038	-52.015779
2811.838871	-52.561438
2814.478650	-52.997975
2817.123391	-53.343988
2819.773107	-53.443649
2822.427812	-53.479056
2825.087521	-53.299102
2827.752247	-52.908696
2830.422005	-52.660366
2833.096808	-52.387194
2835.776672	-52.336688
2838.461611	-52.247357
2841.151638	-52.394787
2843.846769	-52.407226
2846.547019	-52.556999
2849.252401	-52.531866
2851.962930	-52.389065
2854.678621	-52.163286
2857.399489	-52.039700
2860.125549	-51.789096
2862.856815	-51.660077
2865.593302	-51.572129
2868.335026	-51.648443
2871.082002	-51.742033
2873.834244	-52.095730
2876.591767	-52.458594
2879.354588	-52.865508
2882.122721	-53.457999
2884.896181	-54.035666
2887.674984	-54.731415
2890.459146	-55.196876
2893.248681	-56.219844
2896.043606	-57.120688
2898.843937	-58.007306
2901.649687	-58.865232
2904.460875	-59.502197
2907.277515	-59.740357
2910.099623	-59.456882
2912.927215	-59.535947
2915.760308	-59.540794
2918.598916	-60.112293
2921.443057	-60.985370
2924.292747	-61.526575
2927.148002	-62.414875
2930.008837	-62.927491
2932.875270	-63.553586
2935.747318	-62.734481
2938.624995	-62.286052
2941.508320	-61.424724
2944.397308	-60.352175
2947.291977	-59.765288
2950.192343	-59.078296
2953.098423	-58.755437
2956.010234	-58.425926
2958.927792	-58.402917
2961.851116	-58.250027
2964.780221	-58.201453
2967.715126	-58.411968
2970.655847	-58.521098
2973.602402	-58.910608
2976.554808	-59.679288
2979.513083	-60.512720
2982.477243	-61.689435
2985.447308	-62.544935
2988.423293	-63.287274
2991.405218	-63.236929
2994.393099	-63.021475
2997.386955	-63.118284
