# 2022-03-21_21.43.32
# shape = sech2
# FWHM_ps = 0.1
# carrier_nm = 1542
# frep_MHz = 12126
# pow_mW = 8000
# GDD = 0.0
# propa_len = 0.10488888888888889
# untap_len = 0.01
# taper_len = 0.04488888888888889
# waist_len = 0.02
# uptap_len = 0.02
# untap_scale = 1.0
# waist_scale = 0.17894736842105266
# workingDir = NL_20110305_12 (Spirou)
# axis = slow
# window_ps = 10.0
# steps = 200
# points = 21700
# 
# wavelength [nm]	 power spectral density [dB]
600.043425	-85.557556
600.163550	-91.504684
600.283723	-112.300632
600.403943	-89.681449
600.524212	-84.153485
600.644529	-81.434850
600.764895	-80.172389
600.885308	-79.810813
601.005770	-80.239916
601.126280	-81.466323
601.246839	-83.210552
601.367446	-85.288040
601.488101	-88.979922
601.608804	-101.293781
601.729557	-92.245719
601.850357	-84.865805
601.971206	-81.566122
602.092104	-79.938012
602.213050	-79.365505
602.334045	-79.617804
602.455089	-80.619417
602.576181	-82.446896
602.697322	-85.456643
602.818511	-91.984974
602.939749	-100.273078
603.061036	-86.934686
603.182372	-82.686319
603.303757	-80.940199
603.425191	-80.529654
603.546673	-80.877909
603.668204	-81.689712
603.789785	-82.700539
603.911414	-83.737210
604.033092	-85.129938
604.154820	-87.272470
604.276596	-88.939966
604.398422	-87.663264
604.520297	-85.395827
604.642220	-83.634249
604.764193	-82.385610
604.886216	-81.513650
605.008287	-80.982314
605.130408	-80.948923
605.252578	-81.739800
605.374798	-83.777158
605.497066	-87.295445
605.619385	-89.973458
605.741752	-87.152241
605.864169	-84.016437
605.986636	-82.445099
606.109152	-81.938414
606.231718	-81.792623
606.354333	-81.710793
606.476998	-81.987286
606.599712	-82.932603
606.722476	-84.671790
606.845290	-86.782427
606.968154	-87.342798
607.091067	-86.396650
607.214030	-85.340022
607.337043	-84.137095
607.460106	-82.616461
607.583219	-81.351973
607.706381	-80.919956
607.829594	-81.685455
607.952856	-84.046140
608.076169	-88.391446
608.199531	-90.146033
608.322944	-85.970713
608.446407	-83.291610
608.569920	-81.922736
608.693483	-81.212624
608.817096	-81.307938
608.940759	-82.543322
609.064473	-85.235193
609.188237	-89.704944
609.312051	-89.214246
609.435916	-84.257818
609.559831	-81.465690
609.683796	-80.433524
609.807812	-80.588905
609.931878	-81.518995
610.055995	-82.879637
610.180162	-84.616298
610.304380	-86.904362
610.428648	-88.531129
610.552967	-86.623934
610.677337	-83.485949
610.801757	-81.240407
610.926228	-80.121776
611.050750	-79.859943
611.175323	-80.220936
611.299946	-81.043366
611.424620	-82.263463
611.549345	-84.485719
611.674121	-88.387686
611.798948	-88.516948
611.923826	-83.925730
612.048755	-81.040553
612.173734	-79.732394
612.298765	-79.670845
612.423847	-80.561828
612.548980	-81.739960
612.674165	-82.552435
612.799400	-83.148716
612.924687	-83.760114
613.050025	-83.773411
613.175414	-83.322901
613.300854	-83.136163
613.426346	-83.429825
613.551889	-83.901597
613.677484	-83.146974
613.803130	-81.223308
613.928827	-79.902580
614.054576	-79.727676
614.180377	-80.671873
614.306229	-82.810739
614.432132	-85.398216
614.558087	-86.305781
614.684094	-85.590348
614.810153	-83.749804
614.936263	-81.873066
615.062425	-80.454597
615.188639	-79.690145
615.314904	-80.193005
615.441222	-81.896209
615.567591	-83.054933
615.694012	-83.154265
615.820486	-83.532279
615.947011	-84.706334
616.073588	-85.758760
616.200217	-83.068628
616.326898	-80.294645
616.453632	-79.301864
616.580417	-79.459514
616.707255	-80.238932
616.834144	-81.159982
616.961086	-81.641114
617.088081	-83.112251
617.215127	-86.281035
617.342226	-84.226800
617.469378	-80.983122
617.596581	-79.554218
617.723837	-79.199069
617.851146	-79.703034
617.978507	-79.998583
618.105920	-79.377141
618.233386	-79.613928
618.360905	-81.747257
618.488476	-85.089859
618.616100	-85.572741
618.743777	-82.638535
618.871506	-80.245201
618.999288	-78.730563
619.127123	-77.484483
619.255011	-76.648810
619.382951	-77.018741
619.510945	-79.290600
619.638991	-84.627798
619.767090	-93.119499
619.895243	-84.091897
620.023448	-79.694015
620.151706	-77.790542
620.280017	-76.804673
620.408382	-76.252884
620.536799	-76.552179
620.665270	-78.335300
620.793794	-82.387192
620.922371	-89.358704
621.051002	-86.415229
621.179686	-82.073734
621.308423	-79.854051
621.437213	-78.144032
621.566057	-76.664661
621.694954	-75.948043
621.823905	-76.456227
621.952909	-78.491478
622.081967	-82.246526
622.211079	-85.829893
622.340244	-84.753511
622.469462	-82.076564
622.598735	-79.325161
622.728061	-77.273660
622.857441	-76.295495
622.986874	-76.442355
623.116361	-77.598479
623.245903	-79.142997
623.375498	-80.031709
623.505147	-80.771652
623.634850	-82.306826
623.764606	-82.537565
623.894417	-79.947280
624.024282	-77.733986
624.154201	-76.583345
624.284174	-76.058926
624.414202	-76.090906
624.544283	-76.982341
624.674419	-79.096837
624.804609	-83.005156
624.934853	-85.610340
625.065151	-80.372228
625.195504	-76.787475
625.325911	-75.337899
625.456373	-75.230913
625.586889	-76.068063
625.717460	-77.833869
625.848085	-80.732153
625.978764	-83.824442
626.109498	-82.237484
626.240287	-78.696558
626.371131	-76.401244
626.502029	-75.490470
626.632982	-75.690705
626.763989	-76.602895
626.895052	-78.105533
627.026169	-80.400241
627.157341	-82.471301
627.288568	-80.821536
627.419850	-77.702834
627.551187	-75.595268
627.682579	-74.750114
627.814026	-74.995705
627.945528	-75.992370
628.077085	-77.702687
628.208697	-80.648324
628.340364	-82.606698
628.472087	-79.224471
628.603865	-76.138019
628.735698	-74.629477
628.867586	-74.270005
628.999530	-74.751367
629.131529	-75.863764
629.263584	-77.520134
629.395694	-79.399626
629.527859	-80.211460
629.660080	-79.205960
629.792357	-77.538356
629.924689	-75.915460
630.057077	-74.659626
630.189520	-74.017639
630.322019	-74.088285
630.454574	-75.053113
630.587184	-77.208404
630.719851	-80.650805
630.852573	-81.797640
630.985351	-78.338281
631.118185	-75.456875
631.251075	-73.714287
631.384021	-73.017103
631.517023	-73.367163
631.650081	-74.805735
631.783195	-77.497865
631.916365	-80.411329
632.049592	-79.449091
632.182874	-76.688318
632.316213	-74.778232
632.449608	-73.877447
632.583059	-73.744164
632.716567	-74.232198
632.850131	-75.151481
632.983751	-76.333151
633.117428	-77.300039
633.251161	-77.112305
633.384951	-75.943029
633.518797	-74.789581
633.652700	-74.087159
633.786660	-73.977960
633.920676	-74.506995
634.054749	-75.241879
634.188879	-75.572282
634.323065	-75.291372
634.457308	-74.874911
634.591608	-74.897129
634.725965	-75.388284
634.860379	-75.796443
634.994850	-75.394381
635.129377	-74.338052
635.263962	-73.406227
635.398604	-73.055643
635.533303	-73.290575
635.668058	-74.191317
635.802872	-76.090603
635.937742	-78.097033
636.072669	-76.620096
636.207654	-73.832950
636.342696	-72.201679
636.477796	-71.646259
636.612953	-71.982691
636.748167	-73.286018
636.883439	-75.490931
637.018768	-77.285294
637.154155	-75.991525
637.289599	-73.829635
637.425101	-72.802901
637.560660	-72.547021
637.696277	-72.282868
637.831952	-72.233513
637.967685	-72.972887
638.103475	-74.254842
638.239324	-75.090210
638.375230	-74.676650
638.511194	-73.683714
638.647215	-73.003932
638.783295	-72.667534
638.919433	-72.389572
639.055629	-72.347905
639.191883	-72.696724
639.328195	-72.837580
639.464565	-72.797986
639.600994	-73.383266
639.737481	-74.416509
639.874025	-74.332660
640.010629	-72.912809
640.147290	-71.804950
640.284010	-71.574674
640.420789	-71.688413
640.557625	-71.596736
640.694521	-71.994769
640.831474	-73.450440
640.968487	-74.738843
641.105558	-73.772382
641.242687	-72.140600
641.379876	-71.088410
641.517123	-70.620148
641.654429	-70.887685
641.791793	-72.036178
641.929216	-73.492601
642.066699	-73.123264
642.204240	-71.526475
642.341840	-70.975747
642.479499	-71.814820
642.617217	-72.797510
642.754994	-72.100579
642.892830	-70.816631
643.030726	-70.327911
643.168680	-70.811927
643.306694	-71.875837
643.444767	-72.796731
643.582899	-72.601130
643.721091	-71.318703
643.859342	-70.185781
643.997652	-70.079317
644.136022	-71.029118
644.274451	-71.760479
644.412940	-71.267935
644.551488	-70.902648
644.690096	-71.501199
644.828763	-71.967866
644.967490	-70.947631
645.106277	-69.672266
645.245124	-69.257861
645.384030	-69.795865
645.522997	-71.082801
645.662023	-72.776463
645.801109	-72.910777
645.940255	-70.542241
646.079460	-68.587427
646.218726	-68.210387
646.358052	-69.293707
646.497438	-71.118182
646.636884	-72.107093
646.776391	-71.610317
646.915957	-70.546068
647.055584	-69.359378
647.195271	-68.566852
647.335019	-68.702935
647.474826	-69.690972
647.614695	-70.653582
647.754623	-70.992242
647.894612	-70.871363
648.034662	-70.130122
648.174772	-68.955062
648.314943	-68.206030
648.455174	-68.412791
648.595466	-69.419482
648.735819	-70.301472
648.876233	-70.505935
649.016707	-70.414307
649.157242	-69.686723
649.297838	-68.518871
649.438495	-67.948107
649.579213	-68.306523
649.719992	-69.175104
649.860832	-69.943718
650.001733	-70.349370
650.142695	-70.244714
650.283718	-69.273378
650.424803	-68.053792
650.565949	-67.473208
650.707156	-67.606627
650.848424	-68.106051
650.989754	-68.911901
651.131145	-70.224020
651.272597	-70.907715
651.414111	-69.437451
651.555687	-67.523228
651.697324	-66.463472
651.839022	-66.344766
651.980782	-67.087715
652.122604	-68.695179
652.264488	-70.837701
652.406433	-71.103602
652.548441	-68.870344
652.690510	-66.980909
652.832640	-66.152286
652.974833	-66.199669
653.117088	-66.952837
653.259405	-68.428660
653.401784	-70.237512
653.544224	-70.380368
653.686727	-68.533184
653.829293	-67.018845
653.971920	-66.308638
654.114609	-66.177871
654.257361	-66.611684
654.400175	-67.627257
654.543052	-68.783801
654.685991	-69.056067
654.828992	-68.252143
654.972056	-67.297669
655.115183	-66.527763
655.258372	-65.916122
655.401623	-65.936946
655.544937	-66.825756
655.688314	-68.036712
655.831754	-68.664961
655.975256	-68.379955
656.118822	-67.366872
656.262450	-66.246273
656.406141	-65.566508
656.549894	-65.715872
656.693711	-66.748127
656.837591	-67.959311
656.981534	-68.441476
657.125540	-67.938096
657.269610	-66.589633
657.413742	-65.393205
657.557938	-65.126095
657.702196	-65.881149
657.846519	-67.145766
657.990904	-67.825360
658.135353	-67.487905
658.279866	-66.555877
658.424441	-65.501510
658.569081	-65.046171
658.713784	-65.509396
658.858550	-66.364801
659.003381	-66.806263
659.148274	-66.795594
659.293232	-66.547794
659.438253	-66.034592
659.583339	-65.581543
659.728488	-65.655015
659.873701	-66.046584
660.018978	-66.053409
660.164318	-65.869258
660.309723	-65.980030
660.455192	-66.094725
660.600725	-66.016726
660.746323	-65.907981
660.891984	-65.697375
661.037710	-65.266913
661.183500	-64.967931
661.329354	-65.221327
661.475272	-65.846119
661.621255	-66.144340
661.767303	-65.821851
661.913415	-65.274015
662.059591	-64.743296
662.205833	-64.470728
662.352138	-64.713882
662.498509	-65.507140
662.644944	-66.163768
662.791443	-65.969845
662.938008	-65.282536
663.084638	-64.602312
663.231332	-64.130558
663.378091	-64.159403
663.524915	-64.853175
663.671804	-65.800532
663.818759	-66.042692
663.965778	-65.568275
664.112863	-64.940540
664.260012	-64.197262
664.407227	-63.660757
664.554507	-63.787717
664.701853	-64.469680
664.849264	-65.203186
664.996740	-65.716248
665.144282	-65.681214
665.291889	-64.583826
665.439561	-63.273914
665.587300	-62.752060
665.735103	-63.140090
665.882973	-64.157323
666.030908	-65.635158
666.178909	-66.711219
666.326976	-65.519516
666.475109	-63.448406
666.623307	-62.300906
666.771571	-62.254279
666.919902	-63.094499
667.068298	-64.808925
667.216761	-66.895608
667.365289	-66.289541
667.513884	-63.778720
667.662545	-62.225339
667.811272	-61.818992
667.960065	-62.330116
668.108925	-63.784473
668.257851	-65.867075
668.406843	-66.213709
668.555902	-64.235223
668.705027	-62.577409
668.854219	-61.823571
669.003478	-61.863951
669.152803	-62.803346
669.302195	-64.576753
669.451653	-65.780289
669.601179	-64.775376
669.750771	-63.123140
669.900430	-61.981983
670.050156	-61.602430
670.199949	-62.211825
670.349808	-63.817329
670.499735	-65.453179
670.649729	-65.241712
670.799790	-63.578967
670.949918	-61.985259
671.100114	-61.244058
671.250377	-61.622030
671.400707	-63.048867
671.551104	-64.878074
671.701569	-65.232932
671.852101	-63.450218
672.002700	-61.642914
672.153368	-60.847802
672.304102	-61.209963
672.454905	-62.601303
672.605775	-64.425698
672.756713	-64.905615
672.907718	-63.298671
673.058791	-61.647173
673.209933	-61.002666
673.361142	-61.389592
673.512419	-62.618280
673.663764	-64.119051
673.815177	-64.410585
673.966658	-63.020208
674.118207	-61.661701
674.269825	-61.209741
674.421510	-61.596871
674.573264	-62.538428
674.725086	-63.565198
674.876977	-63.498909
675.028936	-62.308186
675.180963	-61.321966
675.333059	-61.022913
675.485224	-61.329627
675.637457	-62.153000
675.789758	-63.148307
675.942129	-63.239581
676.094568	-62.207531
676.247075	-61.243234
676.399652	-60.866463
676.552298	-61.155349
676.705012	-62.190567
676.857795	-63.530810
677.010648	-63.568523
677.163569	-62.196203
677.316560	-61.020624
677.469619	-60.565267
677.622748	-60.889150
677.775946	-62.017523
677.929214	-63.198152
678.082551	-62.851260
678.235957	-61.508219
678.389432	-60.536368
678.542977	-60.289862
678.696592	-60.792906
678.850276	-61.928831
679.004030	-62.761986
679.157853	-62.196954
679.311746	-61.200862
679.465709	-60.744781
679.619742	-60.850695
679.773844	-61.381802
679.928017	-62.066860
680.082259	-62.092011
680.236571	-61.463624
680.390954	-61.156076
680.545406	-61.256984
680.699929	-61.313176
680.854522	-61.352414
681.009185	-61.298982
681.163918	-60.970004
681.318722	-60.835024
681.473596	-61.185688
681.628540	-61.396992
681.783555	-61.132270
681.938641	-60.817358
682.093797	-60.518973
682.249023	-60.387417
682.404321	-60.799448
682.559689	-61.466920
682.715128	-61.546791
682.870637	-61.135074
683.026218	-60.776288
683.181869	-60.528738
683.337591	-60.594967
683.493385	-61.105912
683.649249	-61.458125
683.805185	-61.280887
683.961191	-61.040402
684.117269	-60.750551
684.273418	-60.330401
684.429639	-60.123699
684.585930	-60.272014
684.742294	-60.484121
684.898728	-60.760697
685.055234	-61.003743
685.211812	-60.649437
685.368461	-59.993788
685.525182	-59.774146
685.681975	-60.080637
685.838839	-60.696306
685.995775	-61.420662
686.152783	-61.543075
686.309863	-60.637665
686.467014	-59.893726
686.624238	-59.887336
686.781534	-60.316614
686.938902	-60.927884
687.096342	-61.205642
687.253854	-60.468262
687.411438	-59.578928
687.569095	-59.426674
687.726824	-59.830492
687.884626	-60.340081
688.042499	-60.684282
688.200446	-60.332081
688.358465	-59.644809
688.516556	-59.530959
688.674720	-59.966605
688.832957	-60.469609
688.991266	-60.786088
689.149649	-60.663628
689.308104	-60.151506
689.466632	-59.824985
689.625233	-59.906961
689.783906	-60.072074
689.942653	-60.192756
690.101473	-60.318493
690.260367	-60.170102
690.419333	-59.824022
690.578372	-59.560977
690.737485	-59.398188
690.896672	-59.409604
691.055931	-59.723444
691.215264	-60.156417
691.374671	-60.186177
691.534151	-59.854548
691.693704	-59.481376
691.853332	-59.332596
692.013033	-59.693626
692.172807	-60.350864
692.332656	-60.631781
692.492578	-60.162966
692.652575	-59.544163
692.812645	-59.299831
692.972789	-59.508464
693.133007	-60.013240
693.293300	-60.129793
693.453666	-59.638991
693.614107	-59.147061
693.774622	-59.073460
693.935211	-59.361446
694.095875	-59.677702
694.256613	-59.705140
694.417426	-59.374299
694.578313	-59.207224
694.739274	-59.506654
694.900311	-59.974489
695.061421	-60.124298
695.222607	-59.756614
695.383868	-59.280385
695.545203	-59.158372
695.706613	-59.618468
695.868098	-60.281484
696.029658	-60.179147
696.191293	-59.356346
696.353003	-58.597710
696.514789	-58.358280
696.676649	-58.880674
696.838585	-59.896413
697.000596	-60.266095
697.162682	-59.565899
697.324844	-58.719315
697.487081	-58.256415
697.649394	-58.588458
697.811782	-59.794503
697.974246	-60.821495
698.136786	-60.580499
698.299401	-59.491706
698.462092	-58.410889
698.624859	-58.179653
698.787702	-59.062524
698.950621	-60.329949
699.113616	-60.689622
699.276686	-59.611624
699.439833	-58.099987
699.603056	-57.489260
699.766355	-58.136840
699.929731	-59.596627
700.093183	-60.805234
700.256711	-60.278995
700.420315	-58.644207
700.583996	-57.787390
700.747754	-58.230480
700.911588	-59.668361
701.075499	-61.143160
701.239486	-60.824994
701.403550	-59.038476
701.567691	-57.881124
701.731909	-57.969630
701.896203	-58.970571
702.060575	-60.151978
702.225024	-60.261153
702.389549	-59.013224
702.554152	-57.938237
702.718832	-57.839036
702.883589	-58.588435
703.048424	-59.708147
703.213335	-60.486303
703.378324	-59.867868
703.543391	-58.732055
703.708535	-58.326679
703.873757	-58.708930
704.039056	-59.702325
704.204433	-60.676380
704.369887	-60.016161
704.535420	-58.459859
704.701030	-57.753520
704.866718	-58.038785
705.032484	-59.250315
705.198328	-60.750013
705.364250	-59.971263
705.530250	-58.167228
705.696328	-57.419700
705.862485	-57.917427
706.028720	-59.706542
706.195033	-61.841511
706.361424	-60.464925
706.527894	-58.193544
706.694442	-57.403455
706.861069	-57.983734
707.027775	-60.036778
707.194559	-61.896228
707.361422	-59.900955
707.528363	-57.804423
707.695384	-57.194328
707.862483	-57.926493
708.029661	-59.982638
708.196918	-61.278730
708.364254	-59.497200
708.531670	-57.975699
708.699164	-57.685244
708.866738	-58.574205
709.034391	-60.447718
709.202123	-60.971942
709.369935	-59.489471
709.537826	-58.424799
709.705796	-58.244559
709.873847	-59.014201
710.041976	-60.255422
710.210186	-60.225044
710.378475	-59.166642
710.546844	-58.371663
710.715292	-58.202154
710.883821	-58.928517
711.052429	-59.918578
711.221118	-59.991872
711.389887	-59.263810
711.558735	-58.608525
711.727664	-58.652048
711.896673	-59.540875
712.065763	-60.453827
712.234932	-60.244284
712.404183	-59.245327
712.573513	-58.579687
712.742924	-58.847773
712.912416	-59.791559
713.081988	-60.340917
713.251641	-59.583107
713.421375	-58.492169
713.591190	-58.220867
713.761085	-58.987502
713.931061	-60.298919
714.101119	-60.669165
714.271257	-59.550896
714.441476	-58.645089
714.611777	-58.821838
714.782159	-59.959473
714.952622	-61.014338
715.123166	-60.462233
715.293792	-59.106565
715.464499	-58.538367
715.635288	-58.942950
715.806158	-59.943085
715.977110	-60.505187
716.148143	-59.886971
716.319259	-59.013625
716.490456	-58.783384
716.661735	-59.395979
716.833096	-60.470353
717.004538	-61.091264
717.176063	-60.348289
717.347670	-59.235720
717.519359	-58.870698
717.691130	-59.507366
717.862984	-60.799658
718.034920	-61.392776
718.206938	-59.963363
718.379039	-58.588245
718.551222	-58.444387
718.723488	-59.615024
718.895836	-61.802168
719.068267	-61.893930
719.240781	-59.530079
719.413377	-58.297437
719.586057	-58.688723
719.758819	-60.843331
719.931664	-63.420845
720.104593	-61.104849
720.277604	-58.589050
720.450699	-57.957334
720.623876	-59.201173
720.797137	-62.483808
720.970482	-63.322568
721.143910	-59.936236
721.317421	-58.235149
721.491016	-58.374200
721.664694	-60.530707
721.838456	-63.730878
722.012302	-62.059101
722.186231	-59.513929
722.360244	-58.582434
722.534342	-59.323823
722.708523	-61.739303
722.882788	-63.106388
723.057137	-61.357444
723.231570	-59.785085
723.406088	-59.318989
723.580689	-60.388070
723.755375	-62.191994
723.930146	-62.301523
724.105000	-61.073025
724.279940	-59.954239
724.454963	-60.019153
724.630072	-61.285779
724.805265	-62.296787
724.980543	-61.847076
725.155905	-60.832219
725.331353	-60.344218
725.506885	-61.215231
725.682503	-62.336238
725.858205	-62.195494
726.033993	-61.238006
726.209865	-60.640447
726.385823	-61.221362
726.561866	-62.514597
726.737995	-62.402309
726.914209	-61.380519
727.090508	-60.742727
727.266893	-61.277112
727.443364	-62.874390
727.619920	-63.017714
727.796562	-61.678413
727.973290	-60.888617
728.150103	-61.305777
728.327003	-63.021380
728.503988	-63.605851
728.681060	-62.228512
728.858218	-61.319500
729.035461	-61.572510
729.212791	-62.991599
729.390208	-63.665819
729.567710	-62.523832
729.745299	-61.722006
729.922975	-61.837524
730.100737	-62.844381
730.278586	-63.562513
730.456521	-63.002966
730.634543	-62.517777
730.812652	-62.493766
730.990848	-63.088018
731.169130	-63.801013
731.347500	-63.879879
731.525957	-63.560055
731.704500	-62.899819
731.883131	-62.542096
732.061850	-62.938496
732.240655	-63.780812
732.419548	-64.432313
732.598528	-63.520101
732.777596	-62.517092
732.956751	-62.693422
733.135994	-64.287187
733.315325	-66.482213
733.494744	-65.190870
733.674250	-62.925546
733.853844	-62.408921
734.033526	-63.770951
734.213296	-66.569790
734.393154	-65.619781
734.573101	-62.853683
734.753135	-61.930009
734.933258	-63.034511
735.113469	-66.491116
735.293769	-67.848999
735.474157	-64.670823
735.654633	-63.126778
735.835198	-63.580703
736.015852	-66.192040
736.196594	-67.758983
736.377426	-65.399453
736.558346	-63.554488
736.739355	-63.089309
736.920453	-64.389851
737.101640	-66.437969
737.282916	-66.959367
737.464282	-65.650656
737.645736	-64.206851
737.827280	-64.660605
738.008914	-66.720421
738.190637	-68.642283
738.372449	-66.612039
738.554351	-63.885602
738.736342	-63.587793
738.918424	-65.444365
739.100595	-68.470299
739.282855	-67.059153
739.465206	-63.815283
739.647647	-63.406783
739.830178	-65.530934
740.012799	-70.266183
740.195510	-68.537843
740.378311	-64.370659
740.561203	-63.603387
740.744185	-65.453335
740.927258	-69.453215
741.110421	-67.780338
741.293674	-64.016786
741.477018	-63.217570
741.660453	-64.632545
741.843979	-68.210440
742.027596	-68.583302
742.211303	-65.490046
742.395102	-64.440986
742.578991	-65.371477
742.762972	-67.813328
742.947044	-68.004051
743.131207	-65.611454
743.315461	-64.272593
743.499807	-64.198253
743.684244	-65.389825
743.868773	-66.292030
744.053394	-65.964358
744.238106	-64.962164
744.422910	-64.857404
744.607805	-65.856704
744.792793	-66.842818
744.977872	-65.966632
745.163044	-64.554262
745.348307	-64.218703
745.533663	-64.932355
745.719111	-64.989581
745.904651	-63.897909
746.090283	-63.158319
746.276008	-64.006638
746.461826	-65.748614
746.647735	-65.517138
746.833738	-63.718697
747.019833	-63.178687
747.206021	-64.572524
747.392302	-65.761193
747.578676	-63.789547
747.765143	-61.793838
747.951703	-61.574316
748.138356	-63.316710
748.325102	-64.895189
748.511941	-63.561691
748.698874	-61.784348
748.885900	-61.775815
749.073019	-63.600330
749.260232	-64.951854
749.447539	-63.231516
749.634939	-61.109290
749.822433	-60.714621
750.010021	-61.866447
750.197703	-63.149903
750.385479	-62.469739
750.573348	-60.605666
750.761312	-60.226789
750.949370	-61.426915
751.137523	-63.501322
751.325769	-62.799261
751.514110	-60.300005
751.702545	-59.565433
751.891075	-60.556252
752.079700	-62.594668
752.268419	-61.391447
752.457233	-58.992446
752.646142	-58.385807
752.835145	-59.830956
753.024244	-62.643930
753.213437	-61.309876
753.402726	-58.767401
753.592110	-58.283623
753.781589	-60.008939
753.971163	-62.173888
754.160833	-59.821882
754.350598	-57.607515
754.540459	-57.385346
754.730415	-59.137429
754.920467	-60.804237
755.110615	-59.213515
755.300858	-57.706466
755.491198	-57.798973
755.681633	-59.421328
755.872164	-60.064796
756.062792	-58.489960
756.253515	-57.206726
756.444335	-57.226625
756.635252	-58.190149
756.826264	-58.502567
757.017373	-57.614473
757.208579	-56.912858
757.399881	-57.227504
757.591280	-58.313002
757.782776	-58.405182
757.974368	-57.259120
758.166058	-56.475415
758.357844	-56.814366
758.549728	-57.591056
758.741708	-57.122617
758.933786	-56.081229
759.125961	-55.785307
759.318233	-56.724889
759.510603	-57.475430
759.703071	-56.728324
759.895635	-55.783955
760.088298	-55.921801
760.281058	-56.787974
760.473916	-56.598040
760.666872	-55.499134
760.859926	-54.991371
761.053078	-55.585705
761.246328	-56.205131
761.439676	-55.685471
761.633122	-54.964110
761.826667	-55.146367
762.020310	-55.913444
762.214052	-55.835175
762.407892	-54.839888
762.601831	-54.387596
762.795868	-54.843233
762.990004	-55.352085
763.184239	-54.811455
763.378573	-53.997031
763.573006	-54.004456
763.767538	-54.731093
763.962169	-55.214527
764.156900	-54.492568
764.351729	-53.764950
764.546658	-53.739540
764.741687	-54.378372
764.936815	-54.551919
765.132042	-53.737339
765.327370	-53.009141
765.522797	-53.097282
765.718324	-54.030140
765.913950	-54.334840
766.109677	-53.509084
766.305504	-52.731642
766.501431	-53.101531
766.697458	-53.974762
766.893586	-53.672273
767.089814	-52.484093
767.286142	-52.051381
767.482571	-52.864256
767.679100	-53.517397
767.875730	-52.881550
768.072461	-52.037058
768.269293	-52.379765
768.466225	-53.224467
768.663259	-52.983030
768.860393	-51.960643
769.057629	-51.660986
769.254966	-52.272395
769.452404	-52.477759
769.649944	-51.931347
769.847585	-51.523977
770.045328	-51.944849
770.243172	-52.337520
770.441118	-51.996882
770.639166	-51.512247
770.837315	-51.522012
771.035567	-51.747147
771.233920	-51.481505
771.432376	-51.125614
771.630934	-51.077509
771.829594	-51.378322
772.028356	-51.394477
772.227220	-51.177653
772.426188	-51.026955
772.625257	-51.062895
772.824430	-51.074524
773.023705	-50.904858
773.223083	-50.702510
773.422563	-50.467647
773.622147	-50.445313
773.821834	-50.596586
774.021624	-50.809520
774.221517	-50.572395
774.421513	-50.201131
774.621613	-50.209307
774.821816	-50.608962
775.022122	-50.546677
775.222532	-49.828119
775.423046	-49.450587
775.623664	-49.907497
775.824385	-50.494686
776.025211	-50.062279
776.226140	-49.331813
776.427173	-49.448814
776.628311	-50.220863
776.829553	-50.177331
777.030899	-49.209500
777.232350	-48.791016
777.433905	-49.384929
777.635564	-49.928653
777.837328	-49.362865
778.039197	-48.666863
778.241171	-48.930007
778.443250	-49.699615
778.645433	-49.594109
778.847722	-48.652260
779.050116	-48.335132
779.252615	-48.874867
779.455219	-49.366941
779.657929	-48.765294
779.860744	-48.125939
780.063665	-48.342063
780.266691	-49.141121
780.469823	-49.074662
780.673061	-48.175477
780.876405	-47.846447
781.079855	-48.405110
781.283410	-48.817384
781.487072	-48.161972
781.690840	-47.618827
781.894715	-47.953904
782.098695	-48.607301
782.302783	-48.265432
782.506976	-47.619616
782.711277	-47.649979
782.915684	-48.166270
783.120198	-47.981391
783.324818	-47.421521
783.529546	-47.369431
783.734381	-47.843937
783.939322	-47.820675
784.144372	-47.379574
784.349528	-47.296344
784.554792	-47.638100
784.760163	-47.588666
784.965642	-47.133156
785.171228	-47.011757
785.376922	-47.273881
785.582724	-47.305588
785.788634	-46.973228
785.994651	-46.888935
786.200777	-47.125129
786.407011	-47.189435
786.613353	-46.869303
786.819804	-46.671327
787.026363	-46.734981
787.233030	-46.828024
787.439806	-46.664517
787.646691	-46.503195
787.853684	-46.497407
788.060786	-46.656497
788.267997	-46.688238
788.475317	-46.485828
788.682746	-46.213543
788.890285	-46.201504
789.097932	-46.358806
789.305689	-46.305682
789.513555	-46.000954
789.721531	-45.968852
789.929617	-46.257384
790.137812	-46.304462
790.346117	-45.888817
790.554531	-45.698123
790.763056	-45.932530
790.971691	-45.969281
791.180436	-45.591110
791.389291	-45.495736
791.598256	-45.868567
791.807332	-45.931111
792.016518	-45.451802
792.225815	-45.328159
792.435222	-45.682765
792.644740	-45.647631
792.854369	-45.109398
793.064109	-45.047962
793.273960	-45.540617
793.483922	-45.564744
793.693995	-45.009072
793.904180	-44.940711
794.114475	-45.375033
794.324882	-45.320564
794.535401	-44.744250
794.746031	-44.677925
794.956774	-45.108753
795.167627	-45.125134
795.378593	-44.687539
795.589671	-44.630556
795.800861	-44.939919
796.012162	-44.920275
796.223577	-44.531972
796.435103	-44.422563
796.646742	-44.578715
796.858493	-44.635416
797.070357	-44.496181
797.282334	-44.407403
797.494423	-44.424932
797.706626	-44.441768
797.918941	-44.376772
798.131369	-44.226618
798.343911	-44.099394
798.556566	-44.144153
798.769334	-44.221785
798.982215	-44.155062
799.195210	-44.034577
799.408319	-44.029492
799.621541	-44.038240
799.834877	-43.931679
800.048327	-43.822452
800.261890	-43.785320
800.475568	-43.765667
800.689360	-43.800518
800.903266	-43.841719
801.117287	-43.702694
801.331422	-43.512163
801.545671	-43.592905
801.760036	-43.743509
801.974514	-43.474293
802.189108	-43.179821
802.403816	-43.427654
802.618640	-43.743991
802.833578	-43.370539
803.048632	-42.988684
803.263800	-43.287886
803.479085	-43.586238
803.694484	-43.096542
803.909999	-42.769013
804.125630	-43.170345
804.341376	-43.421634
804.557239	-42.933137
804.773217	-42.745448
804.989311	-43.138309
805.205521	-43.138813
805.421847	-42.641954
805.638290	-42.628963
805.854849	-42.997578
806.071524	-42.857095
806.288316	-42.538822
806.505225	-42.701813
806.722250	-42.870090
806.939393	-42.527658
807.156652	-42.363813
807.374028	-42.597915
807.591521	-42.569488
807.809132	-42.287113
808.026859	-42.412070
808.244705	-42.617584
808.462667	-42.302667
808.680748	-42.076327
808.898946	-42.336048
809.117261	-42.357757
809.335695	-41.962290
809.554246	-42.030540
809.772916	-42.421150
809.991704	-42.159165
810.210610	-41.705471
810.429634	-41.979738
810.648777	-42.269695
810.868039	-41.770084
811.087419	-41.498448
811.306918	-42.024198
811.526535	-42.173470
811.746272	-41.524432
811.966127	-41.412279
812.186102	-41.950581
812.406196	-41.854514
812.626409	-41.248574
812.846742	-41.366567
813.067194	-41.886111
813.287766	-41.644638
813.508457	-41.148952
813.729269	-41.328978
813.950200	-41.668620
814.171251	-41.355245
814.392422	-41.003938
814.613714	-41.230125
814.835126	-41.506342
815.056658	-41.241528
815.278311	-40.953207
815.500084	-41.103682
815.721978	-41.279186
815.943993	-41.017325
816.166128	-40.785367
816.388385	-41.014998
816.610762	-41.198775
816.833261	-40.873518
817.055881	-40.677231
817.278623	-40.959334
817.501486	-40.988271
817.724471	-40.554812
817.947577	-40.570460
818.170805	-41.007091
818.394155	-40.818094
818.617627	-40.346700
818.841221	-40.590875
819.064937	-40.923817
819.288775	-40.425224
819.512736	-40.150573
819.736819	-40.686155
819.961025	-40.791486
820.185354	-40.154898
820.409805	-40.173741
820.634379	-40.701836
820.859076	-40.398029
821.083897	-39.904796
821.308840	-40.268864
821.533907	-40.589662
821.759097	-40.085202
821.984411	-39.919367
822.209848	-40.335846
822.435409	-40.215470
822.661093	-39.785259
822.886902	-39.977268
823.112834	-40.241576
823.338891	-39.907802
823.565072	-39.756280
823.791377	-40.038328
824.017807	-39.942561
824.244361	-39.624361
824.471039	-39.753416
824.697843	-39.935444
824.924771	-39.693177
825.151824	-39.576929
825.379002	-39.764140
825.606306	-39.694472
825.833734	-39.456606
826.061288	-39.501523
826.288967	-39.629410
826.516772	-39.513555
826.744703	-39.395907
826.972759	-39.436520
827.200941	-39.439922
827.429249	-39.333682
827.657683	-39.250154
827.886243	-39.290058
828.114930	-39.338832
828.343743	-39.235944
828.572682	-39.119294
828.801748	-39.190273
829.030941	-39.211694
829.260260	-39.002019
829.489706	-38.975777
829.719280	-39.179424
829.948980	-39.062208
830.178808	-38.803118
830.408763	-38.963972
830.638845	-39.090185
830.869055	-38.733647
831.099393	-38.667954
831.329858	-39.040220
831.560451	-38.898696
831.791173	-38.502050
832.022022	-38.731552
832.252999	-38.964271
832.484105	-38.527180
832.715339	-38.410510
832.946702	-38.837779
833.178193	-38.732235
833.409813	-38.321293
833.641561	-38.503765
833.873439	-38.701749
834.105445	-38.361392
834.337581	-38.289619
834.569846	-38.570552
834.802241	-38.453297
835.034764	-38.222599
835.267418	-38.342321
835.500201	-38.358075
835.733114	-38.185295
835.966157	-38.238742
836.199329	-38.287624
836.432632	-38.144821
836.666065	-38.146663
836.899629	-38.168389
837.133323	-38.018653
837.367147	-38.039964
837.601102	-38.130371
837.835188	-37.960996
838.069405	-37.919082
838.303752	-38.062573
838.538231	-37.880098
838.772841	-37.735572
839.007582	-37.975172
839.242455	-37.910510
839.477459	-37.614271
839.712595	-37.812195
839.947863	-37.930557
840.183263	-37.520458
840.418794	-37.547123
840.654458	-37.911664
840.890254	-37.597838
841.126182	-37.346983
841.362242	-37.731440
841.598435	-37.659869
841.834761	-37.224553
842.071220	-37.462348
842.307811	-37.684636
842.544536	-37.259942
842.781393	-37.249577
843.018384	-37.569372
843.255508	-37.276823
843.492765	-37.080402
843.730156	-37.396526
843.967681	-37.315876
844.205339	-37.033615
844.443132	-37.216450
844.681058	-37.251226
844.919118	-36.973980
845.157313	-37.051731
845.395642	-37.166331
845.634105	-36.974328
845.872703	-36.982822
846.111436	-37.048177
846.350303	-36.865801
846.589306	-36.884741
846.828443	-36.986273
847.067716	-36.807192
847.307124	-36.813311
847.546667	-36.939000
847.786345	-36.707532
848.026160	-36.646980
848.266110	-36.875184
848.506195	-36.710578
848.746417	-36.552895
848.986775	-36.778875
849.227269	-36.668916
849.467899	-36.422323
849.708666	-36.648681
849.949569	-36.663681
850.190609	-36.374316
850.431785	-36.538351
850.673099	-36.611173
850.914549	-36.270159
851.156137	-36.389745
851.397861	-36.598480
851.639723	-36.247220
851.881723	-36.244622
852.123860	-36.539230
852.366135	-36.220072
852.608547	-36.074112
852.851098	-36.436537
853.093786	-36.258896
853.336613	-35.982977
853.579578	-36.290890
853.822681	-36.245069
854.065923	-35.900879
854.309304	-36.127061
854.552823	-36.227021
854.796481	-35.890562
855.040278	-35.995593
855.284215	-36.144628
855.528290	-35.842113
855.772505	-35.861533
856.016859	-36.065195
856.261353	-35.847599
856.505987	-35.782830
856.750760	-35.939874
856.995673	-35.782131
857.240727	-35.704246
857.485920	-35.848398
857.731254	-35.750113
857.976729	-35.666341
858.222343	-35.741980
858.468099	-35.638883
858.713995	-35.594568
858.960032	-35.691796
859.206211	-35.584269
859.452530	-35.528607
859.698991	-35.611189
859.945593	-35.488223
860.192336	-35.439842
860.439222	-35.561906
860.686248	-35.448359
860.933417	-35.372802
861.180728	-35.482379
861.428181	-35.354531
861.675776	-35.281510
861.923514	-35.445476
862.171394	-35.324907
862.419417	-35.193086
862.667582	-35.358605
862.915890	-35.261517
863.164342	-35.105657
863.412936	-35.303336
863.661674	-35.253603
863.910555	-35.029453
864.159579	-35.181697
864.408747	-35.198383
864.658059	-34.989456
864.907515	-35.116980
865.157114	-35.152574
865.406858	-34.923483
865.656746	-35.010560
865.906778	-35.090391
866.156955	-34.894424
866.407277	-34.948595
866.657743	-35.022356
866.908354	-34.831359
867.159110	-34.861730
867.410011	-34.961440
867.661057	-34.805919
867.912249	-34.796372
868.163586	-34.876488
868.415069	-34.755939
868.666697	-34.732496
868.918472	-34.798186
869.170392	-34.720657
869.422458	-34.684305
869.674671	-34.704213
869.927030	-34.660399
870.179536	-34.641033
870.432188	-34.625151
870.684987	-34.609892
870.937933	-34.602020
871.191026	-34.527921
871.444266	-34.536407
871.697653	-34.578324
871.951188	-34.455023
872.204870	-34.457486
872.458700	-34.544163
872.712677	-34.381067
872.966803	-34.371068
873.221076	-34.511144
873.475498	-34.325985
873.730068	-34.287789
873.984787	-34.454807
874.239654	-34.264059
874.494669	-34.216835
874.749834	-34.404326
875.005147	-34.203265
875.260610	-34.148241
875.516222	-34.338887
875.771983	-34.129964
876.027894	-34.090618
876.283954	-34.292615
876.540164	-34.061001
876.796524	-34.019288
877.053033	-34.224674
877.309693	-33.999329
877.566503	-33.975621
877.823464	-34.160773
878.080575	-33.917989
878.337837	-33.916712
878.595249	-34.095175
878.852813	-33.859702
879.110528	-33.877218
879.368393	-34.011946
879.626410	-33.778260
879.884579	-33.838509
880.142899	-33.946224
880.401371	-33.717602
880.659994	-33.794323
880.918770	-33.848920
881.177698	-33.651529
881.436778	-33.766791
881.696010	-33.761857
881.955395	-33.589276
882.214933	-33.726058
882.474623	-33.654287
882.734467	-33.530214
882.994463	-33.699165
883.254613	-33.558055
883.514916	-33.467155
883.775372	-33.639383
884.035982	-33.450437
884.296746	-33.431920
884.557664	-33.594469
884.818735	-33.335454
885.079961	-33.376289
885.341341	-33.528038
885.602876	-33.242925
885.864565	-33.352971
886.126409	-33.447528
886.388407	-33.128182
886.650561	-33.314446
886.912870	-33.375129
887.175334	-33.053600
887.437953	-33.273034
887.700728	-33.258797
887.963658	-32.980754
888.226745	-33.248167
888.489987	-33.153566
888.753385	-32.921354
889.016940	-33.194405
889.280651	-33.030482
889.544518	-32.889353
889.808543	-33.147998
890.072723	-32.909762
890.337061	-32.857284
890.601556	-33.072144
890.866208	-32.801359
891.131017	-32.853985
891.395984	-32.987301
891.661109	-32.694815
891.926391	-32.836562
892.191831	-32.889535
892.457429	-32.629351
892.723186	-32.822739
892.989100	-32.765453
893.255173	-32.572144
893.521405	-32.797320
893.787796	-32.658170
894.054345	-32.549771
894.321053	-32.735042
894.587921	-32.541246
894.854948	-32.549782
895.122134	-32.667382
895.389480	-32.452208
895.656986	-32.540821
895.924651	-32.556823
896.192477	-32.399553
896.460463	-32.544905
896.728609	-32.432760
896.996915	-32.357870
897.265382	-32.512788
897.534010	-32.323064
897.802799	-32.363776
898.071749	-32.438815
898.340860	-32.206275
898.610132	-32.379413
898.879566	-32.350835
899.149162	-32.132744
899.418919	-32.370707
899.688838	-32.215992
899.958919	-32.106227
900.229162	-32.356792
900.499568	-32.075891
900.770136	-32.091216
901.040867	-32.288929
901.311761	-31.971574
901.582817	-32.107769
901.854037	-32.162419
902.125420	-31.888718
902.396966	-32.121821
902.668676	-32.019595
902.940550	-31.855554
903.212587	-32.090595
903.484788	-31.865379
903.757153	-31.869320
904.029683	-32.018589
904.302377	-31.734913
904.575236	-31.889546
904.848259	-31.889747
905.121447	-31.660639
905.394800	-31.907293
905.668319	-31.728278
905.942002	-31.628179
906.215852	-31.879558
906.489866	-31.585545
906.764047	-31.646865
907.038393	-31.780737
907.312906	-31.465381
907.587584	-31.682760
907.862429	-31.648673
908.137441	-31.401865
908.412619	-31.674347
908.687964	-31.492115
908.963476	-31.411785
909.239155	-31.623900
909.515002	-31.346539
909.791015	-31.435729
910.067197	-31.517005
910.343546	-31.277076
910.620063	-31.451787
910.896748	-31.350051
911.173601	-31.264413
911.450623	-31.437807
911.727813	-31.211277
912.005171	-31.285778
912.282699	-31.332734
912.560395	-31.137444
912.838261	-31.334977
913.116296	-31.178003
913.394500	-31.114615
913.672874	-31.324821
913.951418	-31.051520
914.230131	-31.163247
914.509015	-31.211570
914.788068	-30.970801
915.067292	-31.233263
915.346687	-31.058502
915.626252	-30.967332
915.905988	-31.214329
916.185895	-30.916012
916.465973	-31.046828
916.746223	-31.092769
917.026644	-30.831612
917.307236	-31.112071
917.588000	-30.921292
917.868937	-30.857822
918.150045	-31.073483
918.431325	-30.761994
918.712778	-30.946684
918.994404	-30.927526
919.276202	-30.697087
919.558173	-30.981611
919.840317	-30.727212
920.122634	-30.751919
920.405125	-30.901641
920.687789	-30.576970
920.970627	-30.828742
921.253639	-30.713960
921.536824	-30.557875
921.820184	-30.812910
922.103718	-30.504806
922.387427	-30.631350
922.671310	-30.669154
922.955368	-30.398082
923.239601	-30.670974
923.524009	-30.451760
923.808592	-30.429856
924.093351	-30.584950
924.378285	-30.278354
924.663396	-30.494224
924.948682	-30.386743
925.234144	-30.240214
925.519782	-30.461440
925.805597	-30.187670
926.091589	-30.297568
926.377757	-30.300978
926.664102	-30.094801
926.950624	-30.306893
927.237323	-30.101420
927.524200	-30.117536
927.811255	-30.180422
928.098487	-29.979651
928.385897	-30.144087
928.673485	-29.991380
928.961251	-29.978352
929.249196	-30.052100
929.537319	-29.864731
929.825621	-30.006899
930.114102	-29.865689
930.402762	-29.851640
930.691601	-29.934945
930.980620	-29.730271
931.269818	-29.883494
931.559196	-29.758000
931.848753	-29.724098
932.138491	-29.828536
932.428409	-29.609835
932.718508	-29.767754
933.008787	-29.653492
933.299246	-29.598762
933.589887	-29.716335
933.880709	-29.497305
934.171712	-29.664558
934.462896	-29.542220
934.754262	-29.489052
935.045810	-29.625387
935.337539	-29.380916
935.629451	-29.572295
935.921545	-29.431046
936.213822	-29.374542
936.506281	-29.549445
936.798922	-29.258409
937.091747	-29.480956
937.384755	-29.345566
937.677946	-29.265570
937.971321	-29.476581
938.264879	-29.149366
938.558621	-29.387738
938.852547	-29.267526
939.146657	-29.161501
939.440952	-29.391736
939.735431	-29.062567
940.030095	-29.310082
940.324943	-29.185441
940.619977	-29.073500
940.915196	-29.312161
941.210600	-28.986008
941.506189	-29.223616
941.801965	-29.092121
942.097926	-29.006563
942.394074	-29.225720
942.690407	-28.911845
942.986927	-29.143399
943.283634	-29.003055
943.580527	-28.952996
943.877608	-29.108225
944.174875	-28.835223
944.472330	-29.070044
944.769972	-28.891873
945.067802	-28.899939
945.365820	-28.989092
945.664026	-28.769256
945.962420	-28.991073
946.261002	-28.763049
946.559773	-28.844817
946.858733	-28.860258
947.157881	-28.687326
947.457219	-28.895122
947.756746	-28.644149
948.056462	-28.789568
948.356368	-28.724090
948.656464	-28.610043
948.956749	-28.784800
949.257225	-28.526804
949.557891	-28.714472
949.858748	-28.571783
950.159796	-28.541578
950.461034	-28.664076
950.762463	-28.412605
951.064084	-28.630185
951.365896	-28.423890
951.667900	-28.468574
951.970095	-28.510899
952.272483	-28.302035
952.575063	-28.530120
952.877835	-28.273600
953.180799	-28.390776
953.483956	-28.348224
953.787307	-28.213451
954.090850	-28.393085
954.394586	-28.117936
954.698516	-28.311280
955.002640	-28.161301
955.306957	-28.129633
955.611469	-28.237055
955.916174	-27.991773
956.221074	-28.217582
956.526169	-27.967428
956.831458	-28.065627
957.136942	-28.049159
957.442622	-27.880179
957.748496	-28.093683
958.054567	-27.803486
958.360833	-28.004939
958.667294	-27.842428
958.973952	-27.819292
959.280806	-27.925675
959.587857	-27.663439
959.895104	-27.915325
960.202548	-27.641618
960.510189	-27.776090
960.818027	-27.713570
961.126062	-27.587465
961.434295	-27.775274
961.742726	-27.470964
962.051355	-27.710936
962.360182	-27.487889
962.669207	-27.544022
962.978431	-27.566364
963.287854	-27.376532
963.597475	-27.597068
963.907296	-27.299893
964.217315	-27.503256
964.527535	-27.331924
964.837954	-27.337401
965.148573	-27.403419
965.459392	-27.191727
965.770411	-27.417793
966.081630	-27.141147
966.393051	-27.315876
966.704672	-27.178966
967.016494	-27.159036
967.328517	-27.241424
967.640742	-27.028531
967.953169	-27.249494
968.265797	-26.990897
968.578627	-27.152015
968.891660	-27.030162
969.204895	-27.005264
969.518332	-27.087862
969.831972	-26.881345
970.145816	-27.098207
970.459862	-26.848091
970.774112	-27.009083
971.088565	-26.889965
971.403223	-26.872804
971.718084	-26.943818
972.033149	-26.753420
972.348419	-26.960619
972.663893	-26.711989
972.979572	-26.889100
973.295456	-26.749263
973.611546	-26.761015
973.927840	-26.804653
974.244340	-26.638069
974.561046	-26.830873
974.877958	-26.580316
975.195076	-26.779269
975.512401	-26.602286
975.829932	-26.664099
976.147670	-26.652000
976.465615	-26.536772
976.783767	-26.688671
977.102126	-26.450961
977.420693	-26.667351
977.739468	-26.440371
978.058451	-26.573992
978.377642	-26.475509
978.697041	-26.444288
979.016649	-26.518161
979.336466	-26.328650
979.656492	-26.528334
979.976727	-26.274606
980.297171	-26.470143
980.617825	-26.278234
980.938689	-26.353284
981.259763	-26.312861
981.581048	-26.218528
981.902542	-26.344480
982.224248	-26.122938
982.546164	-26.324810
982.868291	-26.083855
983.190630	-26.241321
983.513180	-26.086437
983.835942	-26.115201
984.158916	-26.115554
984.482101	-25.993979
984.805500	-26.125518
985.129110	-25.913401
985.452934	-26.084768
985.776970	-25.869445
986.101220	-25.995777
986.425683	-25.868610
986.750359	-25.877807
987.075250	-25.887955
987.400354	-25.770016
987.725673	-25.881326
988.051206	-25.685067
988.376954	-25.838549
988.702916	-25.638098
989.029094	-25.754289
989.355487	-25.638804
989.682095	-25.645189
990.008919	-25.645843
990.335959	-25.537557
990.663216	-25.636819
990.990688	-25.448113
991.318377	-25.603434
991.646283	-25.403735
991.974406	-25.528122
992.302746	-25.394292
992.631304	-25.425340
992.960079	-25.392654
993.289072	-25.316960
993.618283	-25.396038
993.947713	-25.224893
994.277361	-25.378897
994.607227	-25.165994
994.937313	-25.319522
995.267618	-25.135185
995.598142	-25.232134
995.928886	-25.132388
996.259849	-25.130869
996.591033	-25.145315
996.922437	-25.030553
997.254061	-25.139950
997.585906	-24.949465
997.917972	-25.108752
998.250260	-24.899081
998.582768	-25.055372
998.915498	-24.879221
999.248450	-24.974272
999.581624	-24.874740
999.915020	-24.879354
1000.248639	-24.875408
1000.582480	-24.791575
1000.916545	-24.875689
1001.250832	-24.717341
1001.585343	-24.856542
1001.920077	-24.660681
1002.255035	-24.811272
1002.590218	-24.627423
1002.925624	-24.751648
1003.261255	-24.615476
1003.597111	-24.677185
1003.933192	-24.613945
1004.269497	-24.590475
1004.606029	-24.612714
1004.942785	-24.512444
1005.279768	-24.606569
1005.616977	-24.449799
1005.954412	-24.586396
1006.292074	-24.398120
1006.629962	-24.544239
1006.968077	-24.366168
1007.306420	-24.485785
1007.644990	-24.353928
1007.983787	-24.417859
1008.322813	-24.346235
1008.662067	-24.340499
1009.001549	-24.339401
1009.341259	-24.263960
1009.681199	-24.332260
1010.021367	-24.198812
1010.361765	-24.312874
1010.702392	-24.141651
1011.043250	-24.277347
1011.384337	-24.094038
1011.725654	-24.231157
1012.067202	-24.062010
1012.408980	-24.172315
1012.750989	-24.037679
1013.093230	-24.100451
1013.435702	-24.015418
1013.778405	-24.024418
1014.121341	-23.998802
1014.464508	-23.947938
1014.807908	-23.980010
1015.151540	-23.870496
1015.495405	-23.951853
1015.839503	-23.797720
1016.183835	-23.918386
1016.528400	-23.733589
1016.873198	-23.876263
1017.218231	-23.675645
1017.563498	-23.820301
1017.908999	-23.624214
1018.254735	-23.757347
1018.600707	-23.581026
1018.946913	-23.689244
1019.293354	-23.542400
1019.640032	-23.612108
1019.986945	-23.505943
1020.334094	-23.532594
1020.681480	-23.472683
1021.029102	-23.455109
1021.376961	-23.439062
1021.725058	-23.375870
1022.073391	-23.403024
1022.421962	-23.298547
1022.770772	-23.365987
1023.119819	-23.228386
1023.469104	-23.325122
1023.818628	-23.161770
1024.168391	-23.279305
1024.518393	-23.098830
1024.868634	-23.232252
1025.219115	-23.043474
1025.569836	-23.181685
1025.920796	-22.993292
1026.271997	-23.125927
1026.623438	-22.947295
1026.975121	-23.070245
1027.327044	-22.906765
1027.679208	-23.014317
1028.031614	-22.869592
1028.384262	-22.955057
1028.737152	-22.835846
1029.090284	-22.896950
1029.443659	-22.805392
1029.797276	-22.841264
1030.151137	-22.774893
1030.505240	-22.785259
1030.859587	-22.745924
1031.214178	-22.730728
1031.569013	-22.719529
1031.924093	-22.678981
1032.279417	-22.691644
1032.634985	-22.629047
1032.990799	-22.663245
1033.346858	-22.581472
1033.703162	-22.636394
1034.059712	-22.535781
1034.416509	-22.608266
1034.773551	-22.492137
1035.130841	-22.578764
1035.488377	-22.450808
1035.846160	-22.549620
1036.204190	-22.410212
1036.562468	-22.519686
1036.920994	-22.370483
1037.279768	-22.488048
1037.638790	-22.332482
1037.998061	-22.454781
1038.357581	-22.294577
1038.717350	-22.420854
1039.077368	-22.255784
1039.437636	-22.385805
1039.798154	-22.216628
1040.158922	-22.348037
1040.519940	-22.177654
1040.881209	-22.309019
1041.242729	-22.137668
1041.604501	-22.268547
1041.966524	-22.095192
1042.328798	-22.227072
1042.691325	-22.052154
1043.054103	-22.184119
1043.417135	-22.008140
1043.780419	-22.138973
1044.143956	-21.962093
1044.507746	-22.093123
1044.871791	-21.915378
1045.236088	-22.046859
1045.600641	-21.866881
1045.965447	-21.997570
1046.330508	-21.817239
1046.695824	-21.947437
1047.061395	-21.767993
1047.427222	-21.896193
1047.793304	-21.716698
1048.159642	-21.841995
1048.526237	-21.665111
1048.893088	-21.787492
1049.260196	-21.614943
1049.627561	-21.730364
1049.995183	-21.563403
1050.363063	-21.671006
1050.731201	-21.513280
1051.099597	-21.612485
1051.468251	-21.463879
1051.837164	-21.551740
1052.206336	-21.413782
1052.575767	-21.490854
1052.945458	-21.366539
1053.315409	-21.431568
1053.685619	-21.319531
1054.056090	-21.371061
1054.426821	-21.272907
1054.797814	-21.312828
1055.169067	-21.229840
1055.540582	-21.255312
1055.912359	-21.186694
1056.284398	-21.196539
1056.656698	-21.145931
1057.029262	-21.140867
1057.402088	-21.107945
1057.775177	-21.084669
1058.148530	-21.069187
1058.522146	-21.028378
1058.896027	-21.033765
1059.270171	-20.974635
1059.644580	-20.998795
1060.019254	-20.919477
1060.394193	-20.962410
1060.769397	-20.867113
1061.144867	-20.928440
1061.520602	-20.817253
1061.896604	-20.891654
1062.272872	-20.766924
1062.649407	-20.854198
1063.026210	-20.722348
1063.403279	-20.816737
1063.780616	-20.679693
1064.158221	-20.773696
1064.536094	-20.640799
1064.914235	-20.731091
1065.292645	-20.608726
1065.671325	-20.684859
1066.050273	-20.576567
1066.429491	-20.635329
1066.808979	-20.550210
1067.188738	-20.587661
1067.568766	-20.524921
1067.949066	-20.535036
1068.329636	-20.498460
1068.710478	-20.484500
1069.091592	-20.475323
1069.472977	-20.433393
1069.854635	-20.446485
1070.236565	-20.379367
1070.618768	-20.417400
1071.001243	-20.329915
1071.383993	-20.384717
1071.767016	-20.276530
1072.150313	-20.343747
1072.533884	-20.227372
1072.917730	-20.301232
1073.301850	-20.181249
1073.686246	-20.246591
1074.070917	-20.135415
1074.455864	-20.186915
1074.841087	-20.098464
1075.226586	-20.120876
1075.612362	-20.059721
1075.998415	-20.047168
1076.384745	-20.025189
1076.771353	-19.977791
1077.158238	-19.989558
1077.545401	-19.905704
1077.932843	-19.946864
1078.320564	-19.842413
1078.708564	-19.903862
1079.096842	-19.786728
1079.485401	-19.848600
1079.874240	-19.736966
1080.263358	-19.790870
1080.652757	-19.700576
1081.042438	-19.727097
1081.432399	-19.664591
1081.822641	-19.658908
1082.213166	-19.636527
1082.603972	-19.596018
1082.995061	-19.606471
1083.386433	-19.530646
1083.778087	-19.572047
1084.170025	-19.476851
1084.562246	-19.534980
1084.954751	-19.428407
1085.347541	-19.482949
1085.740615	-19.389749
1086.133973	-19.427622
1086.527617	-19.361768
1086.921546	-19.361120
1087.315761	-19.332959
1087.710262	-19.294514
1088.105050	-19.309606
1088.500124	-19.232270
1088.895485	-19.274420
1089.291134	-19.174236
1089.687070	-19.232776
1090.083294	-19.133928
1090.479806	-19.178366
1090.876607	-19.098793
1091.273696	-19.112567
1091.671075	-19.077032
1092.068744	-19.048452
1092.466702	-19.053157
1092.864950	-18.982115
1093.263489	-19.024196
1093.662319	-18.932940
1094.061440	-18.987273
1094.460852	-18.891667
1094.860555	-18.932837
1095.260551	-18.866618
1095.660840	-18.875765
1096.061421	-18.848784
1096.462295	-18.808723
1096.863462	-18.827823
1097.264923	-18.753463
1097.666678	-18.802052
1098.068727	-18.706048
1098.471071	-18.754599
1098.873710	-18.674268
1099.276644	-18.699653
1099.679874	-18.653726
1100.083400	-18.629382
1100.487222	-18.631032
1100.891340	-18.565354
1101.295756	-18.605682
1101.700468	-18.508441
1102.105478	-18.556584
1102.510787	-18.467959
1102.916393	-18.496084
1103.322298	-18.443542
1103.728502	-18.417342
1104.135005	-18.418921
1104.541807	-18.345853
1104.948909	-18.389978
1105.356312	-18.287522
1105.764015	-18.333624
1106.172019	-18.251523
1106.580324	-18.266316
1106.988931	-18.231135
1107.397840	-18.187832
1107.807051	-18.206309
1108.216564	-18.126036
1108.626380	-18.173476
1109.036500	-18.080748
1109.446923	-18.116922
1109.857649	-18.057262
1110.268680	-18.055344
1110.680016	-18.045464
1111.091657	-17.987411
1111.503602	-18.028210
1111.915854	-17.942289
1112.328411	-17.996442
1112.741275	-17.917874
1113.154445	-17.938369
1113.567922	-17.916710
1113.981706	-17.880540
1114.395798	-17.911871
1114.810198	-17.829612
1115.224906	-17.888523
1115.639923	-17.810073
1116.055249	-17.842497
1116.470884	-17.803594
1116.886829	-17.779861
1117.303084	-17.807524
1117.719650	-17.727477
1118.136526	-17.785269
1118.553713	-17.696303
1118.971212	-17.734315
1119.389022	-17.696565
1119.807145	-17.661915
1120.225580	-17.688282
1120.644328	-17.604625
1121.063389	-17.659332
1121.482763	-17.573711
1121.902452	-17.592547
1122.322454	-17.560654
1122.742771	-17.522057
1123.163404	-17.544761
1123.584351	-17.456044
1124.005614	-17.501969
1124.427193	-17.423835
1124.849089	-17.433605
1125.271301	-17.404765
1125.693830	-17.351735
1126.116677	-17.385742
1126.539842	-17.294095
1126.963324	-17.332477
1127.387126	-17.262477
1127.811246	-17.258090
1128.235685	-17.253218
1128.660444	-17.179733
1129.085522	-17.223248
1129.510922	-17.135942
1129.936641	-17.165711
1130.362682	-17.121665
1130.789044	-17.084966
1131.215728	-17.112216
1131.642734	-17.030769
1132.070063	-17.072282
1132.497714	-17.004875
1132.925689	-17.008060
1133.353987	-17.004049
1133.782610	-16.942858
1134.211556	-16.983808
1134.640827	-16.908107
1135.070424	-16.937117
1135.500345	-16.904401
1135.930593	-16.867640
1136.361166	-16.900428
1136.792067	-16.827520
1137.223294	-16.861717
1137.654848	-16.815417
1138.086730	-16.801622
1138.518940	-16.813653
1138.951479	-16.753315
1139.384346	-16.782429
1139.817543	-16.730497
1140.251069	-16.734160
1140.684925	-16.720102
1141.119111	-16.675502
1141.553628	-16.700432
1141.988475	-16.641179
1142.423655	-16.651878
1142.859166	-16.623928
1143.295009	-16.589786
1143.731185	-16.606137
1144.167694	-16.545120
1144.604536	-16.554110
1145.041711	-16.522742
1145.479221	-16.495135
1145.917065	-16.494682
1146.355245	-16.442300
1146.793759	-16.449743
1147.232609	-16.409895
1147.671795	-16.389220
1148.111317	-16.377893
1148.551177	-16.332025
1148.991373	-16.339501
1149.431907	-16.290090
1149.872779	-16.274895
1150.313989	-16.266010
1150.755538	-16.215202
1151.197426	-16.221138
1151.639653	-16.178687
1152.082220	-16.157878
1152.525128	-16.153706
1152.968376	-16.103037
1153.411966	-16.101846
1153.855897	-16.078021
1154.300169	-16.044109
1154.744784	-16.039023
1155.189742	-16.007663
1155.635042	-15.988767
1156.080687	-15.977098
1156.526674	-15.945268
1156.973007	-15.930944
1157.419683	-15.921436
1157.866705	-15.886071
1158.314072	-15.877584
1158.761786	-15.866061
1159.209845	-15.829917
1159.658251	-15.833240
1160.107004	-15.805278
1160.556104	-15.781745
1161.005553	-15.790756
1161.455349	-15.744077
1161.905494	-15.742739
1162.355989	-15.740402
1162.806832	-15.691904
1163.258026	-15.707011
1163.709570	-15.681558
1164.161464	-15.651787
1164.613710	-15.666771
1165.066307	-15.622330
1165.519256	-15.618276
1165.972558	-15.618149
1166.426212	-15.570816
1166.880219	-15.583680
1167.334580	-15.562230
1167.789295	-15.529643
1168.244364	-15.542413
1168.699788	-15.503989
1169.155567	-15.495121
1169.611702	-15.492206
1170.068193	-15.450350
1170.525041	-15.459593
1170.982245	-15.434882
1171.439807	-15.405612
1171.897726	-15.415662
1172.356004	-15.376225
1172.814640	-15.367166
1173.273635	-15.361693
1173.732989	-15.322154
1174.192703	-15.327292
1174.652778	-15.302477
1175.113213	-15.274058
1175.574009	-15.279898
1176.035167	-15.244738
1176.496687	-15.228286
1176.958569	-15.225268
1177.420814	-15.191343
1177.883422	-15.180311
1178.346394	-15.168213
1178.809730	-15.140336
1179.273430	-15.128515
1179.737496	-15.113172
1180.201927	-15.088018
1180.666723	-15.074219
1181.131886	-15.061204
1181.597416	-15.032624
1182.063312	-15.020108
1182.529576	-15.010294
1182.996209	-14.974948
1183.463209	-14.967992
1183.930579	-14.957715
1184.398317	-14.917341
1184.866426	-14.918167
1185.334904	-14.901958
1185.803754	-14.862037
1186.272974	-14.869455
1186.742566	-14.843685
1187.212529	-14.810052
1187.682865	-14.820457
1188.153574	-14.784902
1188.624656	-14.761020
1189.096112	-14.770399
1189.567942	-14.727905
1190.040147	-14.713912
1190.512726	-14.719356
1190.985681	-14.674076
1191.459012	-14.667786
1191.932720	-14.668125
1192.406804	-14.623720
1192.881265	-14.622377
1193.356104	-14.617500
1193.831322	-14.576479
1194.306918	-14.577874
1194.782893	-14.568260
1195.259248	-14.531755
1195.735982	-14.534433
1196.213097	-14.520804
1196.690593	-14.488974
1197.168471	-14.492273
1197.646730	-14.475407
1198.125371	-14.447693
1198.604395	-14.451263
1199.083803	-14.432025
1199.563594	-14.407658
1200.043769	-14.411204
1200.524329	-14.390488
1201.005273	-14.368657
1201.486604	-14.371804
1201.968320	-14.350381
1202.450422	-14.330441
1202.932912	-14.332857
1203.415789	-14.311295
1203.899054	-14.292738
1204.382707	-14.294115
1204.866748	-14.272816
1205.351179	-14.255356
1205.836000	-14.255298
1206.321211	-14.234511
1206.806812	-14.217975
1207.292805	-14.216298
1207.779189	-14.196078
1208.265965	-14.180338
1208.753134	-14.176970
1209.240696	-14.157306
1209.728651	-14.142263
1210.217000	-14.137272
1210.705744	-14.118004
1211.194883	-14.103538
1211.684417	-14.097128
1212.174347	-14.078157
1212.664673	-14.064127
1213.155396	-14.056591
1213.646516	-14.037779
1214.138034	-14.023899
1214.629951	-14.015572
1215.122266	-13.996906
1215.614980	-13.982864
1216.108095	-13.974000
1216.601609	-13.955593
1217.095524	-13.941150
1217.589841	-13.931814
1218.084559	-13.913818
1218.579679	-13.898809
1219.075202	-13.889042
1219.571128	-13.871485
1220.067458	-13.855834
1220.564191	-13.845615
1221.061330	-13.828577
1221.558874	-13.812265
1222.056823	-13.801468
1222.555178	-13.784983
1223.053940	-13.768056
1223.553109	-13.756608
1224.052686	-13.740614
1224.552671	-13.723110
1225.053065	-13.710987
1225.553867	-13.695462
1226.055079	-13.677487
1226.556702	-13.664444
1227.058735	-13.649516
1227.561179	-13.631285
1228.064035	-13.617100
1228.567303	-13.602589
1229.070983	-13.584532
1229.575077	-13.569245
1230.079585	-13.554783
1230.584506	-13.537178
1231.089842	-13.521053
1231.595594	-13.506331
1232.101761	-13.489316
1232.608345	-13.472607
1233.115345	-13.457543
1233.622762	-13.441093
1234.130597	-13.424086
1234.638851	-13.408693
1235.147523	-13.392693
1235.656615	-13.375764
1236.166126	-13.359902
1236.676058	-13.344550
1237.186411	-13.327698
1237.697185	-13.311526
1238.208381	-13.296638
1238.719999	-13.280307
1239.232040	-13.263699
1239.744505	-13.249168
1240.257394	-13.233474
1240.770708	-13.216619
1241.284446	-13.202287
1241.798610	-13.187246
1242.313201	-13.170243
1242.828218	-13.155911
1243.343662	-13.141755
1243.859534	-13.124640
1244.375834	-13.109991
1244.892563	-13.096543
1245.409721	-13.079883
1245.927309	-13.064640
1246.445327	-13.051441
1246.963777	-13.035510
1247.482657	-13.019907
1248.001970	-13.006393
1248.521716	-12.991237
1249.041894	-12.975562
1249.562506	-12.961361
1250.083553	-12.946784
1250.605034	-12.931472
1251.126950	-12.916339
1251.649302	-12.901892
1252.172091	-12.887310
1252.695316	-12.871476
1253.218979	-12.856728
1253.743079	-12.842730
1254.267619	-12.826572
1254.792597	-12.811454
1255.318015	-12.797956
1255.843874	-12.781737
1256.370173	-12.766045
1256.896913	-12.752721
1257.424095	-12.737223
1257.951720	-12.721270
1258.479787	-12.707090
1259.008298	-12.692513
1259.537254	-12.677293
1260.066654	-12.662230
1260.596499	-12.647693
1261.126790	-12.633563
1261.657527	-12.618373
1262.188711	-12.603739
1262.720342	-12.590359
1263.252422	-12.575304
1263.784950	-12.560691
1264.317928	-12.548021
1264.851355	-12.533632
1265.385232	-12.519022
1265.919560	-12.506278
1266.454340	-12.492875
1266.989572	-12.479171
1267.525256	-12.466003
1268.061394	-12.452997
1268.597985	-12.440566
1269.135031	-12.427331
1269.672531	-12.414444
1270.210487	-12.403111
1270.748899	-12.390225
1271.287768	-12.377411
1271.827094	-12.366526
1272.366877	-12.354363
1272.907119	-12.342191
1273.447820	-12.331135
1273.988981	-12.319530
1274.530601	-12.308415
1275.072683	-12.297007
1275.615226	-12.285871
1276.158230	-12.275993
1276.701697	-12.264375
1277.245627	-12.253349
1277.790021	-12.244271
1278.334879	-12.233431
1278.880202	-12.222828
1279.425991	-12.213190
1279.972245	-12.203374
1280.518966	-12.194301
1281.066155	-12.183937
1281.613811	-12.174358
1282.161936	-12.166538
1282.710529	-12.156694
1283.259593	-12.147560
1283.809126	-12.139594
1284.359131	-12.130710
1284.909607	-12.122730
1285.460555	-12.114206
1286.011976	-12.106332
1286.563870	-12.099376
1287.116237	-12.090517
1287.669080	-12.083264
1288.222397	-12.076953
1288.776191	-12.069184
1289.330460	-12.062071
1289.885207	-12.054740
1290.440431	-12.048494
1290.996133	-12.042627
1291.552314	-12.034760
1292.108975	-12.028439
1292.666115	-12.022630
1293.223737	-12.015926
1293.781839	-12.009902
1294.340424	-12.003219
1294.899491	-11.997391
1295.459041	-11.991534
1296.019075	-11.984346
1296.579593	-11.978844
1297.140597	-11.972983
1297.702086	-11.966312
1298.264061	-11.960218
1298.826524	-11.953572
1299.389474	-11.948055
1299.952912	-11.941700
1300.516839	-11.934391
1301.081255	-11.928777
1301.646162	-11.922336
1302.211559	-11.915809
1302.777448	-11.909074
1303.343829	-11.901993
1303.910702	-11.896413
1304.478069	-11.889277
1305.045930	-11.882069
1305.614285	-11.875669
1306.183136	-11.868582
1306.752483	-11.862139
1307.322326	-11.854401
1307.892666	-11.847294
1308.463504	-11.840964
1309.034841	-11.833113
1309.606677	-11.825865
1310.179012	-11.818208
1310.751849	-11.811142
1311.325186	-11.803970
1311.899025	-11.795289
1312.473366	-11.787876
1313.048211	-11.780320
1313.623559	-11.772616
1314.199412	-11.764387
1314.775770	-11.755463
1315.352634	-11.747984
1315.930004	-11.739940
1316.507881	-11.731305
1317.086266	-11.722559
1317.665159	-11.713695
1318.244562	-11.705736
1318.824474	-11.696871
1319.404897	-11.687634
1319.985831	-11.678918
1320.567276	-11.669927
1321.149234	-11.661291
1321.731706	-11.651794
1322.314691	-11.642442
1322.898190	-11.633869
1323.482205	-11.624473
1324.066736	-11.615453
1324.651783	-11.605697
1325.237347	-11.596632
1325.823430	-11.588005
1326.410031	-11.578265
1326.997151	-11.569313
1327.584791	-11.559559
1328.172952	-11.551027
1328.761634	-11.542110
1329.350839	-11.532514
1329.940566	-11.523809
1330.530817	-11.514246
1331.121592	-11.506202
1331.712891	-11.496911
1332.304716	-11.488012
1332.897068	-11.479411
1333.489946	-11.470368
1334.083352	-11.462512
1334.677287	-11.453153
1335.271750	-11.445124
1335.866744	-11.436498
1336.462268	-11.428290
1337.058323	-11.420310
1337.654910	-11.411525
1338.252029	-11.404125
1338.849682	-11.395731
1339.447869	-11.388369
1340.046591	-11.380251
1340.645848	-11.372476
1341.245641	-11.365346
1341.845972	-11.357697
1342.446840	-11.350862
1343.048246	-11.343075
1343.650191	-11.336315
1344.252677	-11.329472
1344.855702	-11.322778
1345.459269	-11.316263
1346.063379	-11.309267
1346.668030	-11.303282
1347.273226	-11.296985
1347.878965	-11.291187
1348.485250	-11.285101
1349.092080	-11.279056
1349.699456	-11.273752
1350.307380	-11.268116
1350.915851	-11.263153
1351.524871	-11.257539
1352.134441	-11.252587
1352.744560	-11.247790
1353.355231	-11.243064
1353.966453	-11.238721
1354.578227	-11.233731
1355.190555	-11.229812
1355.803436	-11.225394
1356.416872	-11.221862
1357.030863	-11.217747
1357.645411	-11.213921
1358.260515	-11.210422
1358.876177	-11.206853
1359.492397	-11.204048
1360.109176	-11.200345
1360.726516	-11.197595
1361.344416	-11.194193
1361.962877	-11.191826
1362.581901	-11.189003
1363.201487	-11.186395
1363.821637	-11.183845
1364.442352	-11.181169
1365.063632	-11.179304
1365.685478	-11.176740
1366.307891	-11.174989
1366.930871	-11.172371
1367.554420	-11.170712
1368.178538	-11.168595
1368.803226	-11.166949
1369.428485	-11.165059
1370.054315	-11.163088
1370.680717	-11.161566
1371.307693	-11.159668
1371.935242	-11.158480
1372.563366	-11.156448
1373.192065	-11.155163
1373.821341	-11.153247
1374.451193	-11.152066
1375.081623	-11.150471
1375.712632	-11.149034
1376.344221	-11.147490
1376.976389	-11.145785
1377.609139	-11.144543
1378.242470	-11.142757
1378.876384	-11.141551
1379.510881	-11.139497
1380.145963	-11.138177
1380.781629	-11.136169
1381.417881	-11.134794
1382.054720	-11.132825
1382.692147	-11.131098
1383.330161	-11.129167
1383.968765	-11.127223
1384.607959	-11.125484
1385.247743	-11.123249
1385.888119	-11.121436
1386.529087	-11.118848
1387.170648	-11.117019
1387.812804	-11.114327
1388.455554	-11.112369
1389.098899	-11.109430
1389.742842	-11.107105
1390.387381	-11.104068
1391.032519	-11.101530
1391.678256	-11.098544
1392.324592	-11.095618
1392.971529	-11.092525
1393.619068	-11.089207
1394.267208	-11.086206
1394.915952	-11.082694
1395.565300	-11.079737
1396.215253	-11.075878
1396.865812	-11.072785
1397.516977	-11.068686
1398.168749	-11.065560
1398.821130	-11.061318
1399.474120	-11.057979
1400.127719	-11.053488
1400.781930	-11.049854
1401.436752	-11.045278
1402.092186	-11.041448
1402.748234	-11.036830
1403.404897	-11.032698
1404.062174	-11.028041
1404.720067	-11.023705
1405.378577	-11.019189
1406.037705	-11.014747
1406.697451	-11.010334
1407.357817	-11.005693
1408.018803	-11.001344
1408.680410	-10.996596
1409.342639	-10.992378
1410.005492	-10.987522
1410.668968	-10.983303
1411.333068	-10.978233
1411.997795	-10.973968
1412.663147	-10.968795
1413.329127	-10.964585
1413.995736	-10.959378
1414.662973	-10.955200
1415.330840	-10.949979
1415.999339	-10.945902
1416.668469	-10.940832
1417.338232	-10.936993
1418.008628	-10.932170
1418.679659	-10.928572
1419.351325	-10.923970
1420.023628	-10.920585
1420.696568	-10.916194
1421.370145	-10.912932
1422.044362	-10.908617
1422.719219	-10.905314
1423.394717	-10.900933
1424.070856	-10.897476
1424.747638	-10.892945
1425.425064	-10.889270
1426.103134	-10.884539
1426.781850	-10.880640
1427.461212	-10.875788
1428.141221	-10.871844
1428.821878	-10.867074
1429.503185	-10.863298
1430.185141	-10.858766
1430.867749	-10.855327
1431.551008	-10.851182
1432.234920	-10.848254
1432.919486	-10.844569
1433.604707	-10.842141
1434.290583	-10.838725
1434.977116	-10.836533
1435.664307	-10.833063
1436.352156	-10.830761
1437.040664	-10.826857
1437.729833	-10.823970
1438.419663	-10.819178
1439.110156	-10.815213
1439.801312	-10.809239
1440.493132	-10.803915
1441.185617	-10.796731
1441.878768	-10.790007
1442.572586	-10.781810
1443.267072	-10.773891
1443.962228	-10.765141
1444.658053	-10.756570
1445.354549	-10.747915
1446.051717	-10.739370
1446.749558	-10.731395
1447.448073	-10.723502
1448.147263	-10.716624
1448.847128	-10.709830
1449.547671	-10.704195
1450.248891	-10.698593
1450.950789	-10.693920
1451.653368	-10.689105
1452.356627	-10.684731
1453.060568	-10.679904
1453.765192	-10.674914
1454.470500	-10.668967
1455.176492	-10.662294
1455.883170	-10.654004
1456.590534	-10.644650
1457.298586	-10.633019
1458.007327	-10.620279
1458.716758	-10.604807
1459.426880	-10.588435
1460.137693	-10.569302
1460.849199	-10.549602
1461.561398	-10.527732
1462.274293	-10.505647
1462.987883	-10.482573
1463.702170	-10.459563
1464.417155	-10.437083
1465.132838	-10.414937
1465.849222	-10.394839
1466.566306	-10.375436
1467.284093	-10.359157
1468.002582	-10.344048
1468.721775	-10.332451
1469.441674	-10.322538
1470.162278	-10.315814
1470.883590	-10.311094
1471.605609	-10.308687
1472.328338	-10.308162
1473.051777	-10.308769
1473.775928	-10.310583
1474.500790	-10.312233
1475.226367	-10.313938
1475.952657	-10.314201
1476.679663	-10.313140
1477.407386	-10.309467
1478.135826	-10.303161
1478.864985	-10.293281
1479.594863	-10.279827
1480.325463	-10.262229
1481.056784	-10.240669
1481.788828	-10.214957
1482.521597	-10.185501
1483.255090	-10.152615
1483.989309	-10.116806
1484.724256	-10.079047
1485.459931	-10.039760
1486.196336	-10.000540
1486.933471	-9.961675
1487.671337	-9.925062
1488.409937	-9.891022
1489.149270	-9.861246
1489.889337	-9.836345
1490.630141	-9.817345
1491.371682	-9.805292
1492.113961	-9.800367
1492.856979	-9.803988
1493.600738	-9.815679
1494.345238	-9.836884
1495.090481	-9.866922
1495.836467	-9.906724
1496.583198	-9.955918
1497.330675	-10.014401
1498.078899	-10.082375
1498.827872	-10.158473
1499.577593	-10.243188
1500.328065	-10.334135
1501.079289	-10.431206
1501.831265	-10.531592
1502.583995	-10.633582
1503.337480	-10.734550
1504.091721	-10.830872
1504.846719	-10.920401
1505.602475	-10.998487
1506.358991	-11.063535
1507.116268	-11.111732
1507.874306	-11.142179
1508.633108	-11.153681
1509.392673	-11.146380
1510.153004	-11.122312
1510.914101	-11.083060
1511.675965	-11.033158
1512.438599	-10.975795
1513.202002	-10.916639
1513.966176	-10.860211
1514.731122	-10.812132
1515.496842	-10.777672
1516.263336	-10.761559
1517.030607	-10.769123
1517.798654	-10.803609
1518.567479	-10.869539
1519.337083	-10.968576
1520.107468	-11.102999
1520.878634	-11.273136
1521.650584	-11.477237
1522.423317	-11.713530
1523.196836	-11.975072
1523.971141	-12.254761
1524.746233	-12.539745
1525.522115	-12.813118
1526.298786	-13.055127
1527.076249	-13.239220
1527.854504	-13.341417
1528.633553	-13.338662
1529.413397	-13.216977
1530.194037	-12.977081
1530.975474	-12.629636
1531.757709	-12.198933
1532.540745	-11.712429
1533.324581	-11.197504
1534.109220	-10.680553
1534.894662	-10.180625
1535.680909	-9.714731
1536.467961	-9.294882
1537.255821	-8.929484
1538.044489	-8.626443
1538.833967	-8.389848
1539.624256	-8.224451
1540.415357	-8.133674
1541.207271	-8.120016
1542.000000	-8.187493
1542.793545	-8.338495
1543.587907	-8.577335
1544.383087	-8.908786
1545.179088	-9.338127
1545.975909	-9.874058
1546.773552	-10.526224
1547.572019	-11.309258
1548.371311	-12.243451
1549.171428	-13.356960
1549.972373	-14.693464
1550.774147	-16.318071
1551.576751	-18.337247
1552.380185	-20.923868
1553.184453	-24.315000
1553.989554	-28.118993
1554.795490	-28.075361
1555.602263	-24.385783
1556.409873	-21.164766
1557.218322	-18.736777
1558.027612	-16.858447
1558.837743	-15.359322
1559.648717	-14.132853
1560.460536	-13.110970
1561.273200	-12.250730
1562.086710	-11.520158
1562.901069	-10.897584
1563.716278	-10.367039
1564.532337	-9.914955
1565.349249	-9.532236
1566.167014	-9.210444
1566.985634	-8.942495
1567.805111	-8.723275
1568.625444	-8.547029
1569.446637	-8.409379
1570.268690	-8.306374
1571.091605	-8.233564
1571.915382	-8.187712
1572.740024	-8.165161
1573.565532	-8.162400
1574.391907	-8.176638
1575.219150	-8.204544
1576.047262	-8.243519
1576.876246	-8.291172
1577.706103	-8.344955
1578.536833	-8.403352
1579.368439	-8.464670
1580.200922	-8.527635
1581.034282	-8.591824
1581.868522	-8.656442
1582.703643	-8.721459
1583.539646	-8.787076
1584.376532	-8.853124
1585.214304	-8.920165
1586.052962	-8.988251
1586.892508	-9.057376
1587.732943	-9.127889
1588.574269	-9.199285
1589.416487	-9.271533
1590.259599	-9.344444
1591.103605	-9.417229
1591.948508	-9.490009
1592.794309	-9.562300
1593.641009	-9.633671
1594.488609	-9.704663
1595.337112	-9.774856
1596.186518	-9.844660
1597.036829	-9.914895
1597.888047	-9.985360
1598.740172	-10.057170
1599.593207	-10.131013
1600.447153	-10.206762
1601.302010	-10.285818
1602.157782	-10.368356
1603.014469	-10.454280
1603.872072	-10.544866
1604.730593	-10.639773
1605.590034	-10.738980
1606.450397	-10.843456
1607.311681	-10.952496
1608.173890	-11.066217
1609.037024	-11.185155
1609.901085	-11.308424
1610.766075	-11.436160
1611.631995	-11.568406
1612.498846	-11.704203
1613.366630	-11.843576
1614.235349	-11.986111
1615.105004	-12.130842
1615.975596	-12.277696
1616.847128	-12.425912
1617.719600	-12.574600
1618.593014	-12.723555
1619.467372	-12.871921
1620.342675	-13.018919
1621.218924	-13.164281
1622.096122	-13.307209
1622.974270	-13.447178
1623.853369	-13.584001
1624.733420	-13.717069
1625.614427	-13.846239
1626.496389	-13.971520
1627.379308	-14.092585
1628.263187	-14.209692
1629.148026	-14.323063
1630.033828	-14.432515
1630.920593	-14.538712
1631.808324	-14.642032
1632.697022	-14.742250
1633.586688	-14.840220
1634.477324	-14.936453
1635.368932	-15.030523
1636.261514	-15.123204
1637.155070	-15.214992
1638.049602	-15.305245
1638.945113	-15.394556
1639.841603	-15.483145
1640.739075	-15.570107
1641.637529	-15.655856
1642.536968	-15.740369
1643.437393	-15.822428
1644.338806	-15.902328
1645.241209	-15.979909
1646.144602	-16.053793
1647.048988	-16.124189
1647.954368	-16.190982
1648.860744	-16.252829
1649.768118	-16.309965
1650.676491	-16.362474
1651.585865	-16.409226
1652.496241	-16.450573
1653.407621	-16.486873
1654.320008	-16.517364
1655.233401	-16.542484
1656.147804	-16.562795
1657.063218	-16.577946
1657.979645	-16.588460
1658.897085	-16.594868
1659.815542	-16.597034
1660.735016	-16.595572
1661.655509	-16.590909
1662.577023	-16.582882
1663.499560	-16.572081
1664.423121	-16.558838
1665.347709	-16.542822
1666.273324	-16.524483
1667.199969	-16.504142
1668.127645	-16.481335
1669.056353	-16.456319
1669.986097	-16.429421
1670.916877	-16.400204
1671.848695	-16.368744
1672.781553	-16.335430
1673.715452	-16.299912
1674.650395	-16.262190
1675.586383	-16.222734
1676.523418	-16.181319
1677.461501	-16.137874
1678.400635	-16.092962
1679.340821	-16.046690
1680.282061	-15.998854
1681.224357	-15.949907
1682.167710	-15.900235
1683.112122	-15.849719
1684.057595	-15.798569
1685.004132	-15.747140
1685.951732	-15.695380
1686.900400	-15.643341
1687.850135	-15.591303
1688.800940	-15.539199
1689.752818	-15.486945
1690.705768	-15.434775
1691.659795	-15.382678
1692.614898	-15.330444
1693.571081	-15.278252
1694.528345	-15.226217
1695.486691	-15.174134
1696.446122	-15.122055
1697.406640	-15.070202
1698.368245	-15.018451
1699.330941	-14.966754
1700.294729	-14.915417
1701.259611	-14.864413
1702.225588	-14.813585
1703.192664	-14.763251
1704.160838	-14.713556
1705.130114	-14.664185
1706.100493	-14.615226
1707.071977	-14.567006
1708.044568	-14.519283
1709.018268	-14.471827
1709.993079	-14.424938
1710.969003	-14.378677
1711.946041	-14.332685
1712.924196	-14.287060
1713.903469	-14.242128
1714.883862	-14.197680
1715.865378	-14.153565
1716.848017	-14.110100
1717.831783	-14.067356
1718.816677	-14.025069
1719.802701	-13.983307
1720.789857	-13.942301
1721.778147	-13.901893
1722.767573	-13.861878
1723.758136	-13.822429
1724.749840	-13.783636
1725.742685	-13.745278
1726.736673	-13.707294
1727.731808	-13.669844
1728.728090	-13.632912
1729.725521	-13.596353
1730.724105	-13.560215
1731.723842	-13.524603
1732.724735	-13.489433
1733.726785	-13.454623
1734.729995	-13.420238
1735.734366	-13.386305
1736.739902	-13.352723
1737.746603	-13.319486
1738.754472	-13.286665
1739.763510	-13.254236
1740.773721	-13.222164
1741.785105	-13.190549
1742.797665	-13.159459
1743.811403	-13.128838
1744.826321	-13.098698
1745.842422	-13.069184
1746.859706	-13.040314
1747.878177	-13.011978
1748.897835	-12.984207
1749.918685	-12.957118
1750.940726	-12.930661
1751.963963	-12.904724
1752.988395	-12.879357
1754.014027	-12.854628
1755.040860	-12.830457
1756.068895	-12.806767
1757.098135	-12.783619
1758.128583	-12.761049
1759.160240	-12.738979
1760.193109	-12.717388
1761.227191	-12.696358
1762.262488	-12.675904
1763.299004	-12.655951
1764.336740	-12.636482
1765.375697	-12.617516
1766.415880	-12.598999
1767.457288	-12.580838
1768.499926	-12.562975
1769.543794	-12.545355
1770.588895	-12.527892
1771.635231	-12.510521
1772.682805	-12.493225
1773.731619	-12.475991
1774.781674	-12.458802
1775.832973	-12.441681
1776.885519	-12.424669
1777.939312	-12.407762
1778.994357	-12.390943
1780.050654	-12.374240
1781.108207	-12.357665
1782.167017	-12.341154
1783.227087	-12.324655
1784.288418	-12.308214
1785.351013	-12.291893
1786.414875	-12.275675
1787.480006	-12.259521
1788.546407	-12.243491
1789.614082	-12.227685
1790.683032	-12.212117
1791.753259	-12.196763
1792.824767	-12.181662
1793.897557	-12.166881
1794.971632	-12.152446
1796.046994	-12.138319
1797.123645	-12.124476
1798.201588	-12.110948
1799.280824	-12.097743
1800.361357	-12.084815
1801.443188	-12.072150
1802.526320	-12.059795
1803.610756	-12.047789
1804.696497	-12.036151
1805.783546	-12.024933
1806.871906	-12.014219
1807.961578	-12.004057
1809.052565	-11.994428
1810.144870	-11.985303
1811.238494	-11.976679
1812.333441	-11.968521
1813.429713	-11.960752
1814.527311	-11.953294
1815.626239	-11.946117
1816.726499	-11.939211
1817.828094	-11.932558
1818.931025	-11.926126
1820.035295	-11.919913
1821.140906	-11.913936
1822.247862	-11.908176
1823.356165	-11.902583
1824.465816	-11.897120
1825.576819	-11.891760
1826.689175	-11.886462
1827.802888	-11.881177
1828.917960	-11.875893
1830.034394	-11.870644
1831.152191	-11.865457
1832.271354	-11.860342
1833.391887	-11.855329
1834.513790	-11.850460
1835.637068	-11.845759
1836.761722	-11.841225
1837.887755	-11.836854
1839.015169	-11.832644
1840.143968	-11.828608
1841.274153	-11.824764
1842.405727	-11.821100
1843.538693	-11.817589
1844.673053	-11.814220
1845.808810	-11.810985
1846.945966	-11.807870
1848.084525	-11.804874
1849.224488	-11.802013
1850.365858	-11.799326
1851.508638	-11.796848
1852.652831	-11.794570
1853.798438	-11.792467
1854.945463	-11.790507
1856.093909	-11.788644
1857.243777	-11.786837
1858.395071	-11.785073
1859.547794	-11.783380
1860.701947	-11.781811
1861.857533	-11.780430
1863.014556	-11.779282
1864.173018	-11.778385
1865.332922	-11.777725
1866.494270	-11.777265
1867.657065	-11.776960
1868.821309	-11.776769
1869.987006	-11.776686
1871.154158	-11.776743
1872.322768	-11.776989
1873.492839	-11.777474
1874.664373	-11.778252
1875.837373	-11.779346
1877.011841	-11.780749
1878.187782	-11.782423
1879.365197	-11.784322
1880.544089	-11.786426
1881.724460	-11.788738
1882.906315	-11.791272
1884.089655	-11.794045
1885.274483	-11.797085
1886.460803	-11.800425
1887.648616	-11.804081
1888.837927	-11.808028
1890.028736	-11.812225
1891.221049	-11.816651
1892.414866	-11.821322
1893.610192	-11.826255
1894.807028	-11.831446
1896.005379	-11.836866
1897.205246	-11.842465
1898.406633	-11.848183
1899.609542	-11.853978
1900.813977	-11.859839
1902.019940	-11.865784
1903.227434	-11.871853
1904.436462	-11.878099
1905.647028	-11.884561
1906.859133	-11.891239
1908.072781	-11.898104
1909.287976	-11.905100
1910.504719	-11.912174
1911.723013	-11.919287
1912.942863	-11.926427
1914.164270	-11.933623
1915.387238	-11.940925
1916.611770	-11.948381
1917.837868	-11.956014
1919.065536	-11.963809
1920.294777	-11.971726
1921.525594	-11.979726
1922.757989	-11.987778
1923.991967	-11.995853
1925.227529	-12.003918
1926.464679	-12.011963
1927.703420	-12.019989
1928.943755	-12.028012
1930.185688	-12.036045
1931.429221	-12.044090
1932.674356	-12.052155
1933.921099	-12.060259
1935.169451	-12.068430
1936.419415	-12.076697
1937.670996	-12.085086
1938.924195	-12.093646
1940.179017	-12.102434
1941.435463	-12.111525
1942.693538	-12.120984
1943.953245	-12.130853
1945.214586	-12.141149
1946.477566	-12.151863
1947.742186	-12.162969
1949.008451	-12.174439
1950.276363	-12.186258
1951.545926	-12.198428
1952.817143	-12.210954
1954.090017	-12.223858
1955.364551	-12.237151
1956.640749	-12.250817
1957.918615	-12.264826
1959.198150	-12.279126
1960.479359	-12.293631
1961.762244	-12.308249
1963.046810	-12.322908
1964.333059	-12.337560
1965.620995	-12.352219
1966.910621	-12.366965
1968.201940	-12.381923
1969.494956	-12.397213
1970.789672	-12.412906
1972.086091	-12.428998
1973.384217	-12.445412
1974.684053	-12.462041
1975.985602	-12.478807
1977.288869	-12.495678
1978.593855	-12.512689
1979.900566	-12.529934
1981.209003	-12.547497
1982.519171	-12.565429
1983.831073	-12.583696
1985.144712	-12.602177
1986.460093	-12.620690
1987.777217	-12.639058
1989.096089	-12.657161
1990.416713	-12.674976
1991.739092	-12.692592
1993.063228	-12.710158
1994.389127	-12.727833
1995.716791	-12.745702
1997.046223	-12.763736
1998.377428	-12.781819
1999.710409	-12.799810
2001.045169	-12.817640
2002.381713	-12.835352
2003.720043	-12.853102
2005.060163	-12.871087
2006.402077	-12.889491
2007.745788	-12.908418
2009.091301	-12.927854
2010.438618	-12.947707
2011.787743	-12.967840
2013.138680	-12.988149
2014.491433	-13.008592
2015.846005	-13.029214
2017.202399	-13.050124
2018.560621	-13.071460
2019.920673	-13.093324
2021.282558	-13.115756
2022.646281	-13.138723
2024.011846	-13.162152
2025.379256	-13.185954
2026.748515	-13.210066
2028.119626	-13.234488
2029.492594	-13.259308
2030.867422	-13.284674
2032.244114	-13.310755
2033.622673	-13.337666
2035.003104	-13.365404
2036.385411	-13.393856
2037.769597	-13.422835
2039.155665	-13.452160
2040.543621	-13.481742
2041.933467	-13.511601
2043.325208	-13.541857
2044.718847	-13.572643
2046.114389	-13.604021
2047.511837	-13.635951
2048.911195	-13.668270
2050.312467	-13.700781
2051.715657	-13.733314
2053.120769	-13.765831
2054.527807	-13.798414
2055.936775	-13.831230
2057.347677	-13.864395
2058.760516	-13.897934
2060.175297	-13.931734
2061.592025	-13.965643
2063.010701	-13.999537
2064.431332	-14.033394
2065.853921	-14.067279
2067.278472	-14.101298
2068.704988	-14.135532
2070.133475	-14.170026
2071.563936	-14.204778
2072.996375	-14.239752
2074.430796	-14.274885
2075.867204	-14.310150
2077.305603	-14.345574
2078.745996	-14.381270
2080.188389	-14.417381
2081.632784	-14.453999
2083.079187	-14.491141
2084.527601	-14.528774
2085.978030	-14.566876
2087.430480	-14.605443
2088.884954	-14.644426
2090.341455	-14.683710
2091.799990	-14.723196
2093.260561	-14.762933
2094.723173	-14.803168
2096.187831	-14.844202
2097.654538	-14.886200
2099.123300	-14.929101
2100.594119	-14.972742
2102.067001	-15.017045
2103.541950	-15.062117
2105.018971	-15.108191
2106.498067	-15.155415
2107.979243	-15.203771
2109.462503	-15.253016
2110.947853	-15.302877
2112.435295	-15.353171
2113.924836	-15.403885
2115.416478	-15.455115
2116.910227	-15.506937
2118.406087	-15.559284
2119.904063	-15.611934
2121.404158	-15.664630
2122.906378	-15.717246
2124.410727	-15.769902
2125.917210	-15.822850
2127.425831	-15.876250
2128.936594	-15.930040
2130.449505	-15.983931
2131.964567	-16.037582
2133.481786	-16.090751
2135.001166	-16.143437
2136.522711	-16.195849
2138.046427	-16.248268
2139.572317	-16.300822
2141.100388	-16.353402
2142.630642	-16.405758
2144.163085	-16.457719
2145.697722	-16.509246
2147.234558	-16.560464
2148.773596	-16.611532
2150.314842	-16.662654
2151.858301	-16.714046
2153.403977	-16.765938
2154.951875	-16.818417
2156.502000	-16.871307
2158.054357	-16.924351
2159.608950	-16.977495
2161.165785	-17.031147
2162.724866	-17.085899
2164.286198	-17.142064
2165.849786	-17.199399
2167.415635	-17.257395
2168.983749	-17.315861
2170.554134	-17.375247
2172.126795	-17.436380
2173.701737	-17.499755
2175.278964	-17.565074
2176.858481	-17.631485
2178.440294	-17.698214
2180.024408	-17.765195
2181.610827	-17.833058
2183.199557	-17.902548
2184.790602	-17.973932
2186.383968	-18.046813
2187.979660	-18.120618
2189.577683	-18.195086
2191.178041	-18.270443
2192.780741	-18.346976
2194.385787	-18.424699
2195.993185	-18.503231
2197.602939	-18.582087
2199.215054	-18.660919
2200.829537	-18.739552
2202.446392	-18.817880
2204.065624	-18.895822
2205.687239	-18.973394
2207.311242	-19.050756
2208.937638	-19.127951
2210.566433	-19.204641
2212.197631	-19.280045
2213.831239	-19.353395
2215.467261	-19.424513
2217.105703	-19.494125
2218.746570	-19.563266
2220.389867	-19.632550
2222.035601	-19.701525
2223.683776	-19.769121
2225.334398	-19.834638
2226.987472	-19.898622
2228.643004	-19.962528
2230.300999	-20.027567
2231.961463	-20.093890
2233.624402	-20.161021
2235.289820	-20.228720
2236.957723	-20.297553
2238.628118	-20.368371
2240.301009	-20.441640
2241.976402	-20.517334
2243.654303	-20.595294
2245.334717	-20.675614
2247.017650	-20.758510
2248.703108	-20.844073
2250.391096	-20.932291
2252.081620	-21.023199
2253.774686	-21.116691
2255.470300	-21.212138
2257.168467	-21.308392
2258.869193	-21.404578
2260.572484	-21.500932
2262.278345	-21.598624
2263.986783	-21.698610
2265.697804	-21.800325
2267.411412	-21.901868
2269.127615	-22.001484
2270.846417	-22.098975
2272.567826	-22.195352
2274.291846	-22.291361
2276.018484	-22.386552
2277.747745	-22.479741
2279.479637	-22.570400
2281.214164	-22.659222
2282.951333	-22.747521
2284.691149	-22.835905
2286.433619	-22.923775
2288.178750	-23.010101
2289.926546	-23.094664
2291.677014	-23.178575
2293.430161	-23.263645
2295.185992	-23.351162
2296.944513	-23.441173
2298.705732	-23.532532
2300.469653	-23.624077
2302.236283	-23.715868
2304.005629	-23.809505
2305.777696	-23.906775
2307.552492	-24.007926
2309.330022	-24.111094
2311.110292	-24.213638
2312.893310	-24.314267
2314.679080	-24.413887
2316.467611	-24.514158
2318.258907	-24.615286
2320.052976	-24.715738
2321.849824	-24.813744
2323.649457	-24.909055
2325.451883	-25.002691
2327.257106	-25.095616
2329.065135	-25.187776
2330.875975	-25.278729
2332.689633	-25.368851
2334.506116	-25.459634
2336.325430	-25.552746
2338.147581	-25.648235
2339.972578	-25.744375
2341.800425	-25.839984
2343.631130	-25.936618
2345.464700	-26.037087
2347.301141	-26.142101
2349.140461	-26.250045
2350.982665	-26.359966
2352.827760	-26.472975
2354.675754	-26.590109
2356.526653	-26.710674
2358.380464	-26.833344
2360.237195	-26.957657
2362.096851	-27.083794
2363.959440	-27.211513
2365.824968	-27.340206
2367.693444	-27.469116
2369.564873	-27.597122
2371.439263	-27.723623
2373.316620	-27.849216
2375.196953	-27.974051
2377.080267	-28.096963
2378.966570	-28.217922
2380.855869	-28.338492
2382.748171	-28.459184
2384.643484	-28.578771
2386.541815	-28.696735
2388.443170	-28.813330
2390.347557	-28.927129
2392.254984	-29.036385
2394.165457	-29.141893
2396.078984	-29.244575
2397.995572	-29.341361
2399.915229	-29.429048
2401.837961	-29.510519
2403.763777	-29.591030
2405.692684	-29.670706
2407.624689	-29.746075
2409.559800	-29.816815
2411.498023	-29.886987
2413.439368	-29.960439
2415.383840	-30.037593
2417.331449	-30.117206
2419.282201	-30.200063
2421.236104	-30.289340
2423.193165	-30.387716
2425.153393	-30.495074
2427.116795	-30.609181
2429.083378	-30.728110
2431.053151	-30.851546
2433.026121	-30.980975
2435.002297	-31.118584
2436.981685	-31.264775
2438.964293	-31.416953
2440.950131	-31.573228
2442.939204	-31.734855
2444.931522	-31.901872
2446.927092	-32.069375
2448.925923	-32.232451
2450.928022	-32.394849
2452.933397	-32.565303
2454.942056	-32.743870
2456.954008	-32.917987
2458.969260	-33.076251
2460.987821	-33.222065
2463.009699	-33.367712
2465.034902	-33.518167
2467.063437	-33.666343
2469.095315	-33.805302
2471.130542	-33.938832
2473.169127	-34.073868
2475.211078	-34.208256
2477.256404	-34.336290
2479.305112	-34.458019
2481.357212	-34.575258
2483.412713	-34.686062
2485.471621	-34.787485
2487.533946	-34.877870
2489.599696	-34.956426
2491.668880	-35.025186
2493.741507	-35.087687
2495.817585	-35.142895
2497.897122	-35.188407
2499.980127	-35.231246
2502.066609	-35.282598
2504.156578	-35.339731
2506.250040	-35.390452
2508.347006	-35.438560
2510.447483	-35.503989
2512.551482	-35.594749
2514.659010	-35.697644
2516.770076	-35.799297
2518.884690	-35.902499
2521.002861	-36.017301
2523.124597	-36.148363
2525.249907	-36.295860
2527.378801	-36.457923
2529.511287	-36.626269
2531.647375	-36.793697
2533.787074	-36.970037
2535.930393	-37.171502
2538.077340	-37.392911
2540.227927	-37.612298
2542.382160	-37.823888
2544.540051	-38.044646
2546.701608	-38.282382
2548.866840	-38.522035
2551.035757	-38.751658
2553.208369	-38.974427
2555.384684	-39.188656
2557.564713	-39.390295
2559.748465	-39.588703
2561.935948	-39.787682
2564.127174	-39.968495
2566.322152	-40.122095
2568.520890	-40.269042
2570.723399	-40.424808
2572.929689	-40.579015
2575.139769	-40.714413
2577.353649	-40.817965
2579.571340	-40.897110
2581.792849	-40.986767
2584.018189	-41.087665
2586.247368	-41.139796
2588.480396	-41.132055
2590.717284	-41.142765
2592.958041	-41.202599
2595.202678	-41.238809
2597.451204	-41.213653
2599.703630	-41.193572
2601.959966	-41.222955
2604.220222	-41.253423
2606.484408	-41.242802
2608.752535	-41.223766
2611.024612	-41.237241
2613.300651	-41.282906
2615.580661	-41.345500
2617.864653	-41.419792
2620.152638	-41.512785
2622.444625	-41.635195
2624.740626	-41.785730
2627.040651	-41.960475
2629.344710	-42.162432
2631.652814	-42.378748
2633.964974	-42.603629
2636.281200	-42.872544
2638.601504	-43.186443
2640.925896	-43.464859
2643.254386	-43.687650
2645.586987	-43.949998
2647.923707	-44.262818
2650.264559	-44.514570
2652.609554	-44.698514
2654.958702	-44.926174
2657.312015	-45.216956
2659.669503	-45.476793
2662.031178	-45.676234
2664.397051	-45.922804
2666.767132	-46.271498
2669.141434	-46.606231
2671.519968	-46.856991
2673.902745	-47.128035
2676.289776	-47.466093
2678.681072	-47.756119
2681.076646	-47.919437
2683.476508	-48.021457
2685.880671	-48.111546
2688.289145	-48.174651
2690.701942	-48.205553
2693.119075	-48.157016
2695.540554	-48.048681
2697.966391	-48.013577
2700.396599	-47.967955
2702.831189	-47.736410
2705.270172	-47.508144
2707.713561	-47.477716
2710.161368	-47.467916
2712.613605	-47.319236
2715.070283	-47.202113
2717.531416	-47.268656
2719.997014	-47.371260
2722.467090	-47.341464
2724.941657	-47.352978
2727.420726	-47.570699
2729.904310	-47.786172
2732.392421	-47.832694
2734.885072	-47.956434
2737.382275	-48.290804
2739.884042	-48.558764
2742.390387	-48.653565
2744.901321	-48.854473
2747.416857	-49.182786
2749.937008	-49.396934
2752.461787	-49.524928
2754.991206	-49.711389
2757.525279	-49.942214
2760.064017	-50.170675
2762.607434	-50.350879
2765.155544	-50.532861
2767.708358	-50.870770
2770.265890	-51.334300
2772.828153	-51.704741
2775.395160	-52.022988
2777.966924	-52.532999
2780.543459	-53.129824
2783.124778	-53.614399
2785.710894	-54.180159
2788.301821	-54.886564
2790.897572	-55.416725
2793.498160	-55.701095
2796.103599	-56.067719
2798.713903	-56.400743
2801.329085	-56.171338
2803.949159	-55.870307
2806.574139	-55.880095
2809.204038	-55.561240
2811.838871	-55.048688
2814.478650	-54.943842
2817.123391	-54.870593
2819.773107	-54.499197
2822.427812	-54.396020
2825.087521	-54.628616
2827.752247	-54.523227
2830.422005	-54.255036
2833.096808	-54.377427
2835.776672	-54.560349
2838.461611	-54.429085
2841.151638	-54.479845
2843.846769	-54.967051
2846.547019	-55.188819
2849.252401	-55.115981
2851.962930	-55.473798
2854.678621	-55.732597
2857.399489	-55.516660
2860.125549	-55.595096
2862.856815	-55.741826
2865.593302	-55.529213
2868.335026	-55.427163
2871.082002	-55.502249
2873.834244	-55.475139
2876.591767	-55.502250
2879.354588	-55.782215
2882.122721	-56.070816
2884.896181	-56.304383
2887.674984	-56.839210
2890.459146	-57.638296
2893.248681	-58.227870
2896.043606	-58.692441
2898.843937	-59.660316
2901.649687	-60.740314
2904.460875	-61.335459
2907.277515	-62.026163
2910.099623	-62.723631
2912.927215	-63.616030
2915.760308	-64.157618
2918.598916	-63.783700
2921.443057	-63.952102
2924.292747	-64.525828
2927.148002	-64.038752
2930.008837	-63.545642
2932.875270	-63.949467
2935.747318	-63.653598
2938.624995	-62.637290
2941.508320	-62.822053
2944.397308	-63.351205
2947.291977	-62.580722
2950.192343	-62.540179
2953.098423	-63.383533
2956.010234	-63.583098
2958.927792	-63.718364
2961.851116	-64.276845
2964.780221	-64.709393
2967.715126	-65.302146
2970.655847	-65.588618
2973.602402	-65.035336
2976.554808	-64.824337
2979.513083	-64.635912
2982.477243	-63.628856
2985.447308	-62.957536
2988.423293	-62.619056
2991.405218	-62.080217
2994.393099	-61.904908
2997.386955	-62.335986
