# 2022-03-22_02.08.17
# shape = sech2
# FWHM_ps = 0.1
# carrier_nm = 1542
# frep_MHz = 12126
# pow_mW = 8000
# GDD = 0.0
# propa_len = 0.16
# untap_len = 0.01
# taper_len = 0.1
# waist_len = 0.02
# uptap_len = 0.02
# untap_scale = 1.0
# waist_scale = 0.17894736842105266
# workingDir = NL_20110305_12 (Spirou)
# axis = slow
# window_ps = 10.0
# steps = 200
# points = 21700
# 
# wavelength [nm]	 power spectral density [dB]
600.043425	-89.944466
600.163550	-88.941696
600.283723	-89.589491
600.403943	-92.307290
600.524212	-97.906763
600.644529	-97.716414
600.764895	-92.516923
600.885308	-90.020364
601.005770	-89.302528
601.126280	-90.167579
601.246839	-93.280317
601.367446	-101.398699
601.488101	-100.370739
601.608804	-94.167562
601.729557	-92.062921
601.850357	-92.012949
601.971206	-93.210701
602.092104	-95.969002
602.213050	-100.856145
602.334045	-104.370002
602.455089	-100.166259
602.576181	-97.252019
602.697322	-95.792062
602.818511	-95.022737
602.939749	-94.917134
603.061036	-95.672112
603.182372	-97.641432
603.303757	-102.580195
603.425191	-113.773739
603.546673	-100.047478
603.668204	-95.168008
603.789785	-93.453828
603.911414	-93.809220
604.033092	-96.343891
604.154820	-103.506553
604.276596	-109.025518
604.398422	-97.771426
604.520297	-94.704655
604.642220	-94.478200
604.764193	-96.346277
604.886216	-101.209286
605.008287	-119.935607
605.130408	-98.482316
605.252578	-93.519382
605.374798	-92.183827
605.497066	-93.446494
605.619385	-98.206187
605.741752	-106.795790
605.864169	-98.718988
605.986636	-94.326933
606.109152	-92.164862
606.231718	-91.884084
606.354333	-93.805759
606.476998	-97.193463
606.599712	-97.907084
606.722476	-94.085960
606.845290	-91.660175
606.968154	-90.943192
607.091067	-91.850459
607.214030	-94.442569
607.337043	-98.678663
607.460106	-96.167145
607.583219	-92.879464
607.706381	-91.298276
607.829594	-91.005088
607.952856	-91.828568
608.076169	-94.557870
608.199531	-97.632656
608.322944	-96.025147
608.446407	-92.267542
608.569920	-90.323128
608.693483	-89.639317
608.817096	-90.416608
608.940759	-92.441521
609.064473	-95.245898
609.188237	-95.334086
609.312051	-94.197544
609.435916	-92.567349
609.559831	-92.013645
609.683796	-92.167924
609.807812	-94.147408
609.931878	-97.952121
610.055995	-103.783428
610.180162	-98.927571
610.304380	-95.313251
610.428648	-94.254622
610.552967	-95.450006
610.677337	-98.292826
610.801757	-100.721743
610.926228	-100.070090
611.050750	-97.552163
611.175323	-96.020866
611.299946	-96.687654
611.424620	-98.464758
611.549345	-98.759156
611.674121	-96.385918
611.798948	-93.661112
611.923826	-91.958650
612.048755	-91.928041
612.173734	-93.254475
612.298765	-95.945492
612.423847	-98.763023
612.548980	-97.741485
612.674165	-95.375467
612.799400	-94.151589
612.924687	-94.021638
613.050025	-95.659151
613.175414	-98.009517
613.300854	-97.280586
613.426346	-94.557115
613.551889	-92.831672
613.677484	-92.592429
613.803130	-94.520481
613.928827	-99.114422
614.054576	-107.959811
614.180377	-101.416693
614.306229	-96.445484
614.432132	-94.442463
614.558087	-95.276604
614.684094	-98.766540
614.810153	-108.470331
614.936263	-100.743515
615.062425	-95.658048
615.188639	-93.607248
615.314904	-94.372987
615.441222	-97.637772
615.567591	-107.572820
615.694012	-104.674394
615.820486	-99.293027
615.947011	-97.337189
616.073588	-98.291187
616.200217	-102.241640
616.326898	-111.654578
616.453632	-100.909692
616.580417	-96.866207
616.707255	-96.131799
616.834144	-98.818830
616.961086	-103.166915
617.088081	-103.169158
617.215127	-99.855449
617.342226	-99.152397
617.469378	-103.818684
617.596581	-109.983333
617.723837	-98.500863
617.851146	-94.551390
617.978507	-93.801871
618.105920	-95.123680
618.233386	-99.611704
618.360905	-95.945041
618.488476	-91.312622
618.616100	-89.171025
618.743777	-89.142993
618.871506	-91.091358
618.999288	-98.485601
619.127123	-98.739514
619.255011	-90.915557
619.382951	-88.710453
619.510945	-89.043655
619.638991	-91.487257
619.767090	-99.352033
619.895243	-98.839669
620.023448	-91.076123
620.151706	-88.919633
620.280017	-89.056007
620.408382	-91.791977
620.536799	-98.818069
620.665270	-97.303093
620.793794	-90.651107
620.922371	-89.086788
621.051002	-89.949802
621.179686	-92.571449
621.308423	-95.193977
621.437213	-96.817970
621.566057	-94.625021
621.694954	-93.911267
621.823905	-95.448720
621.952909	-102.145555
622.081967	-107.565883
622.211079	-98.777161
622.340244	-95.894999
622.469462	-94.585747
622.598735	-95.226698
622.728061	-95.733128
622.857441	-95.379455
622.986874	-93.844435
623.116361	-93.413281
623.245903	-94.105396
623.375498	-95.689033
623.505147	-95.384614
623.634850	-95.078128
623.764606	-95.340361
623.894417	-96.484158
624.024282	-96.704039
624.154201	-97.423412
624.284174	-96.113849
624.414202	-94.856981
624.544283	-95.015337
624.674419	-99.021315
624.804609	-108.042772
624.934853	-101.693991
625.065151	-94.350948
625.195504	-91.040284
625.325911	-90.987310
625.456373	-94.187850
625.586889	-102.749104
625.717460	-101.242311
625.848085	-94.140221
625.978764	-90.950733
626.109498	-90.591875
626.240287	-91.686684
626.371131	-92.179262
626.502029	-91.209363
626.632982	-90.370575
626.763989	-90.799549
626.895052	-93.087976
627.026169	-93.920112
627.157341	-90.145308
627.288568	-87.763417
627.419850	-87.496746
627.551187	-89.822063
627.682579	-94.955070
627.814026	-96.485417
627.945528	-90.726738
628.077085	-88.346288
628.208697	-89.230557
628.340364	-94.318592
628.472087	-97.313185
628.603865	-89.715406
628.735698	-86.452876
628.867586	-85.985084
628.999530	-89.148203
629.131529	-101.676751
629.263584	-90.896401
629.395694	-85.483612
629.527859	-83.901052
629.660080	-84.765586
629.792357	-88.930913
629.924689	-100.161793
630.057077	-87.914728
630.189520	-83.653733
630.322019	-82.622866
630.454574	-84.080106
630.587184	-88.954633
630.719851	-115.110822
630.852573	-89.381871
630.985351	-85.167363
631.118185	-85.120767
631.251075	-88.825299
631.384021	-103.795353
631.517023	-92.406379
631.650081	-86.562823
631.783195	-84.992211
631.916365	-86.392009
632.049592	-91.939315
632.182874	-98.298020
632.316213	-89.724648
632.449608	-86.562213
632.583059	-86.071361
632.716567	-87.718338
632.850131	-90.055372
632.983751	-88.282077
633.117428	-85.963056
633.251161	-84.768477
633.384951	-84.828483
633.518797	-86.186489
633.652700	-87.843027
633.786660	-89.212306
633.920676	-90.641445
634.054749	-92.234200
634.188879	-93.551736
634.323065	-95.150232
634.457308	-95.969065
634.591608	-96.599044
634.725965	-96.255155
634.860379	-97.468243
634.994850	-102.290501
635.129377	-102.040129
635.263962	-94.024921
635.398604	-89.655723
635.533303	-88.597152
635.668058	-90.785119
635.802872	-96.725378
635.937742	-96.737495
636.072669	-88.795574
636.207654	-85.807415
636.342696	-86.466619
636.477796	-90.421918
636.612953	-94.548306
636.748167	-88.532974
636.883439	-84.563433
637.018768	-83.959487
637.154155	-86.588319
637.289599	-94.722080
637.425101	-94.404158
637.560660	-85.649047
637.696277	-82.430063
637.831952	-82.333164
637.967685	-84.780494
638.103475	-91.223445
638.239324	-94.251310
638.375230	-85.726239
638.511194	-82.844640
638.647215	-82.683640
638.783295	-84.721345
638.919433	-89.601431
639.055629	-93.982956
639.191883	-86.800191
639.328195	-84.120662
639.464565	-84.322499
639.600994	-86.443840
639.737481	-89.414126
639.874025	-87.900404
640.010629	-85.037623
640.147290	-84.789283
640.284010	-86.881229
640.420789	-90.522938
640.557625	-90.129908
640.694521	-86.445083
640.831474	-85.910931
640.968487	-88.992228
641.105558	-96.706660
641.242687	-89.153390
641.379876	-83.600190
641.517123	-81.654702
641.654429	-82.021616
641.791793	-84.155059
641.929216	-89.321112
642.066699	-88.415787
642.204240	-83.437688
642.341840	-81.944665
642.479499	-82.124210
642.617217	-84.401046
642.754994	-90.616058
642.892830	-106.852430
643.030726	-91.017741
643.168680	-87.255662
643.306694	-86.243682
643.444767	-87.372189
643.582899	-91.689875
643.721091	-100.347202
643.859342	-91.162623
643.997652	-85.680408
644.136022	-83.414532
644.274451	-83.536191
644.412940	-86.321974
644.551488	-94.387148
644.690096	-91.671335
644.828763	-84.622279
644.967490	-82.921890
645.106277	-84.653674
645.245124	-91.088862
645.384030	-91.240553
645.522997	-82.902984
645.662023	-80.388974
645.801109	-81.101411
645.940255	-84.765589
646.079460	-97.137420
646.218726	-87.622857
646.358052	-82.565746
646.497438	-82.218229
646.636884	-84.617794
646.776391	-88.495220
646.915957	-86.410437
647.055584	-83.636144
647.195271	-83.502355
647.335019	-84.725815
647.474826	-86.241682
647.614695	-87.950768
647.754623	-93.043899
647.894612	-92.191158
648.034662	-84.127939
648.174772	-80.466751
648.314943	-79.344165
648.455174	-80.844018
648.595466	-86.450870
648.735819	-90.351849
648.876233	-83.469332
649.016707	-80.987917
649.157242	-81.064479
649.297838	-84.075434
649.438495	-92.558799
649.579213	-96.227407
649.719992	-88.044529
649.860832	-85.701544
650.001733	-85.445917
650.142695	-86.160506
650.283718	-88.731874
650.424803	-93.717814
650.565949	-91.422371
650.707156	-85.741083
650.848424	-83.901070
650.989754	-84.890911
651.131145	-87.281143
651.272597	-87.537700
651.414111	-85.476645
651.555687	-84.720050
651.697324	-86.729411
651.839022	-90.341014
651.980782	-87.396981
652.122604	-84.610596
652.264488	-85.280102
652.406433	-88.489273
652.548441	-90.837503
652.690510	-87.671628
652.832640	-84.726122
652.974833	-84.771645
653.117088	-89.206382
653.259405	-96.968458
653.401784	-90.201927
653.544224	-86.919889
653.686727	-86.365646
653.829293	-88.160157
653.971920	-94.375822
654.114609	-103.803942
654.257361	-91.656182
654.400175	-88.082314
654.543052	-86.961459
654.685991	-88.266346
654.828992	-93.240500
654.972056	-105.626754
655.115183	-90.158322
655.258372	-86.235283
655.401623	-87.448977
655.544937	-96.050540
655.688314	-89.714893
655.831754	-83.863558
655.975256	-81.344473
656.118822	-81.452961
656.262450	-84.527736
656.406141	-85.638053
656.549894	-81.461150
656.693711	-79.545737
656.837591	-80.550823
656.981534	-84.814364
657.125540	-91.368634
657.269610	-84.849208
657.413742	-82.283949
657.557938	-84.047544
657.702196	-92.528657
657.846519	-92.889735
657.990904	-86.483500
658.135353	-86.055009
658.279866	-86.056390
658.424441	-83.090402
658.569081	-81.594088
658.713784	-83.352828
658.858550	-88.888694
659.003381	-83.585217
659.148274	-79.117346
659.293232	-78.305029
659.438253	-80.864059
659.583339	-90.013342
659.728488	-83.830460
659.873701	-78.845668
660.018978	-78.893612
660.164318	-83.706127
660.309723	-88.384193
660.455192	-79.929282
660.600725	-77.157120
660.746323	-78.043814
660.891984	-83.383219
661.037710	-89.794823
661.183500	-81.986213
661.329354	-80.492966
661.475272	-83.945671
661.621255	-94.729837
661.767303	-83.667035
661.913415	-80.090813
662.059591	-80.521084
662.205833	-83.860188
662.352138	-87.653864
662.498509	-83.200672
662.644944	-81.010427
662.791443	-82.184101
662.938008	-86.127835
663.084638	-94.948305
663.231332	-102.521192
663.378091	-90.163665
663.524915	-84.819533
663.671804	-82.414412
663.818759	-83.039960
663.965778	-87.235118
664.112863	-86.503295
664.260012	-80.873540
664.407227	-79.068968
664.554507	-80.324504
664.701853	-83.369188
664.849264	-82.946826
664.996740	-79.626512
665.144282	-79.476385
665.291889	-83.957041
665.439561	-96.331065
665.587300	-83.326826
665.735103	-80.195904
665.882973	-81.302921
666.030908	-90.050367
666.178909	-86.188070
666.326976	-79.831981
666.475109	-79.117681
666.623307	-82.597641
666.771571	-98.473849
666.919902	-85.650642
667.068298	-82.003421
667.216761	-84.006182
667.365289	-97.877420
667.513884	-85.847880
667.662545	-81.381571
667.811272	-82.197339
667.960065	-87.624927
668.108925	-85.138340
668.257851	-79.825259
668.406843	-78.105052
668.555902	-79.025281
668.705027	-82.473292
668.854219	-89.839547
669.003478	-91.865345
669.152803	-85.560400
669.302195	-82.518920
669.451653	-81.782415
669.601179	-83.643743
669.750771	-85.597925
669.900430	-81.813091
670.050156	-79.530991
670.199949	-79.402094
670.349808	-81.886464
670.499735	-89.741180
670.649729	-86.370721
670.799790	-80.456151
670.949918	-78.870156
671.100114	-79.590632
671.250377	-81.973090
671.400707	-84.020594
671.551104	-82.942792
671.701569	-82.062863
671.852101	-82.886302
672.002700	-85.753212
672.153368	-84.735898
672.304102	-80.646399
672.454905	-78.685017
672.605775	-78.412785
672.756713	-80.163400
672.907718	-85.810116
673.058791	-96.648137
673.209933	-83.887363
673.361142	-82.003872
673.512419	-84.290447
673.663764	-95.258792
673.815177	-88.866838
673.966658	-83.843098
674.118207	-86.959220
674.269825	-99.752265
674.421510	-83.210276
674.573264	-79.835630
674.725086	-81.004477
674.876977	-89.737838
675.028936	-84.751214
675.180963	-78.691519
675.333059	-77.740598
675.485224	-79.171894
675.637457	-79.608288
675.789758	-77.665413
675.942129	-76.911686
676.094568	-78.585695
676.247075	-81.224727
676.399652	-80.532234
676.552298	-80.075323
676.705012	-81.211773
676.857795	-85.278252
677.010648	-90.747467
677.163569	-90.542273
677.316560	-92.098976
677.469619	-93.784715
677.622748	-97.646118
677.775946	-93.785699
677.929214	-84.184254
678.082551	-80.982880
678.235957	-82.543260
678.389432	-86.247179
678.542977	-81.208743
678.696592	-77.087431
678.850276	-76.388570
679.004030	-79.196580
679.157853	-81.815185
679.311746	-77.458243
679.465709	-75.102691
679.619742	-75.706442
679.773844	-79.750021
679.928017	-84.690585
680.082259	-79.422068
680.236571	-77.056858
680.390954	-78.186487
680.545406	-83.895056
680.699929	-100.555768
680.854522	-85.170915
681.009185	-84.009853
681.163918	-85.199160
681.318722	-80.628401
681.473596	-77.780121
681.628540	-78.579344
681.783555	-82.401604
681.938641	-78.813660
682.093797	-74.349705
682.249023	-73.315285
682.404321	-75.059090
682.559689	-78.579291
682.715128	-77.902737
682.870637	-75.896983
683.026218	-76.780836
683.181869	-81.093113
683.337591	-86.256981
683.493385	-82.927666
683.649249	-82.790302
683.805185	-87.144555
683.961191	-91.557457
684.117269	-86.080524
684.273418	-85.085205
684.429639	-88.432992
684.585930	-98.748705
684.742294	-99.036532
684.898728	-98.801331
685.055234	-106.628839
685.211812	-89.989041
685.368461	-85.565026
685.525182	-85.385177
685.681975	-90.649462
685.838839	-91.552782
685.995775	-84.192372
686.152783	-82.831205
686.309863	-86.173573
686.467014	-96.421686
686.624238	-91.210710
686.781534	-91.766802
686.938902	-88.895807
687.096342	-81.733880
687.253854	-79.501883
687.411438	-81.819909
687.569095	-89.865176
687.726824	-82.209651
687.884626	-78.975423
688.042499	-81.363272
688.200446	-99.261742
688.358465	-82.532110
688.516556	-78.824716
688.674720	-81.456574
688.832957	-84.091250
688.991266	-77.114724
689.149649	-74.468882
689.308104	-75.595888
689.466632	-78.842506
689.625233	-77.072991
689.783906	-75.016675
689.942653	-75.723832
690.101473	-79.430387
690.260367	-83.410971
690.419333	-80.953360
690.578372	-80.013108
690.737485	-80.193847
690.896672	-80.838119
691.055931	-82.885307
691.215264	-82.628888
691.374671	-79.265915
691.534151	-78.443655
691.693704	-80.004292
691.853332	-82.819472
692.013033	-83.160331
692.172807	-80.331692
692.332656	-80.466596
692.492578	-84.283493
692.652575	-87.445999
692.812645	-81.634869
692.972789	-79.325218
693.133007	-80.940014
693.293300	-82.770594
693.453666	-78.347609
693.614107	-76.320943
693.774622	-77.869847
693.935211	-82.734374
694.095875	-81.124657
694.256613	-79.031101
694.417426	-81.678233
694.578313	-94.940388
694.739274	-88.020730
694.900311	-86.593276
695.061421	-91.698555
695.222607	-83.088511
695.383868	-80.459641
695.545203	-83.933822
695.706613	-89.173035
695.868098	-80.740684
696.029658	-79.070080
696.191293	-82.388841
696.353003	-90.147521
696.514789	-82.205737
696.676649	-80.630342
696.838585	-84.141361
697.000596	-105.314174
697.162682	-86.320111
697.324844	-82.555394
697.487081	-84.161137
697.649394	-88.077445
697.811782	-81.705516
697.974246	-77.467673
698.136786	-76.909429
698.299401	-78.394126
698.462092	-77.777155
698.624859	-75.271768
698.787702	-74.881993
698.950621	-77.208934
699.113616	-80.462026
699.276686	-79.707824
699.439833	-78.985511
699.603056	-79.690937
699.766355	-81.261518
699.929731	-84.589856
700.093183	-82.390469
700.256711	-77.489569
700.420315	-75.996859
700.583996	-78.008205
700.747754	-80.836078
700.911588	-77.623320
701.075499	-75.942866
701.239486	-77.799061
701.403550	-83.488829
701.567691	-87.042137
701.731909	-82.844351
701.896203	-81.841031
702.060575	-83.608726
702.225024	-87.705288
702.389549	-94.413714
702.554152	-111.888614
702.718832	-88.772618
702.883589	-82.274160
703.048424	-80.350698
703.213335	-81.668935
703.378324	-87.369681
703.543391	-95.362525
703.708535	-89.012558
703.873757	-87.829450
704.039056	-82.798355
704.204433	-80.144311
704.369887	-80.805898
704.535420	-82.676430
704.701030	-79.311304
704.866718	-78.447899
705.032484	-82.243928
705.198328	-91.537701
705.364250	-88.910342
705.530250	-90.521468
705.696328	-84.893761
705.862485	-79.790365
706.028720	-78.962187
706.195033	-80.349638
706.361424	-81.219333
706.527894	-80.685536
706.694442	-83.388634
706.861069	-86.379495
707.027775	-84.220027
707.194559	-83.941645
707.361422	-86.628791
707.528363	-83.062154
707.695384	-81.364417
707.862483	-82.450594
708.029661	-83.054892
708.196918	-81.566454
708.364254	-81.612546
708.531670	-85.009664
708.699164	-86.560543
708.866738	-82.704302
709.034391	-79.988603
709.202123	-79.465716
709.369935	-81.298040
709.537826	-81.144438
709.705796	-79.819846
709.873847	-80.994117
710.041976	-87.517389
710.210186	-92.892361
710.378475	-87.828526
710.546844	-91.205701
710.715292	-84.224930
710.883821	-80.357220
711.052429	-81.084295
711.221118	-80.100913
711.389887	-76.352710
711.558735	-74.885132
711.727664	-76.215037
711.896673	-77.219277
712.065763	-74.498513
712.234932	-72.897009
712.404183	-73.662899
712.573513	-75.065662
712.742924	-74.670010
712.912416	-74.673394
713.081988	-78.021312
713.251641	-86.108063
713.421375	-82.421564
713.591190	-81.591070
713.761085	-85.389224
713.931061	-80.901348
714.101119	-78.434303
714.271257	-79.915081
714.441476	-81.970168
714.611777	-80.374917
714.782159	-82.667334
714.952622	-92.734899
715.123166	-80.890441
715.293792	-77.609740
715.464499	-77.306794
715.635288	-77.741004
715.806158	-78.633622
715.977110	-81.939161
716.148143	-88.710104
716.319259	-99.993881
716.490456	-93.929998
716.661735	-87.957874
716.833096	-83.634641
717.004538	-81.442860
717.176063	-81.035011
717.347670	-81.206246
717.519359	-79.562950
717.691130	-78.161387
717.862984	-75.108056
718.034920	-72.857824
718.206938	-72.807497
718.379039	-74.116940
718.551222	-74.622585
718.723488	-74.995910
718.895836	-77.381770
719.068267	-78.930374
719.240781	-79.378914
719.413377	-83.888385
719.586057	-84.095874
719.758819	-81.250003
719.931664	-81.712732
720.104593	-79.932007
720.277604	-80.058052
720.450699	-84.846812
720.623876	-98.961740
720.797137	-92.852465
720.970482	-89.311145
721.143910	-82.220674
721.317421	-79.353517
721.491016	-79.982658
721.664694	-78.615781
721.838456	-77.272706
722.012302	-77.961842
722.186231	-75.824669
722.360244	-72.425094
722.534342	-71.925265
722.708523	-74.382731
722.882788	-77.429402
723.057137	-78.498346
723.231570	-79.943094
723.406088	-77.783462
723.580689	-77.137723
723.755375	-80.589845
723.930146	-93.524326
724.105000	-89.574301
724.279940	-93.851592
724.454963	-90.523750
724.630072	-82.192899
724.805265	-76.942604
724.980543	-73.500817
725.155905	-72.277605
725.331353	-73.498427
725.506885	-76.273194
725.682503	-78.956059
725.858205	-81.836696
726.033993	-80.821706
726.209865	-80.894482
726.385823	-86.207684
726.561866	-86.963923
726.737995	-82.083218
726.914209	-83.865224
727.090508	-85.960726
727.266893	-84.168175
727.443364	-82.787856
727.619920	-79.120866
727.796562	-78.460690
727.973290	-84.977783
728.150103	-85.157051
728.327003	-77.580472
728.503988	-75.780325
728.681060	-75.532875
728.858218	-78.116901
729.035461	-83.067000
729.212791	-75.406673
729.390208	-72.691748
729.567710	-72.701555
729.745299	-73.717067
729.922975	-76.425220
730.100737	-77.997986
730.278586	-75.660990
730.456521	-77.940443
730.634543	-86.074041
730.812652	-82.132319
730.990848	-76.368290
731.169130	-73.132161
731.347500	-72.855506
731.525957	-76.696574
731.704500	-75.961174
731.883131	-71.751041
732.061850	-70.515847
732.240655	-70.406148
732.419548	-71.444285
732.598528	-73.256620
732.777596	-73.660810
732.956751	-72.145327
733.135994	-71.973492
733.315325	-74.481539
733.494744	-80.270750
733.674250	-88.559086
733.853844	-91.359896
734.033526	-88.446046
734.213296	-83.129335
734.393154	-76.786423
734.573101	-73.100205
734.753135	-72.909628
734.933258	-76.754184
735.113469	-76.108578
735.293769	-72.092095
735.474157	-71.906318
735.654633	-72.532162
735.835198	-73.296333
736.015852	-78.980517
736.196594	-74.925534
736.377426	-70.573197
736.558346	-71.884679
736.739355	-75.804598
736.920453	-74.656345
737.101640	-76.275743
737.282916	-76.811189
737.464282	-75.658113
737.645736	-83.125158
737.827280	-78.096700
738.008914	-72.586718
738.190637	-74.069482
738.372449	-76.994041
738.554351	-77.539971
738.736342	-80.508814
738.918424	-72.659127
739.100595	-70.466512
739.282855	-74.416578
739.465206	-78.343330
739.647647	-74.495012
739.830178	-76.848594
740.012799	-78.263912
740.195510	-81.134345
740.378311	-82.817418
740.561203	-72.835249
740.744185	-72.665715
740.927258	-75.501462
741.110421	-71.860814
741.293674	-69.893743
741.477018	-67.952449
741.660453	-66.339872
741.843979	-67.431681
742.027596	-71.979803
742.211303	-73.736801
742.395102	-73.400182
742.578991	-75.109332
742.762972	-75.507646
742.947044	-79.179932
743.131207	-77.704320
743.315461	-72.439670
743.499807	-72.816063
743.684244	-78.783470
743.868773	-88.297964
744.053394	-88.891979
744.238106	-82.100772
744.422910	-81.211087
744.607805	-90.363737
744.792793	-78.516932
744.977872	-77.150788
745.163044	-84.511624
745.348307	-80.902305
745.533663	-76.244484
745.719111	-71.811211
745.904651	-69.193439
746.090283	-70.562141
746.276008	-75.534928
746.461826	-76.665042
746.647735	-78.291390
746.833738	-84.028387
747.019833	-86.879141
747.206021	-83.047475
747.392302	-73.878733
747.578676	-73.140939
747.765143	-78.511261
747.951703	-77.397664
748.138356	-76.072799
748.325102	-74.532510
748.511941	-72.094023
748.698874	-75.509211
748.885900	-90.519527
749.073019	-76.505536
749.260232	-76.883153
749.447539	-76.370435
749.634939	-77.223748
749.822433	-78.736562
750.010021	-72.610641
750.197703	-72.731489
750.385479	-76.482708
750.573348	-75.583634
750.761312	-75.902920
750.949370	-75.388217
751.137523	-75.119037
751.325769	-80.332276
751.514110	-77.009316
751.702545	-74.155547
751.891075	-73.132552
752.079700	-71.676447
752.268419	-73.933996
752.457233	-76.777560
752.646142	-74.277022
752.835145	-77.063316
753.024244	-91.650304
753.213437	-99.882098
753.402726	-83.931755
753.592110	-78.935462
753.781589	-79.156402
753.971163	-72.525628
754.160833	-69.651775
754.350598	-70.535212
754.540459	-70.578329
754.730415	-70.312419
754.920467	-71.240236
755.110615	-69.367033
755.300858	-69.155889
755.491198	-72.840970
755.681633	-76.415881
755.872164	-79.869712
756.062792	-90.748621
756.253515	-79.622849
756.444335	-78.503770
756.635252	-72.633937
756.826264	-71.325316
757.017373	-74.900295
757.208579	-75.134813
757.399881	-77.123182
757.591280	-81.181498
757.782776	-74.909569
757.974368	-77.289951
758.166058	-73.559735
758.357844	-70.807403
758.549728	-74.245415
758.741708	-76.242466
758.933786	-77.885542
759.125961	-83.950388
759.318233	-73.499615
759.510603	-75.277787
759.703071	-76.544292
759.895635	-73.677478
760.088298	-82.151685
760.281058	-73.580373
760.473916	-72.030233
760.666872	-72.070372
760.859926	-68.336225
761.053078	-70.161600
761.246328	-74.601798
761.439676	-72.358909
761.633122	-77.610057
761.826667	-71.403844
762.020310	-69.785271
762.214052	-71.316191
762.407892	-68.692422
762.601831	-70.842901
762.795868	-73.294057
762.990004	-70.021293
763.184239	-71.122917
763.378573	-69.102008
763.573006	-69.213212
763.767538	-72.736421
763.962169	-71.663109
764.156900	-74.873978
764.351729	-76.989514
764.546658	-74.613859
764.741687	-74.188749
764.936815	-70.780629
765.132042	-71.995536
765.327370	-71.599623
765.522797	-70.411290
765.718324	-72.936949
765.913950	-73.605301
766.109677	-76.822071
766.305504	-72.558566
766.501431	-69.880586
766.697458	-71.248076
766.893586	-71.149986
767.089814	-72.397772
767.286142	-72.387174
767.482571	-71.702707
767.679100	-75.219939
767.875730	-72.065264
768.072461	-70.713128
768.269293	-70.123235
768.466225	-69.512948
768.663259	-71.546853
768.860393	-71.643038
769.057629	-74.153945
769.254966	-78.653201
769.452404	-71.221933
769.649944	-68.136511
769.847585	-65.813029
770.045328	-66.185203
770.243172	-68.058805
770.441118	-67.211756
770.639166	-67.873056
770.837315	-67.960737
771.035567	-67.768094
771.233920	-68.589455
771.432376	-66.831507
771.630934	-67.859355
771.829594	-71.998682
772.028356	-71.907336
772.227220	-73.573061
772.426188	-71.126028
772.625257	-71.971924
772.824430	-71.482090
773.023705	-67.700551
773.223083	-69.477187
773.422563	-70.341337
773.622147	-71.138479
773.821834	-70.967322
774.021624	-67.143853
774.221517	-68.636987
774.421513	-66.843994
774.621613	-65.599429
774.821816	-67.374724
775.022122	-66.696288
775.222532	-69.818814
775.423046	-68.562240
775.623664	-67.010809
775.824385	-69.870023
776.025211	-65.984502
776.226140	-65.406706
776.427173	-63.234061
776.628311	-62.375288
776.829553	-65.710508
777.030899	-66.202566
777.232350	-68.865214
777.433905	-70.980410
777.635564	-67.889112
777.837328	-68.633412
778.039197	-64.850575
778.241171	-67.164595
778.443250	-68.329465
778.645433	-65.443484
778.847722	-65.452069
779.050116	-63.006525
779.252615	-65.089896
779.455219	-67.077894
779.657929	-65.381419
779.860744	-68.320561
780.063665	-66.395865
780.266691	-68.831946
780.469823	-67.477308
780.673061	-65.739798
780.876405	-67.223161
781.079855	-63.631148
781.283410	-64.573371
781.487072	-65.424607
781.690840	-66.568999
781.894715	-67.877513
782.098695	-62.409431
782.302783	-62.136564
782.506976	-61.001690
782.711277	-60.569528
782.915684	-62.519776
783.120198	-62.392715
783.324818	-66.298892
783.529546	-67.832433
783.734381	-65.243114
783.939322	-64.810191
784.144372	-62.572542
784.349528	-64.848292
784.554792	-63.425415
784.760163	-63.957576
784.965642	-65.437746
785.171228	-62.961024
785.376922	-64.832409
785.582724	-64.024933
785.788634	-68.673051
785.994651	-69.699147
786.200777	-65.685734
786.407011	-63.541801
786.613353	-60.793588
786.819804	-62.310759
787.026363	-60.435180
787.233030	-61.446313
787.439806	-62.476756
787.646691	-61.075782
787.853684	-63.211225
788.060786	-60.838302
788.267997	-62.791707
788.475317	-60.211680
788.682746	-59.004647
788.890285	-60.003365
789.097932	-59.022973
789.305689	-62.929060
789.513555	-62.245740
789.721531	-63.794159
789.929617	-64.795796
790.137812	-62.845416
790.346117	-66.296850
790.554531	-62.232566
790.763056	-64.805777
790.971691	-60.311474
791.180436	-60.516311
791.389291	-62.236933
791.598256	-61.297871
791.807332	-64.957143
792.016518	-60.305873
792.225815	-62.074454
792.435222	-59.423395
792.644740	-58.669640
792.854369	-59.028152
793.064109	-57.023032
793.273960	-59.178802
793.483922	-58.000928
793.693995	-59.340206
793.904180	-61.905328
794.114475	-60.893398
794.324882	-64.415029
794.535401	-60.950659
794.746031	-64.642923
794.956774	-61.745482
795.167627	-62.044708
795.378593	-62.348493
795.589671	-60.633442
795.800861	-63.452324
796.012162	-59.148016
796.223577	-61.176874
796.435103	-58.390382
796.646742	-58.450583
796.858493	-58.648856
797.070357	-56.890732
797.282334	-59.564489
797.494423	-57.022342
797.706626	-59.579567
797.918941	-59.805208
798.131369	-60.414329
798.343911	-61.387347
798.556566	-58.293189
798.769334	-61.557477
798.982215	-57.922400
799.195210	-60.850858
799.408319	-58.338779
799.621541	-59.076585
799.834877	-60.209195
800.048327	-58.847867
800.261890	-63.860171
800.475568	-58.604626
800.689360	-60.412717
800.903266	-56.187291
801.117287	-58.089754
801.331422	-58.691423
801.545671	-58.214783
801.760036	-59.510647
801.974514	-56.429483
802.189108	-60.070357
802.403816	-57.856239
802.618640	-62.659849
802.833578	-59.825736
803.048632	-59.751646
803.263800	-57.975794
803.479085	-56.832040
803.694484	-60.008430
803.909999	-56.883855
804.125630	-59.939676
804.341376	-56.856960
804.557239	-59.165023
804.773217	-57.543214
804.989311	-57.380985
805.205521	-58.467609
805.421847	-56.745652
805.638290	-60.676902
805.854849	-57.978238
806.071524	-62.429383
806.288316	-57.878802
806.505225	-59.322955
806.722250	-58.131601
806.939393	-58.517486
807.156652	-59.107583
807.374028	-56.543358
807.591521	-58.530724
807.809132	-55.446880
808.026859	-58.633326
808.244705	-57.389698
808.462667	-61.265218
808.680748	-60.543754
808.898946	-60.117858
809.117261	-58.574938
809.335695	-56.651523
809.554246	-58.692406
809.772916	-56.010539
809.991704	-60.869433
810.210610	-57.078075
810.429634	-60.164508
810.648777	-56.985214
810.868039	-58.962307
811.087419	-57.378833
811.306918	-56.081863
811.526535	-56.801150
811.746272	-54.561682
811.966127	-58.527695
812.186102	-56.191683
812.406196	-62.771855
812.626409	-59.263956
812.846742	-63.563006
813.067194	-58.516555
813.287766	-59.995742
813.508457	-56.199241
813.729269	-54.926196
813.950200	-56.393956
814.171251	-54.877016
814.392422	-60.910517
814.613714	-57.891979
814.835126	-65.117590
815.056658	-57.330467
815.278311	-60.223194
815.500084	-55.842689
815.721978	-57.088992
815.943993	-55.548798
816.166128	-54.968504
816.388385	-59.351912
816.610762	-58.408212
816.833261	-70.006545
817.055881	-60.715688
817.278623	-63.144364
817.501486	-56.071217
817.724471	-58.284296
817.947577	-53.817445
818.170805	-56.034233
818.394155	-54.509178
818.617627	-56.184113
818.841221	-59.294904
819.064937	-59.333816
819.288775	-60.467478
819.512736	-57.655192
819.736819	-59.934265
819.961025	-56.031114
820.185354	-60.530389
820.409805	-56.849288
820.634379	-64.520571
820.859076	-57.945028
821.083897	-62.733964
821.308840	-55.887303
821.533907	-58.220033
821.759097	-54.779671
821.984411	-56.518049
822.209848	-55.702305
822.435409	-55.780263
822.661093	-59.201117
822.886902	-59.204014
823.112834	-64.212811
823.338891	-59.731138
823.565072	-58.811532
823.791377	-54.984834
824.017807	-56.012730
824.244361	-52.896697
824.471039	-56.696894
824.697843	-54.784217
824.924771	-61.379959
825.151824	-58.975986
825.379002	-63.085094
825.606306	-55.759618
825.833734	-59.155706
826.061288	-56.324939
826.288967	-58.018828
826.516772	-54.718261
826.744703	-55.453340
826.972759	-57.395553
827.200941	-58.603744
827.429249	-60.657849
827.657683	-58.113465
827.886243	-55.801259
828.114930	-54.237072
828.343743	-56.654530
828.572682	-54.368315
828.801748	-57.293450
829.030941	-54.399988
829.260260	-59.642038
829.489706	-54.932317
829.719280	-58.274733
829.948980	-53.887251
830.178808	-58.141925
830.408763	-53.907753
830.638845	-57.768626
830.869055	-53.028961
831.099393	-56.117465
831.329858	-54.011238
831.560451	-60.225403
831.791173	-56.120251
832.022022	-58.545311
832.252999	-53.572924
832.484105	-56.253619
832.715339	-52.878746
832.946702	-54.485916
833.178193	-51.848404
833.409813	-52.656761
833.641561	-52.611949
833.873439	-54.680096
834.105445	-58.014737
834.337581	-59.811593
834.569846	-55.755406
834.802241	-54.882450
835.034764	-51.425172
835.267418	-51.048728
835.500201	-50.887753
835.733114	-50.756691
835.966157	-52.484047
836.199329	-52.951198
836.432632	-57.466745
836.666065	-56.248142
836.899629	-55.178630
837.133323	-52.951269
837.367147	-52.148440
837.601102	-50.830406
837.835188	-51.671019
838.069405	-50.487068
838.303752	-52.481810
838.538231	-52.198429
838.772841	-55.032885
839.007582	-52.109772
839.242455	-52.270659
839.477459	-50.693508
839.712595	-52.527542
839.947863	-51.130154
840.183263	-52.753717
840.418794	-50.907417
840.654458	-52.473606
840.890254	-51.243275
841.126182	-52.585256
841.362242	-50.305713
841.598435	-51.360774
841.834761	-50.520080
842.071220	-52.291704
842.307811	-50.611299
842.544536	-51.589616
842.781393	-50.404756
843.018384	-51.720872
843.255508	-50.676860
843.492765	-50.848328
843.730156	-49.104462
843.967681	-49.428544
844.205339	-48.926663
844.443132	-49.982012
844.681058	-49.439015
844.919118	-50.869795
845.157313	-50.481212
845.395642	-50.778879
845.634105	-50.095672
845.872703	-50.347538
846.111436	-49.428060
846.350303	-49.098225
846.589306	-48.584732
846.828443	-48.754564
847.067716	-48.863251
847.307124	-49.568610
847.546667	-49.033110
847.786345	-48.342858
848.026160	-48.159308
848.266110	-48.470026
848.506195	-48.733778
848.746417	-49.531039
848.986775	-50.412806
849.227269	-49.329691
849.467899	-48.567101
849.708666	-47.492515
849.949569	-47.897000
850.190609	-47.732981
850.431785	-48.785510
850.673099	-47.899006
850.914549	-48.414907
851.156137	-47.984949
851.397861	-49.094707
851.639723	-46.965196
851.881723	-47.127938
852.123860	-46.407298
852.366135	-48.187075
852.608547	-47.929707
852.851098	-49.189314
853.093786	-47.160827
853.336613	-47.164012
853.579578	-46.091213
853.822681	-46.630016
854.065923	-46.118103
854.309304	-48.006277
854.552823	-48.697361
854.796481	-48.450147
855.040278	-47.073508
855.284215	-46.442662
855.528290	-46.385447
855.772505	-46.491483
856.016859	-46.890583
856.261353	-46.422267
856.505987	-47.221276
856.750760	-47.308588
856.995673	-47.405743
857.240727	-45.533451
857.485920	-45.982983
857.731254	-45.842572
857.976729	-47.343148
858.222343	-47.010999
858.468099	-47.509063
858.713995	-45.918304
858.960032	-45.951187
859.206211	-45.034212
859.452530	-45.126448
859.698991	-45.118454
859.945593	-46.596275
860.192336	-47.069106
860.439222	-46.606745
860.686248	-46.138277
860.933417	-45.033564
861.180728	-45.334041
861.428181	-45.349785
861.675776	-46.235284
861.923514	-45.332143
862.171394	-46.355529
862.419417	-45.730453
862.667582	-45.994539
862.915890	-44.942963
863.164342	-45.284811
863.412936	-44.967699
863.661674	-45.865667
863.910555	-45.881775
864.159579	-45.110502
864.408747	-45.022657
864.658059	-45.100184
864.907515	-45.554155
865.157114	-44.948086
865.406858	-45.556537
865.656746	-44.925511
865.906778	-45.427550
866.156955	-44.693319
866.407277	-44.640865
866.657743	-44.197275
866.908354	-45.432422
867.159110	-45.773791
867.410011	-45.409893
867.661057	-44.886225
867.912249	-44.197115
868.163586	-44.297886
868.415069	-44.469267
868.666697	-45.363993
868.918472	-44.787591
869.170392	-45.226023
869.422458	-44.516403
869.674671	-44.482029
869.927030	-44.179639
870.179536	-44.370916
870.432188	-44.221221
870.684987	-44.644183
870.937933	-45.259392
871.191026	-44.425813
871.444266	-44.236032
871.697653	-43.795412
871.951188	-44.189620
872.204870	-44.397613
872.458700	-45.099382
872.712677	-44.559596
872.966803	-44.164037
873.221076	-43.785067
873.475498	-43.483065
873.730068	-44.105813
873.984787	-44.856805
874.239654	-44.810126
874.494669	-44.173431
874.749834	-44.377708
875.005147	-44.054601
875.260610	-44.042078
875.516222	-43.737963
875.771983	-43.623530
876.027894	-43.849064
876.283954	-44.329533
876.540164	-44.225866
876.796524	-43.802789
877.053033	-44.041504
877.309693	-43.550420
877.566503	-43.775646
877.823464	-44.119024
878.080575	-44.440837
878.337837	-44.105576
878.595249	-43.598992
878.852813	-43.407489
879.110528	-43.465285
879.368393	-44.181942
879.626410	-43.520057
879.884579	-43.255484
880.142899	-43.520589
880.401371	-43.954986
880.659994	-44.030740
880.918770	-43.588914
881.177698	-43.270314
881.436778	-43.134111
881.696010	-43.832077
881.955395	-43.642557
882.214933	-43.520200
882.474623	-43.457141
882.734467	-43.083125
882.994463	-43.140624
883.254613	-43.448299
883.514916	-43.911482
883.775372	-43.715699
884.035982	-43.454144
884.296746	-42.615035
884.557664	-42.767613
884.818735	-43.605499
885.079961	-43.165909
885.341341	-42.890971
885.602876	-42.864450
885.864565	-43.616594
886.126409	-43.609758
886.388407	-42.748003
886.650561	-42.377575
886.912870	-42.953419
887.175334	-44.032004
887.437953	-42.873278
887.700728	-42.501225
887.963658	-43.005888
888.226745	-43.164925
888.489987	-43.202333
888.753385	-42.529084
889.016940	-42.751702
889.280651	-43.080043
889.544518	-42.599916
889.808543	-42.343295
890.072723	-42.775750
890.337061	-43.128562
890.601556	-42.239802
890.866208	-42.143448
891.131017	-42.661678
891.395984	-42.806362
891.661109	-42.739505
891.926391	-42.254887
892.191831	-42.511253
892.457429	-42.910281
892.723186	-42.279770
892.989100	-42.058992
893.255173	-42.421629
893.521405	-42.263638
893.787796	-42.114804
894.054345	-42.505267
894.321053	-42.249687
894.587921	-41.831402
894.854948	-41.945716
895.122134	-42.468862
895.389480	-43.012335
895.656986	-41.840831
895.924651	-41.040605
896.192477	-42.053092
896.460463	-42.905071
896.728609	-42.239677
896.996915	-41.780873
897.265382	-42.241013
897.534010	-42.367013
897.802799	-41.524453
898.071749	-41.270683
898.340860	-41.628208
898.610132	-42.151575
898.879566	-41.677991
899.149162	-41.416234
899.418919	-42.299130
899.688838	-41.531689
899.958919	-41.076576
900.229162	-42.220637
900.499568	-42.313992
900.770136	-41.440405
901.040867	-40.504048
901.311761	-40.840158
901.582817	-42.357500
901.854037	-41.313334
902.125420	-40.340856
902.396966	-41.025639
902.668676	-41.584898
902.940550	-41.161417
903.212587	-40.950740
903.484788	-41.388274
903.757153	-41.236937
904.029683	-40.544275
904.302377	-40.393527
904.575236	-40.942174
904.848259	-40.787986
905.121447	-39.792139
905.394800	-40.551539
905.668319	-41.489902
905.942002	-40.113707
906.215852	-39.682744
906.489866	-40.147417
906.764047	-41.105267
907.038393	-40.914140
907.312906	-39.488145
907.587584	-39.890245
907.862429	-40.365542
908.137441	-39.757407
908.412619	-40.252173
908.687964	-40.226053
908.963476	-39.459150
909.239155	-39.122104
909.515002	-39.291708
909.791015	-40.266777
910.067197	-40.065765
910.343546	-39.217775
910.620063	-39.341133
910.896748	-39.359853
911.173601	-39.137890
911.450623	-39.165258
911.727813	-39.269581
912.005171	-38.930503
912.282699	-38.745072
912.560395	-39.258646
912.838261	-39.117866
913.116296	-38.633344
913.394500	-38.776420
913.672874	-39.179506
913.951418	-39.126303
914.230131	-38.212208
914.509015	-38.272341
914.788068	-38.966640
915.067292	-37.974093
915.346687	-37.793571
915.626252	-38.775627
915.905988	-38.505538
916.185895	-37.801266
916.465973	-37.689985
916.746223	-38.734731
917.026644	-38.956332
917.307236	-37.016029
917.588000	-37.085915
917.868937	-38.760984
918.150045	-38.123142
918.431325	-37.333978
918.712778	-37.466578
918.994404	-37.824887
919.276202	-38.039253
919.558173	-37.378601
919.840317	-37.493842
920.122634	-37.555661
920.405125	-36.524326
920.687789	-37.038080
920.970627	-37.938705
921.253639	-37.060535
921.536824	-36.735784
921.820184	-36.939447
922.103718	-37.072430
922.387427	-36.864754
922.671310	-36.570302
922.955368	-37.208329
923.239601	-36.780103
923.524009	-35.848872
923.808592	-36.755310
924.093351	-37.122813
924.378285	-36.058922
924.663396	-36.071177
924.948682	-36.638791
925.234144	-36.753982
925.519782	-35.835100
925.805597	-35.514650
926.091589	-36.702865
926.377757	-36.107989
926.664102	-35.028908
926.950624	-36.052223
927.237323	-36.543216
927.524200	-35.481633
927.811255	-35.324476
928.098487	-35.984530
928.385897	-36.146111
928.673485	-35.006467
928.961251	-34.825776
929.249196	-36.261849
929.537319	-35.972910
929.825621	-34.747886
930.114102	-35.093362
930.402762	-35.900603
930.691601	-35.370825
930.980620	-34.622063
931.269818	-34.983268
931.559196	-35.334606
931.848753	-34.632519
932.138491	-34.571049
932.428409	-35.205031
932.718508	-34.944630
933.008787	-34.123505
933.299246	-34.246773
933.589887	-35.256265
933.880709	-34.790028
934.171712	-33.846478
934.462896	-34.299631
934.754262	-34.654777
935.045810	-34.284790
935.337539	-34.120401
935.629451	-34.160635
935.921545	-34.415228
936.213822	-33.948545
936.506281	-33.735540
936.798922	-34.472348
937.091747	-33.870922
937.384755	-33.178651
937.677946	-33.839466
937.971321	-34.130457
938.264879	-33.683145
938.558621	-33.375827
938.852547	-33.444118
939.146657	-33.630798
939.440952	-33.530640
939.735431	-33.596781
940.030095	-33.299845
940.324943	-32.945917
940.619977	-33.466680
940.915196	-33.814054
941.210600	-33.242766
941.506189	-32.715260
941.801965	-33.121266
942.097926	-33.817059
942.394074	-32.957695
942.690407	-32.620854
942.986927	-33.348450
943.283634	-33.041170
943.580527	-32.743077
943.877608	-33.044537
944.174875	-32.944248
944.472330	-32.559326
944.769972	-32.471226
945.067802	-33.013729
945.365820	-32.911717
945.664026	-32.211826
945.962420	-32.350319
946.261002	-32.756913
946.559773	-32.802867
946.858733	-32.386567
947.157881	-32.165777
947.457219	-32.595868
947.756746	-32.456657
948.056462	-32.359730
948.356368	-32.561615
948.656464	-32.180366
948.956749	-32.114292
949.257225	-32.290274
949.557891	-32.407303
949.858748	-32.244877
950.159796	-31.741033
950.461034	-31.966393
950.762463	-32.380422
951.064084	-32.179338
951.365896	-31.655322
951.667900	-31.406586
951.970095	-32.122309
952.272483	-32.175480
952.575063	-31.474622
952.877835	-31.506139
953.180799	-31.631849
953.483956	-31.783594
953.787307	-31.718533
954.090850	-31.475537
954.394586	-31.455131
954.698516	-31.429847
955.002640	-31.730424
955.306957	-31.571357
955.611469	-31.296924
955.916174	-31.539085
956.221074	-31.204086
956.526169	-31.156008
956.831458	-31.566538
957.136942	-31.539628
957.442622	-31.126244
957.748496	-30.789837
958.054567	-31.315798
958.360833	-31.424809
958.667294	-30.861961
958.973952	-30.849673
959.280806	-30.852102
959.587857	-31.045661
959.895104	-30.920286
960.202548	-30.641767
960.510189	-30.774479
960.818027	-30.623411
961.126062	-30.689858
961.434295	-30.660091
961.742726	-30.574343
962.051355	-30.662486
962.360182	-30.355894
962.669207	-30.418467
962.978431	-30.415277
963.287854	-30.478541
963.597475	-30.667965
963.907296	-30.119809
964.217315	-30.047336
964.527535	-30.429928
964.837954	-30.657932
965.148573	-30.141486
965.459392	-29.622607
965.770411	-30.363042
966.081630	-30.616183
966.393051	-30.037404
966.704672	-29.792558
967.016494	-29.974974
967.328517	-30.451669
967.640742	-30.048311
967.953169	-29.779925
968.265797	-29.914389
968.578627	-30.098737
968.891660	-30.205916
969.204895	-29.643858
969.518332	-29.852673
969.831972	-30.198191
970.145816	-29.845321
970.459862	-29.686063
970.774112	-29.739741
971.088565	-30.110144
971.403223	-29.737525
971.718084	-29.561128
972.033149	-29.843419
972.348419	-29.717012
972.663893	-29.812496
972.979572	-29.507423
973.295456	-29.470224
973.611546	-29.663759
973.927840	-29.627352
974.244340	-29.579654
974.561046	-29.223852
974.877958	-29.545987
975.195076	-29.565750
975.512401	-29.244525
975.829932	-29.348707
976.147670	-29.354852
976.465615	-29.457287
976.783767	-29.068196
977.102126	-29.204950
977.420693	-29.457650
977.739468	-29.045748
978.058451	-29.016471
978.377642	-29.107043
978.697041	-29.330728
979.016649	-28.853229
979.336466	-28.801669
979.656492	-29.290977
979.976727	-28.796074
980.297171	-28.669403
980.617825	-28.986594
980.938689	-29.139092
981.259763	-28.434577
981.581048	-28.393829
981.902542	-29.281509
982.224248	-28.659070
982.546164	-28.185122
982.868291	-28.589401
983.190630	-29.015736
983.513180	-28.344882
983.835942	-27.982469
984.158916	-28.825568
984.482101	-28.576164
984.805500	-28.104166
985.129110	-28.221718
985.452934	-28.549542
985.776970	-28.320410
986.101220	-27.988128
986.425683	-28.483101
986.750359	-28.204703
987.075250	-28.027915
987.400354	-28.197586
987.725673	-28.253349
988.051206	-28.061989
988.376954	-27.857463
988.702916	-28.348536
989.029094	-28.064160
989.355487	-27.847632
989.682095	-27.936116
990.008919	-28.105283
990.335959	-28.123089
990.663216	-27.697448
990.990688	-27.931342
991.318377	-27.980422
991.646283	-28.010292
991.974406	-27.720065
992.302746	-27.702797
992.631304	-28.071945
992.960079	-27.720678
993.289072	-27.661251
993.618283	-27.678946
993.947713	-27.950143
994.277361	-27.647323
994.607227	-27.485508
994.937313	-27.782692
995.267618	-27.607414
995.598142	-27.635428
995.928886	-27.475946
996.259849	-27.619415
996.591033	-27.441924
996.922437	-27.495762
997.254061	-27.613587
997.585906	-27.269621
997.917972	-27.410001
998.250260	-27.402003
998.582768	-27.453347
998.915498	-27.138795
999.248450	-27.340707
999.581624	-27.422513
999.915020	-27.053795
1000.248639	-27.168748
1000.582480	-27.153298
1000.916545	-27.215681
1001.250832	-26.928544
1001.585343	-27.080859
1001.920077	-26.979468
1002.255035	-26.919963
1002.590218	-27.031417
1002.925624	-26.716580
1003.261255	-26.840733
1003.597111	-26.826033
1003.933192	-26.810894
1004.269497	-26.494109
1004.606029	-26.724488
1004.942785	-26.748409
1005.279768	-26.424456
1005.616977	-26.572758
1005.954412	-26.518653
1006.292074	-26.557386
1006.629962	-26.357855
1006.968077	-26.484769
1007.306420	-26.308670
1007.644990	-26.368164
1007.983787	-26.416106
1008.322813	-26.151253
1008.662067	-26.298225
1009.001549	-26.307216
1009.341259	-26.310401
1009.681199	-26.003627
1010.021367	-26.256213
1010.361765	-26.194222
1010.702392	-26.011093
1011.043250	-26.076903
1011.384337	-26.115257
1011.725654	-26.110876
1012.067202	-25.860182
1012.408980	-26.087583
1012.750989	-25.937496
1013.093230	-25.986243
1013.435702	-25.888404
1013.778405	-25.852144
1014.121341	-25.919580
1014.464508	-25.935047
1014.807908	-25.862073
1015.151540	-25.663831
1015.495405	-26.036160
1015.839503	-25.803084
1016.183835	-25.686461
1016.528400	-25.782975
1016.873198	-25.963973
1017.218231	-25.697385
1017.563498	-25.662837
1017.908999	-25.930908
1018.254735	-25.696764
1018.600707	-25.695073
1018.946913	-25.682212
1019.293354	-25.836851
1019.640032	-25.605627
1019.986945	-25.678031
1020.334094	-25.639269
1020.681480	-25.666488
1021.029102	-25.659554
1021.376961	-25.499640
1021.725058	-25.572075
1022.073391	-25.570287
1022.421962	-25.616407
1022.770772	-25.333908
1023.119819	-25.563804
1023.469104	-25.515374
1023.818628	-25.397250
1024.168391	-25.348621
1024.518393	-25.515921
1024.868634	-25.428667
1025.219115	-25.251675
1025.569836	-25.433934
1025.920796	-25.375472
1026.271997	-25.372152
1026.623438	-25.211358
1026.975121	-25.446159
1027.327044	-25.330597
1027.679208	-25.268780
1028.031614	-25.247350
1028.384262	-25.387029
1028.737152	-25.275912
1029.090284	-25.174330
1029.443659	-25.328081
1029.797276	-25.260220
1030.151137	-25.258586
1030.505240	-25.105206
1030.859587	-25.298711
1031.214178	-25.201820
1031.569013	-25.175413
1031.924093	-25.085265
1032.279417	-25.275690
1032.634985	-25.112934
1032.990799	-25.046147
1033.346858	-25.208323
1033.703162	-25.147704
1034.059712	-25.056745
1034.416509	-25.064776
1034.773551	-25.237718
1035.130841	-25.017672
1035.488377	-25.103869
1035.846160	-25.090505
1036.204190	-25.211339
1036.562468	-25.019843
1036.920994	-25.113019
1037.279768	-25.123602
1037.638790	-25.124554
1037.998061	-25.043070
1038.357581	-25.085033
1038.717350	-25.139415
1039.077368	-25.015855
1039.437636	-25.030951
1039.798154	-25.014713
1040.158922	-25.089057
1040.519940	-24.860081
1040.881209	-25.026937
1041.242729	-24.961238
1041.604501	-24.899861
1041.966524	-24.771232
1042.328798	-24.981248
1042.691325	-24.797308
1043.054103	-24.754850
1043.417135	-24.773489
1043.780419	-24.790345
1044.143956	-24.668057
1044.507746	-24.648952
1044.871791	-24.711319
1045.236088	-24.624080
1045.600641	-24.598401
1045.965447	-24.519127
1046.330508	-24.641232
1046.695824	-24.454339
1047.061395	-24.489896
1047.427222	-24.455799
1047.793304	-24.522586
1048.159642	-24.256252
1048.526237	-24.423082
1048.893088	-24.365480
1049.260196	-24.273403
1049.627561	-24.176925
1049.995183	-24.353716
1050.363063	-24.151846
1050.731201	-24.098938
1051.099597	-24.170990
1051.468251	-24.146831
1051.837164	-24.010470
1052.206336	-24.028298
1052.575767	-24.111037
1052.945458	-23.949860
1053.315409	-23.963861
1053.685619	-23.994212
1054.056090	-24.012747
1054.426821	-23.822355
1054.797814	-24.013021
1055.169067	-23.919410
1055.540582	-23.898304
1055.912359	-23.829234
1056.284398	-24.016715
1056.656698	-23.788758
1057.029262	-23.871608
1057.402088	-23.847927
1057.775177	-23.903150
1058.148530	-23.710174
1058.522146	-23.868060
1058.896027	-23.775189
1059.270171	-23.757205
1059.644580	-23.703343
1060.019254	-23.814918
1060.394193	-23.651130
1060.769397	-23.668688
1061.144867	-23.701154
1061.520602	-23.665260
1061.896604	-23.567508
1062.272872	-23.642394
1062.649407	-23.617006
1063.026210	-23.486929
1063.403279	-23.559634
1063.780616	-23.561478
1064.158221	-23.450538
1064.536094	-23.412283
1064.914235	-23.515118
1065.292645	-23.318573
1065.671325	-23.358238
1066.050273	-23.362760
1066.429491	-23.303127
1066.808979	-23.161868
1067.188738	-23.323480
1067.568766	-23.130290
1067.949066	-23.125853
1068.329636	-23.081937
1068.710478	-23.117123
1069.091592	-22.920455
1069.472977	-23.042210
1069.854635	-22.925284
1070.236565	-22.924058
1070.618768	-22.787468
1071.001243	-22.931254
1071.383993	-22.726750
1071.767016	-22.775429
1072.150313	-22.736144
1072.533884	-22.760140
1072.917730	-22.565138
1073.301850	-22.769788
1073.686246	-22.589467
1074.070917	-22.587095
1074.455864	-22.573374
1074.841087	-22.638298
1075.226586	-22.404151
1075.612362	-22.586637
1075.998415	-22.471227
1076.384745	-22.465317
1076.771353	-22.426847
1077.158238	-22.532992
1077.545401	-22.305722
1077.932843	-22.470629
1078.320564	-22.402438
1078.708564	-22.387373
1079.096842	-22.301017
1079.485401	-22.440515
1079.874240	-22.254925
1080.263358	-22.355131
1080.652757	-22.290196
1081.042438	-22.319914
1081.432399	-22.172395
1081.822641	-22.342272
1082.213166	-22.179737
1082.603972	-22.189842
1082.995061	-22.162486
1083.386433	-22.219730
1083.778087	-22.025377
1084.170025	-22.213888
1084.562246	-22.046501
1084.954751	-22.027267
1085.347541	-22.022160
1085.740615	-22.081598
1086.133973	-21.840854
1086.527617	-21.995514
1086.921546	-21.839139
1087.315761	-21.797895
1087.710262	-21.763985
1088.105050	-21.799020
1088.500124	-21.551834
1088.895485	-21.684110
1089.291134	-21.551286
1089.687070	-21.523419
1090.083294	-21.470017
1090.479806	-21.503302
1090.876607	-21.325347
1091.273696	-21.445833
1091.671075	-21.352617
1092.068744	-21.306995
1092.466702	-21.268804
1092.864950	-21.327358
1093.263489	-21.146373
1093.662319	-21.230924
1094.061440	-21.153918
1094.460852	-21.051417
1094.860555	-21.065165
1095.260551	-21.058245
1095.660840	-20.910973
1096.061421	-20.946309
1096.462295	-20.914124
1096.863462	-20.837524
1097.264923	-20.871835
1097.666678	-20.846480
1098.068727	-20.805600
1098.471071	-20.832430
1098.873710	-20.880680
1099.276644	-20.772921
1099.679874	-20.902710
1100.083400	-20.836470
1100.487222	-20.840018
1100.891340	-20.837618
1101.295756	-20.875805
1101.700468	-20.723955
1102.105478	-20.845654
1102.510787	-20.697329
1102.916393	-20.701690
1103.322298	-20.619730
1103.728502	-20.654133
1104.135005	-20.478631
1104.541807	-20.576309
1104.948909	-20.434251
1105.356312	-20.456620
1105.764015	-20.426273
1106.172019	-20.419698
1106.580324	-20.345674
1106.988931	-20.453686
1107.397840	-20.353966
1107.807051	-20.360860
1108.216564	-20.396914
1108.626380	-20.335058
1109.036500	-20.316365
1109.446923	-20.301799
1109.857649	-20.244328
1110.268680	-20.145961
1110.680016	-20.174390
1111.091657	-19.981021
1111.503602	-20.004641
1111.915854	-19.860045
1112.328411	-19.802623
1112.741275	-19.697570
1113.154445	-19.710639
1113.567922	-19.510663
1113.981706	-19.594835
1114.395798	-19.476363
1114.810198	-19.467922
1115.224906	-19.451103
1115.639923	-19.461912
1116.055249	-19.406695
1116.470884	-19.489421
1116.886829	-19.451808
1117.303084	-19.453791
1117.719650	-19.529278
1118.136526	-19.444023
1118.553713	-19.518509
1118.971212	-19.467837
1119.389022	-19.468259
1119.807145	-19.405705
1120.225580	-19.441503
1120.644328	-19.286239
1121.063389	-19.344934
1121.482763	-19.203274
1121.902452	-19.190162
1122.322454	-19.122266
1122.742771	-19.081748
1123.163404	-18.994146
1123.584351	-19.005072
1124.005614	-18.924759
1124.427193	-18.908998
1124.849089	-18.932576
1125.271301	-18.830529
1125.693830	-18.927835
1126.116677	-18.841097
1126.539842	-18.885324
1126.963324	-18.860956
1127.387126	-18.889717
1127.811246	-18.826928
1128.235685	-18.893818
1128.660444	-18.786395
1129.085522	-18.811696
1129.510922	-18.767669
1129.936641	-18.678470
1130.362682	-18.675917
1130.789044	-18.557583
1131.215728	-18.516920
1131.642734	-18.421304
1132.070063	-18.369369
1132.497714	-18.233459
1132.925689	-18.233751
1133.353987	-18.081552
1133.782610	-18.068280
1134.211556	-17.986397
1134.640827	-17.921094
1135.070424	-17.901711
1135.500345	-17.849356
1135.930593	-17.823575
1136.361166	-17.811612
1136.792067	-17.812611
1137.223294	-17.772189
1137.654848	-17.843633
1138.086730	-17.776968
1138.518940	-17.853154
1138.951479	-17.841949
1139.384346	-17.845344
1139.817543	-17.893115
1140.251069	-17.872563
1140.684925	-17.899991
1141.119111	-17.902421
1141.553628	-17.891273
1141.988475	-17.875413
1142.423655	-17.895962
1142.859166	-17.806214
1143.295009	-17.854453
1143.731185	-17.751078
1144.167694	-17.747860
1144.604536	-17.702354
1145.041711	-17.623728
1145.479221	-17.616052
1145.917065	-17.524676
1146.355245	-17.500215
1146.793759	-17.427608
1147.232609	-17.403093
1147.671795	-17.314192
1148.111317	-17.325482
1148.551177	-17.220009
1148.991373	-17.229674
1149.431907	-17.167214
1149.872779	-17.129243
1150.313989	-17.130739
1150.755538	-17.050609
1151.197426	-17.075336
1151.639653	-17.018645
1152.082220	-17.013532
1152.525128	-16.984849
1152.968376	-16.970033
1153.411966	-16.950454
1153.855897	-16.938966
1154.300169	-16.914808
1154.744784	-16.898493
1155.189742	-16.903312
1155.635042	-16.844684
1156.080687	-16.883262
1156.526674	-16.813393
1156.973007	-16.837612
1157.419683	-16.801824
1157.866705	-16.773237
1158.314072	-16.790201
1158.761786	-16.728639
1159.209845	-16.743325
1159.658251	-16.698825
1160.107004	-16.688730
1160.556104	-16.671872
1161.005553	-16.636238
1161.455349	-16.618422
1161.905494	-16.596933
1162.355989	-16.572055
1162.806832	-16.535946
1163.258026	-16.524235
1163.709570	-16.478374
1164.161464	-16.481634
1164.613710	-16.416554
1165.066307	-16.412306
1165.519256	-16.388500
1165.972558	-16.334625
1166.426212	-16.342901
1166.880219	-16.272413
1167.334580	-16.295252
1167.789295	-16.227671
1168.244364	-16.211959
1168.699788	-16.205271
1169.155567	-16.149953
1169.611702	-16.154631
1170.068193	-16.094334
1170.525041	-16.108283
1170.982245	-16.059834
1171.439807	-16.034275
1171.897726	-16.018949
1172.356004	-15.993179
1172.814640	-15.969808
1173.273635	-15.933380
1173.732989	-15.925274
1174.192703	-15.897379
1174.652778	-15.867170
1175.113213	-15.843275
1175.574009	-15.828604
1176.035167	-15.807439
1176.496687	-15.763522
1176.958569	-15.765813
1177.420814	-15.728801
1177.883422	-15.720252
1178.346394	-15.674957
1178.809730	-15.675052
1179.273430	-15.657687
1179.737496	-15.608125
1180.201927	-15.617877
1180.666723	-15.574121
1181.131886	-15.579389
1181.597416	-15.523865
1182.063312	-15.523630
1182.529576	-15.514842
1182.996209	-15.459792
1183.463209	-15.464603
1183.930579	-15.426598
1184.398317	-15.419924
1184.866426	-15.378056
1185.334904	-15.351873
1185.803754	-15.359078
1186.272974	-15.291240
1186.742566	-15.288706
1187.212529	-15.256112
1187.682865	-15.231519
1188.153574	-15.200550
1188.624656	-15.156375
1189.096112	-15.166654
1189.567942	-15.100753
1190.040147	-15.083818
1190.512726	-15.066973
1190.985681	-15.028617
1191.459012	-15.009880
1191.932720	-14.968386
1192.406804	-14.973474
1192.881265	-14.929773
1193.356104	-14.899821
1193.831322	-14.905310
1194.306918	-14.867596
1194.782893	-14.851146
1195.259248	-14.830170
1195.735982	-14.824881
1196.213097	-14.802455
1196.690593	-14.768767
1197.168471	-14.785055
1197.646730	-14.747746
1198.125371	-14.737268
1198.604395	-14.719745
1199.083803	-14.716091
1199.563594	-14.692423
1200.043769	-14.661136
1200.524329	-14.676297
1201.005273	-14.633505
1201.486604	-14.615949
1201.968320	-14.604094
1202.450422	-14.579496
1202.932912	-14.556528
1203.415789	-14.521880
1203.899054	-14.516630
1204.382707	-14.478882
1204.866748	-14.441547
1205.351179	-14.432903
1205.836000	-14.392971
1206.321211	-14.362695
1206.806812	-14.332576
1207.292805	-14.312991
1207.779189	-14.276030
1208.265965	-14.241131
1208.753134	-14.229931
1209.240696	-14.196585
1209.728651	-14.159329
1210.217000	-14.154392
1210.705744	-14.122851
1211.194883	-14.096414
1211.684417	-14.085911
1212.174347	-14.062209
1212.664673	-14.048759
1213.155396	-14.025896
1213.646516	-14.021762
1214.138034	-14.000806
1214.629951	-13.988310
1215.122266	-13.980808
1215.614980	-13.960408
1216.108095	-13.962239
1216.601609	-13.932334
1217.095524	-13.933301
1217.589841	-13.926817
1218.084559	-13.887601
1218.579679	-13.905893
1219.075202	-13.881002
1219.571128	-13.852770
1220.067458	-13.866812
1220.564191	-13.838711
1221.061330	-13.813667
1221.558874	-13.832590
1222.056823	-13.790556
1222.555178	-13.780775
1223.053940	-13.797829
1223.553109	-13.741081
1224.052686	-13.755224
1224.552671	-13.759429
1225.053065	-13.694894
1225.553867	-13.732122
1226.055079	-13.716503
1226.556702	-13.651868
1227.058735	-13.711092
1227.561179	-13.665358
1228.064035	-13.614558
1228.567303	-13.689547
1229.070983	-13.601725
1229.575077	-13.595425
1230.079585	-13.650561
1230.584506	-13.542603
1231.089842	-13.585951
1231.595594	-13.595567
1232.101761	-13.496841
1232.608345	-13.574752
1233.115345	-13.533241
1233.622762	-13.464704
1234.130597	-13.559217
1234.638851	-13.461997
1235.147523	-13.454112
1235.656615	-13.522143
1236.166126	-13.402720
1236.676058	-13.450017
1237.186411	-13.464743
1237.697185	-13.363115
1238.208381	-13.437769
1238.719999	-13.400430
1239.232040	-13.339752
1239.744505	-13.411941
1240.257394	-13.337017
1240.770708	-13.332255
1241.284446	-13.367435
1241.798610	-13.288698
1242.313201	-13.326281
1242.828218	-13.310109
1243.343662	-13.263060
1243.859534	-13.306207
1244.375834	-13.255412
1244.892563	-13.246051
1245.409721	-13.274270
1245.927309	-13.205417
1246.445327	-13.231924
1246.963777	-13.225256
1247.482657	-13.168355
1248.001970	-13.205677
1248.521716	-13.169273
1249.041894	-13.136875
1249.562506	-13.160808
1250.083553	-13.116264
1250.605034	-13.099900
1251.126950	-13.105895
1251.649302	-13.064925
1252.172091	-13.053046
1252.695316	-13.044092
1253.218979	-13.016117
1253.743079	-12.994165
1254.267619	-12.983405
1254.792597	-12.961453
1255.318015	-12.927001
1255.843874	-12.927964
1256.370173	-12.895012
1256.896913	-12.862472
1257.424095	-12.867972
1257.951720	-12.822802
1258.479787	-12.799130
1259.008298	-12.804006
1259.537254	-12.746395
1260.066654	-12.742052
1260.596499	-12.729895
1261.126790	-12.675805
1261.657527	-12.683652
1262.188711	-12.652627
1262.720342	-12.614486
1263.252422	-12.620983
1263.784950	-12.578289
1264.317928	-12.558952
1264.851355	-12.556125
1265.385232	-12.510498
1265.919560	-12.507897
1266.454340	-12.486983
1266.989572	-12.453924
1267.525256	-12.452567
1268.061394	-12.422120
1268.597985	-12.401247
1269.135031	-12.395530
1269.672531	-12.359717
1270.210487	-12.351499
1270.748899	-12.334597
1271.287768	-12.303561
1271.827094	-12.300083
1272.366877	-12.273798
1272.907119	-12.251513
1273.447820	-12.247201
1273.988981	-12.215944
1274.530601	-12.203924
1275.072683	-12.194849
1275.615226	-12.163465
1276.158230	-12.160720
1276.701697	-12.145000
1277.245627	-12.119177
1277.790021	-12.121169
1278.334879	-12.100730
1278.880202	-12.082353
1279.425991	-12.087237
1279.972245	-12.062309
1280.518966	-12.053751
1281.066155	-12.056802
1281.613811	-12.031702
1282.161936	-12.030520
1282.710529	-12.031389
1283.259593	-12.005846
1283.809126	-12.013164
1284.359131	-12.008043
1284.909607	-11.986750
1285.460555	-11.998014
1286.011976	-11.988687
1286.563870	-11.970629
1287.116237	-11.987239
1287.669080	-11.970166
1288.222397	-11.960231
1288.776191	-11.976683
1289.330460	-11.954882
1289.885207	-11.953220
1290.440431	-11.967315
1290.996133	-11.942182
1291.552314	-11.950332
1292.108975	-11.957584
1292.666115	-11.933341
1293.223737	-11.949208
1293.781839	-11.947988
1294.340424	-11.928304
1294.899491	-11.947584
1295.459041	-11.938841
1296.019075	-11.926172
1296.579593	-11.944020
1297.140597	-11.930742
1297.702086	-11.924939
1298.264061	-11.938404
1298.826524	-11.923921
1299.389474	-11.922978
1299.952912	-11.931112
1300.516839	-11.918184
1301.081255	-11.919315
1301.646162	-11.922121
1302.211559	-11.913775
1302.777448	-11.912441
1303.343829	-11.913349
1303.910702	-11.908575
1304.478069	-11.901772
1305.045930	-11.906018
1305.614285	-11.899673
1306.183136	-11.888794
1306.752483	-11.897285
1307.322326	-11.885609
1307.892666	-11.873593
1308.463504	-11.884766
1309.034841	-11.864398
1309.606677	-11.857009
1310.179012	-11.864268
1310.751849	-11.839287
1311.325186	-11.835039
1311.899025	-11.837975
1312.473366	-11.807994
1313.048211	-11.811953
1313.623559	-11.800013
1314.199412	-11.780287
1314.775770	-11.777500
1315.352634	-11.764274
1315.930004	-11.747406
1316.507881	-11.741523
1317.086266	-11.726566
1317.665159	-11.716146
1318.244562	-11.700361
1318.824474	-11.695123
1319.404897	-11.679555
1319.985831	-11.663622
1320.567276	-11.663757
1321.149234	-11.641478
1321.731706	-11.630989
1322.314691	-11.630541
1322.898190	-11.603584
1323.482205	-11.601080
1324.066736	-11.592597
1324.651783	-11.569191
1325.237347	-11.568359
1325.823430	-11.552363
1326.410031	-11.537146
1326.997151	-11.529747
1327.584791	-11.514202
1328.172952	-11.504281
1328.761634	-11.487065
1329.350839	-11.481226
1329.940566	-11.466327
1330.530817	-11.449341
1331.121592	-11.449785
1331.712891	-11.428009
1332.304716	-11.419007
1332.897068	-11.418533
1333.489946	-11.395410
1334.083352	-11.395562
1334.677287	-11.387285
1335.271750	-11.374458
1335.866744	-11.372839
1336.462268	-11.363639
1337.058323	-11.361309
1337.654910	-11.350598
1338.252029	-11.351419
1338.849682	-11.348682
1339.447869	-11.334408
1340.046591	-11.346261
1340.645848	-11.334609
1341.245641	-11.329367
1341.845972	-11.338908
1342.446840	-11.326761
1343.048246	-11.329939
1343.650191	-11.329836
1344.252677	-11.329742
1344.855702	-11.328407
1345.459269	-11.326906
1346.063379	-11.338002
1346.668030	-11.324755
1347.273226	-11.334993
1347.878965	-11.341205
1348.485250	-11.329690
1349.092080	-11.344455
1349.699456	-11.343328
1350.307380	-11.344546
1350.915851	-11.348427
1351.524871	-11.354326
1352.134441	-11.360373
1352.744560	-11.353372
1353.355231	-11.374874
1353.966453	-11.370829
1354.578227	-11.371896
1355.190555	-11.391737
1355.803436	-11.388159
1356.416872	-11.398355
1357.030863	-11.404925
1357.645411	-11.420006
1358.260515	-11.420054
1358.876177	-11.429001
1359.492397	-11.452881
1360.109176	-11.443629
1360.726516	-11.463430
1361.344416	-11.477074
1361.962877	-11.480301
1362.581901	-11.492438
1363.201487	-11.503433
1363.821637	-11.521192
1364.442352	-11.513916
1365.063632	-11.539110
1365.685478	-11.549046
1366.307891	-11.544909
1366.930871	-11.567396
1367.554420	-11.572919
1368.178538	-11.582824
1368.803226	-11.582485
1369.428485	-11.605625
1370.054315	-11.608185
1370.680717	-11.604254
1371.307693	-11.631473
1371.935242	-11.628031
1372.563366	-11.635294
1373.192065	-11.641574
1373.821341	-11.658783
1374.451193	-11.656663
1375.081623	-11.658175
1375.712632	-11.685419
1376.344221	-11.675566
1376.976389	-11.686431
1377.609139	-11.696688
1378.242470	-11.709505
1378.876384	-11.706374
1379.510881	-11.715476
1380.145963	-11.740459
1380.781629	-11.727810
1381.417881	-11.745016
1382.054720	-11.756239
1382.692147	-11.766167
1383.330161	-11.763223
1383.968765	-11.778012
1384.607959	-11.797270
1385.247743	-11.783407
1385.888119	-11.803487
1386.529087	-11.811876
1387.170648	-11.819802
1387.812804	-11.813843
1388.455554	-11.832815
1389.098899	-11.844438
1389.742842	-11.830199
1390.387381	-11.849634
1391.032519	-11.854900
1391.678256	-11.860598
1392.324592	-11.849616
1392.971529	-11.872271
1393.619068	-11.874294
1394.267208	-11.862909
1394.915952	-11.876850
1395.565300	-11.882776
1396.215253	-11.886605
1396.865812	-11.872717
1397.516977	-11.900041
1398.168749	-11.896420
1398.821130	-11.892945
1399.474120	-11.898949
1400.127719	-11.913771
1400.781930	-11.913781
1401.436752	-11.902677
1402.092186	-11.930130
1402.748234	-11.927794
1403.404897	-11.931555
1404.062174	-11.929130
1404.720067	-11.957573
1405.378577	-11.952676
1406.037705	-11.952579
1406.697451	-11.973185
1407.357817	-11.985005
1408.018803	-11.990047
1408.680410	-11.987528
1409.342639	-12.023204
1410.005492	-12.018154
1410.668968	-12.027557
1411.333068	-12.032508
1411.997795	-12.061713
1412.663147	-12.056029
1413.329127	-12.062036
1413.995736	-12.085142
1414.662973	-12.095086
1415.330840	-12.100268
1415.999339	-12.100852
1416.668469	-12.135511
1417.338232	-12.127986
1418.008628	-12.141421
1418.679659	-12.145039
1419.351325	-12.177822
1420.023628	-12.167768
1420.696568	-12.180448
1421.370145	-12.195474
1422.044362	-12.209819
1422.719219	-12.206555
1423.394717	-12.209797
1424.070856	-12.236701
1424.747638	-12.231804
1425.425064	-12.242405
1426.103134	-12.243583
1426.781850	-12.278964
1427.461212	-12.265187
1428.141221	-12.283051
1428.821878	-12.286119
1429.503185	-12.314033
1430.185141	-12.299888
1430.867749	-12.316238
1431.551008	-12.331007
1432.234920	-12.349249
1432.919486	-12.350469
1433.604707	-12.365669
1434.290583	-12.394845
1434.977116	-12.397978
1435.664307	-12.409194
1436.352156	-12.413069
1437.040664	-12.445151
1437.729833	-12.433482
1438.419663	-12.454987
1439.110156	-12.459633
1439.801312	-12.501104
1440.493132	-12.493223
1441.185617	-12.526764
1441.878768	-12.536369
1442.572586	-12.572082
1443.267072	-12.559538
1443.962228	-12.582584
1444.658053	-12.586985
1445.354549	-12.607491
1446.051717	-12.599773
1446.749558	-12.624247
1447.448073	-12.646400
1448.147263	-12.671491
1448.847128	-12.685097
1449.547671	-12.712172
1450.248891	-12.740311
1450.950789	-12.747175
1451.653368	-12.751876
1452.356627	-12.753739
1453.060568	-12.768148
1453.765192	-12.756043
1454.470500	-12.766063
1455.176492	-12.773745
1455.883170	-12.810883
1456.590534	-12.817716
1457.298586	-12.855572
1458.007327	-12.874737
1458.716758	-12.915603
1459.426880	-12.904677
1460.137693	-12.917741
1460.849199	-12.896911
1461.561398	-12.899703
1462.274293	-12.855142
1462.987883	-12.853542
1463.702170	-12.834142
1464.417155	-12.859178
1465.132838	-12.852205
1465.849222	-12.897640
1466.566306	-12.922038
1467.284093	-12.979144
1468.002582	-12.984002
1468.721775	-13.017308
1469.441674	-13.004384
1470.162278	-13.005661
1470.883590	-12.947899
1471.605609	-12.921568
1472.328338	-12.867607
1473.051777	-12.851764
1473.775928	-12.811096
1474.500790	-12.827485
1475.226367	-12.842458
1475.952657	-12.904394
1476.679663	-12.946465
1477.407386	-13.027316
1478.135826	-13.085929
1478.864985	-13.153021
1479.594863	-13.167796
1480.325463	-13.180515
1481.056784	-13.153168
1481.788828	-13.120060
1482.521597	-13.054282
1483.255090	-13.006507
1483.989309	-12.972182
1484.724256	-12.972545
1485.459931	-13.004386
1486.196336	-13.085942
1486.933471	-13.229925
1487.671337	-13.414998
1488.409937	-13.650389
1489.149270	-13.901613
1489.889337	-14.191989
1490.630141	-14.443938
1491.371682	-14.675108
1492.113961	-14.803650
1492.856979	-14.882620
1493.600738	-14.828793
1494.345238	-14.720028
1495.090481	-14.503603
1495.836467	-14.297351
1496.583198	-14.045489
1497.330675	-13.848988
1498.078899	-13.647156
1498.827872	-13.541043
1499.577593	-13.461884
1500.328065	-13.477101
1501.079289	-13.520244
1501.831265	-13.647218
1502.583995	-13.800047
1503.337480	-13.989454
1504.091721	-14.165550
1504.846719	-14.317071
1505.602475	-14.422315
1506.358991	-14.438449
1507.116268	-14.384615
1507.874306	-14.231686
1508.633108	-14.059643
1509.392673	-13.832267
1510.153004	-13.646038
1510.914101	-13.460140
1511.675965	-13.376775
1512.438599	-13.344648
1513.202002	-13.437576
1513.966176	-13.624710
1514.731122	-13.959230
1515.496842	-14.447666
1516.263336	-15.094418
1517.030607	-15.973550
1517.798654	-17.065297
1518.567479	-18.518073
1519.337083	-20.279518
1520.107468	-22.477769
1520.878634	-24.709796
1521.650584	-25.443773
1522.423317	-23.831687
1523.196836	-21.282590
1523.971141	-18.970849
1524.746233	-17.051956
1525.522115	-15.432258
1526.298786	-14.115821
1527.076249	-12.963301
1527.854504	-11.996712
1528.633553	-11.143217
1529.413397	-10.400190
1530.194037	-9.747297
1530.975474	-9.151748
1531.757709	-8.638301
1532.540745	-8.160535
1533.324581	-7.748805
1534.109220	-7.368615
1534.894662	-7.038159
1535.680909	-6.751985
1536.467961	-6.497927
1537.255821	-6.298404
1538.044489	-6.126338
1538.833967	-6.014565
1539.624256	-5.936802
1540.415357	-5.911891
1541.207271	-5.939082
1542.000000	-6.011100
1542.793545	-6.151472
1543.587907	-6.331202
1544.383087	-6.586941
1545.179088	-6.892884
1545.975909	-7.269145
1546.773552	-7.715564
1547.572019	-8.221740
1548.371311	-8.825334
1549.171428	-9.486718
1549.972373	-10.260411
1550.774147	-11.108704
1551.576751	-12.068985
1552.380185	-13.137302
1553.184453	-14.278561
1553.989554	-15.520356
1554.795490	-16.690160
1555.602263	-17.750484
1556.409873	-18.330641
1557.218322	-18.400688
1558.027612	-17.863485
1558.837743	-17.045399
1559.648717	-16.087917
1560.460536	-15.152692
1561.273200	-14.313871
1562.086710	-13.544397
1562.901069	-12.925603
1563.716278	-12.366731
1564.532337	-11.943138
1565.349249	-11.582440
1566.167014	-11.315852
1566.985634	-11.134525
1567.805111	-11.003677
1568.625444	-10.971590
1569.446637	-10.965650
1570.268690	-11.050274
1571.091605	-11.167997
1571.915382	-11.340180
1572.740024	-11.567459
1573.565532	-11.805625
1574.391907	-12.114677
1575.219150	-12.409068
1576.047262	-12.754723
1576.876246	-13.090068
1577.706103	-13.424756
1578.536833	-13.774098
1579.368439	-14.063914
1580.200922	-14.376479
1581.034282	-14.604082
1581.868522	-14.827665
1582.703643	-14.993646
1583.539646	-15.101744
1584.376532	-15.203009
1585.214304	-15.211032
1586.052962	-15.242044
1586.892508	-15.199247
1587.732943	-15.158294
1588.574269	-15.105657
1589.416487	-15.011658
1590.259599	-14.961023
1591.103605	-14.853590
1591.948508	-14.785788
1592.794309	-14.696650
1593.641009	-14.597168
1594.488609	-14.529177
1595.337112	-14.410379
1596.186518	-14.333795
1597.036829	-14.223769
1597.888047	-14.116408
1598.740172	-14.029439
1599.593207	-13.903146
1600.447153	-13.823905
1601.302010	-13.717037
1602.157782	-13.630855
1603.014469	-13.568127
1603.872072	-13.484011
1604.730593	-13.454149
1605.590034	-13.404374
1606.450397	-13.386109
1607.311681	-13.391311
1608.173890	-13.382985
1609.037024	-13.429612
1609.901085	-13.456251
1610.766075	-13.515218
1611.631995	-13.592358
1612.498846	-13.652377
1613.366630	-13.761120
1614.235349	-13.842298
1615.105004	-13.946472
1615.975596	-14.060801
1616.847128	-14.144943
1617.719600	-14.267165
1618.593014	-14.351069
1619.467372	-14.441805
1620.342675	-14.538639
1621.218924	-14.593640
1622.096122	-14.682847
1622.974270	-14.738249
1623.853369	-14.794144
1624.733420	-14.869836
1625.614427	-14.907380
1626.496389	-14.985372
1627.379308	-15.049050
1628.263187	-15.112611
1629.148026	-15.215129
1630.033828	-15.286221
1630.920593	-15.397166
1631.808324	-15.508092
1632.697022	-15.605109
1633.586688	-15.744090
1634.477324	-15.847696
1635.368932	-15.971232
1636.261514	-16.100764
1637.155070	-16.193151
1638.049602	-16.318507
1638.945113	-16.407759
1639.841603	-16.489641
1640.739075	-16.587786
1641.637529	-16.638497
1642.536968	-16.714822
1643.437393	-16.776856
1644.338806	-16.816711
1645.241209	-16.889744
1646.144602	-16.925976
1647.048988	-16.975669
1647.954368	-17.037056
1648.860744	-17.065388
1649.768118	-17.126777
1650.676491	-17.167108
1651.585865	-17.195196
1652.496241	-17.245899
1653.407621	-17.255302
1654.320008	-17.273935
1655.233401	-17.287687
1656.147804	-17.265735
1657.063218	-17.266422
1657.979645	-17.242053
1658.897085	-17.206683
1659.815542	-17.190173
1660.735016	-17.141274
1661.655509	-17.105230
1662.577023	-17.072631
1663.499560	-17.015321
1664.423121	-16.980887
1665.347709	-16.931453
1666.273324	-16.871169
1667.199969	-16.828196
1668.127645	-16.757956
1669.056353	-16.689803
1669.986097	-16.626707
1670.916877	-16.539267
1671.848695	-16.467488
1672.781553	-16.391526
1673.715452	-16.302776
1674.650395	-16.233476
1675.586383	-16.151623
1676.523418	-16.068002
1677.461501	-15.998464
1678.400635	-15.911517
1679.340821	-15.831509
1680.282061	-15.757976
1681.224357	-15.668973
1682.167710	-15.592917
1683.112122	-15.515486
1684.057595	-15.427799
1685.004132	-15.355589
1685.951732	-15.276837
1686.900400	-15.195082
1687.850135	-15.128042
1688.800940	-15.051156
1689.752818	-14.977203
1690.705768	-14.913651
1691.659795	-14.838017
1692.614898	-14.769425
1693.571081	-14.707025
1694.528345	-14.634735
1695.486691	-14.573631
1696.446122	-14.515252
1697.406640	-14.448877
1698.368245	-14.394614
1699.330941	-14.338984
1700.294729	-14.277708
1701.259611	-14.228225
1702.225588	-14.174622
1703.192664	-14.118297
1704.160838	-14.073325
1705.130114	-14.022666
1706.100493	-13.971288
1707.071977	-13.929413
1708.044568	-13.880553
1709.018268	-13.833258
1709.993079	-13.794464
1710.969003	-13.748880
1711.946041	-13.706536
1712.924196	-13.671069
1713.903469	-13.628609
1714.883862	-13.590002
1715.865378	-13.556409
1716.848017	-13.515874
1717.831783	-13.480377
1718.816677	-13.449719
1719.802701	-13.413498
1720.789857	-13.382700
1721.778147	-13.354870
1722.767573	-13.320651
1723.758136	-13.291182
1724.749840	-13.263992
1725.742685	-13.231497
1726.736673	-13.204410
1727.731808	-13.179624
1728.728090	-13.149991
1729.725521	-13.125438
1730.724105	-13.102362
1731.723842	-13.074180
1732.724735	-13.050571
1733.726785	-13.028600
1734.729995	-13.002499
1735.734366	-12.981360
1736.739902	-12.962279
1737.746603	-12.938957
1738.754472	-12.919788
1739.763510	-12.902278
1740.773721	-12.880416
1741.785105	-12.862594
1742.797665	-12.847124
1743.811403	-12.827892
1744.826321	-12.812459
1745.842422	-12.799704
1746.859706	-12.782900
1747.878177	-12.769013
1748.897835	-12.757998
1749.918685	-12.742853
1750.940726	-12.729972
1751.963963	-12.720625
1752.988395	-12.707695
1754.014027	-12.696313
1755.040860	-12.688639
1756.068895	-12.677087
1757.098135	-12.665707
1758.128583	-12.658443
1759.160240	-12.648401
1760.193109	-12.637848
1761.227191	-12.631647
1762.262488	-12.623229
1763.299004	-12.613112
1764.336740	-12.607101
1765.375697	-12.599739
1766.415880	-12.589592
1767.457288	-12.582971
1768.499926	-12.576496
1769.543794	-12.567328
1770.588895	-12.561397
1771.635231	-12.556535
1772.682805	-12.548145
1773.731619	-12.541515
1774.781674	-12.536998
1775.832973	-12.529546
1776.885519	-12.522925
1777.939312	-12.519255
1778.994357	-12.513593
1780.050654	-12.507773
1781.108207	-12.505401
1782.167017	-12.501649
1783.227087	-12.496057
1784.288418	-12.493050
1785.351013	-12.490123
1786.414875	-12.485756
1787.480006	-12.484473
1788.546407	-12.484880
1789.614082	-12.483251
1790.683032	-12.482599
1791.753259	-12.483480
1792.824767	-12.481988
1793.897557	-12.480366
1794.971632	-12.481261
1796.046994	-12.481426
1797.123645	-12.481076
1798.201588	-12.483314
1799.280824	-12.485305
1800.361357	-12.485049
1801.443188	-12.486055
1802.526320	-12.488177
1803.610756	-12.488857
1804.696497	-12.490927
1805.783546	-12.495774
1806.871906	-12.499553
1807.961578	-12.502396
1809.052565	-12.507215
1810.144870	-12.512160
1811.238494	-12.516060
1812.333441	-12.521786
1813.429713	-12.528833
1814.527311	-12.534402
1815.626239	-12.540295
1816.726499	-12.548191
1817.828094	-12.555553
1818.931025	-12.562272
1820.035295	-12.570787
1821.140906	-12.579794
1822.247862	-12.587786
1823.356165	-12.596444
1824.465816	-12.605676
1825.576819	-12.613500
1826.689175	-12.621247
1827.802888	-12.630698
1828.917960	-12.640576
1830.034394	-12.649949
1831.152191	-12.659917
1832.271354	-12.670317
1833.391887	-12.679931
1834.513790	-12.689728
1835.637068	-12.700759
1836.761722	-12.711680
1837.887755	-12.721995
1839.015169	-12.732774
1840.143968	-12.743764
1841.274153	-12.754318
1842.405727	-12.765528
1843.538693	-12.777456
1844.673053	-12.788559
1845.808810	-12.799292
1846.945966	-12.811060
1848.084525	-12.823502
1849.224488	-12.836009
1850.365858	-12.849373
1851.508638	-12.863553
1852.652831	-12.877382
1853.798438	-12.891273
1854.945463	-12.906274
1856.093909	-12.921478
1857.243777	-12.936682
1858.395071	-12.953063
1859.547794	-12.969983
1860.701947	-12.986082
1861.857533	-13.001976
1863.014556	-13.018188
1864.173018	-13.034506
1865.332922	-13.051645
1866.494270	-13.069882
1867.657065	-13.088293
1868.821309	-13.106149
1869.987006	-13.123238
1871.154158	-13.139860
1872.322768	-13.156877
1873.492839	-13.174430
1874.664373	-13.192270
1875.837373	-13.210705
1877.011841	-13.229006
1878.187782	-13.245994
1879.365197	-13.262793
1880.544089	-13.280627
1881.724460	-13.298567
1882.906315	-13.316565
1884.089655	-13.335341
1885.274483	-13.353634
1886.460803	-13.370391
1887.648616	-13.387072
1888.837927	-13.404351
1890.028736	-13.421913
1891.221049	-13.440525
1892.414866	-13.460056
1893.610192	-13.478722
1894.807028	-13.496826
1896.005379	-13.516038
1897.205246	-13.535905
1898.406633	-13.556123
1899.609542	-13.577809
1900.813977	-13.600274
1902.019940	-13.621837
1903.227434	-13.643208
1904.436462	-13.665507
1905.647028	-13.688318
1906.859133	-13.711624
1908.072781	-13.735824
1909.287976	-13.760468
1910.504719	-13.784851
1911.723013	-13.809091
1912.942863	-13.833560
1914.164270	-13.858612
1915.387238	-13.884049
1916.611770	-13.909513
1917.837868	-13.934693
1919.065536	-13.959750
1920.294777	-13.984801
1921.525594	-14.009638
1922.757989	-14.034117
1923.991967	-14.057868
1925.227529	-14.080835
1926.464679	-14.103678
1927.703420	-14.126866
1928.943755	-14.149707
1930.185688	-14.171823
1931.429221	-14.194043
1932.674356	-14.216780
1933.921099	-14.239137
1935.169451	-14.260637
1936.419415	-14.281451
1937.670996	-14.301696
1938.924195	-14.321196
1940.179017	-14.340766
1941.435463	-14.360749
1942.693538	-14.380180
1943.953245	-14.398674
1945.214586	-14.417026
1946.477566	-14.436395
1947.742186	-14.456015
1949.008451	-14.474607
1950.276363	-14.492720
1951.545926	-14.511747
1952.817143	-14.531798
1954.090017	-14.551965
1955.364551	-14.571688
1956.640749	-14.591149
1957.918615	-14.609884
1959.198150	-14.627912
1960.479359	-14.645881
1961.762244	-14.664180
1963.046810	-14.681888
1964.333059	-14.697877
1965.620995	-14.712540
1966.910621	-14.727065
1968.201940	-14.741798
1969.494956	-14.756414
1970.789672	-14.770106
1972.086091	-14.782494
1973.384217	-14.793150
1974.684053	-14.802140
1975.985602	-14.810174
1977.288869	-14.817188
1978.593855	-14.822525
1979.900566	-14.825975
1981.209003	-14.827836
1982.519171	-14.828831
1983.831073	-14.828430
1985.144712	-14.826635
1986.460093	-14.824338
1987.777217	-14.821899
1989.096089	-14.818852
1990.416713	-14.814371
1991.739092	-14.809265
1993.063228	-14.803857
1994.389127	-14.797664
1995.716791	-14.790738
1997.046223	-14.784123
1998.377428	-14.778224
1999.710409	-14.772661
2001.045169	-14.767144
2002.381713	-14.763093
2003.720043	-14.761481
2005.060163	-14.761407
2006.402077	-14.761744
2007.745788	-14.761660
2009.091301	-14.761335
2010.438618	-14.760911
2011.787743	-14.759883
2013.138680	-14.757129
2014.491433	-14.751541
2015.846005	-14.742021
2017.202399	-14.728177
2018.560621	-14.709783
2019.920673	-14.686696
2021.282558	-14.657868
2022.646281	-14.623282
2024.011846	-14.584215
2025.379256	-14.543206
2026.748515	-14.501485
2028.119626	-14.460153
2029.492594	-14.419990
2030.867422	-14.383379
2032.244114	-14.352876
2033.622673	-14.330234
2035.003104	-14.315434
2036.385411	-14.306277
2037.769597	-14.302215
2039.155665	-14.303477
2040.543621	-14.309421
2041.933467	-14.317779
2043.325208	-14.325651
2044.718847	-14.331826
2046.114389	-14.336084
2047.511837	-14.337847
2048.911195	-14.336367
2050.312467	-14.330904
2051.715657	-14.320170
2053.120769	-14.304145
2054.527807	-14.284919
2055.936775	-14.263781
2057.347677	-14.239471
2058.760516	-14.210255
2060.175297	-14.177414
2061.592025	-14.142892
2063.010701	-14.106737
2064.431332	-14.067538
2065.853921	-14.026002
2067.278472	-13.983548
2068.704988	-13.942333
2070.133475	-13.902568
2071.563936	-13.863967
2072.996375	-13.827462
2074.430796	-13.794699
2075.867204	-13.766827
2077.305603	-13.743393
2078.745996	-13.723317
2080.188389	-13.705942
2081.632784	-13.691735
2083.079187	-13.679468
2084.527601	-13.667887
2085.978030	-13.656997
2087.430480	-13.646569
2088.884954	-13.635316
2090.341455	-13.622190
2091.799990	-13.605652
2093.260561	-13.584669
2094.723173	-13.560916
2096.187831	-13.536111
2097.654538	-13.508856
2099.123300	-13.478326
2100.594119	-13.447215
2102.067001	-13.418604
2103.541950	-13.392507
2105.018971	-13.367905
2106.498067	-13.345572
2107.979243	-13.326609
2109.462503	-13.311604
2110.947853	-13.299754
2112.435295	-13.289951
2113.924836	-13.280847
2115.416478	-13.271947
2116.910227	-13.262226
2118.406087	-13.251182
2119.904063	-13.239064
2121.404158	-13.226232
2122.906378	-13.213067
2124.410727	-13.199774
2125.917210	-13.186383
2127.425831	-13.173281
2128.936594	-13.160506
2130.449505	-13.148304
2131.964567	-13.136456
2133.481786	-13.125015
2135.001166	-13.113176
2136.522711	-13.100325
2138.046427	-13.087405
2139.572317	-13.075696
2141.100388	-13.064831
2142.630642	-13.053589
2144.163085	-13.041463
2145.697722	-13.029057
2147.234558	-13.017808
2148.773596	-13.007326
2150.314842	-12.996950
2151.858301	-12.987290
2153.403977	-12.979282
2154.951875	-12.971774
2156.502000	-12.964271
2158.054357	-12.958130
2159.608950	-12.954217
2161.165785	-12.951067
2162.724866	-12.948294
2164.286198	-12.947604
2165.849786	-12.949852
2167.415635	-12.952717
2168.983749	-12.954697
2170.554134	-12.957198
2172.126795	-12.961713
2173.701737	-12.967593
2175.278964	-12.973350
2176.858481	-12.979178
2178.440294	-12.985597
2180.024408	-12.992468
2181.610827	-12.998634
2183.199557	-13.004231
2184.790602	-13.008377
2186.383968	-13.011244
2187.979660	-13.014479
2189.577683	-13.017560
2191.178041	-13.018581
2192.780741	-13.017681
2194.385787	-13.017451
2195.993185	-13.018197
2197.602939	-13.018705
2199.215054	-13.020184
2200.829537	-13.023544
2202.446392	-13.027890
2204.065624	-13.033735
2205.687239	-13.041802
2207.311242	-13.052505
2208.937638	-13.066268
2210.566433	-13.082041
2212.197631	-13.099312
2213.831239	-13.119499
2215.467261	-13.141515
2217.105703	-13.163389
2218.746570	-13.186213
2220.389867	-13.210126
2222.035601	-13.233954
2223.683776	-13.257854
2225.334398	-13.282071
2226.987472	-13.307048
2228.643004	-13.332382
2230.300999	-13.357076
2231.961463	-13.382620
2233.624402	-13.407877
2235.289820	-13.431798
2236.957723	-13.456795
2238.628118	-13.482323
2240.301009	-13.505669
2241.976402	-13.528121
2243.654303	-13.551638
2245.334717	-13.574560
2247.017650	-13.595654
2248.703108	-13.616870
2250.391096	-13.640290
2252.081620	-13.664655
2253.774686	-13.688044
2255.470300	-13.713887
2257.168467	-13.743997
2258.869193	-13.775152
2260.572484	-13.808390
2262.278345	-13.845997
2263.986783	-13.886312
2265.697804	-13.928863
2267.411412	-13.975408
2269.127615	-14.024227
2270.846417	-14.073465
2272.567826	-14.125163
2274.291846	-14.178493
2276.018484	-14.230962
2277.747745	-14.283720
2279.479637	-14.338005
2281.214164	-14.391402
2282.951333	-14.442681
2284.691149	-14.494770
2286.433619	-14.547630
2288.178750	-14.598876
2289.926546	-14.650166
2291.677014	-14.702130
2293.430161	-14.751354
2295.185992	-14.800187
2296.944513	-14.850431
2298.705732	-14.898860
2300.469653	-14.946823
2302.236283	-14.996988
2304.005629	-15.047288
2305.777696	-15.097791
2307.552492	-15.152054
2309.330022	-15.207462
2311.110292	-15.263723
2312.893310	-15.324238
2314.679080	-15.388289
2316.467611	-15.455445
2318.258907	-15.527275
2320.052976	-15.603143
2321.849824	-15.681157
2323.649457	-15.764087
2325.451883	-15.850163
2327.257106	-15.937321
2329.065135	-16.027881
2330.875975	-16.119298
2332.689633	-16.209937
2334.506116	-16.300998
2336.325430	-16.392952
2338.147581	-16.482804
2339.972578	-16.570152
2341.800425	-16.658464
2343.631130	-16.745463
2345.464700	-16.829531
2347.301141	-16.915013
2349.140461	-16.998351
2350.982665	-17.080604
2352.827760	-17.164818
2354.675754	-17.248395
2356.526653	-17.332322
2358.380464	-17.417648
2360.237195	-17.503178
2362.096851	-17.588697
2363.959440	-17.678233
2365.824968	-17.769146
2367.693444	-17.858402
2369.564873	-17.953073
2371.439263	-18.054466
2373.316620	-18.159728
2375.196953	-18.271309
2377.080267	-18.389839
2378.966570	-18.515809
2380.855869	-18.645804
2382.748171	-18.776483
2384.643484	-18.910926
2386.541815	-19.047960
2388.443170	-19.181696
2390.347557	-19.317705
2392.254984	-19.453524
2394.165457	-19.581308
2396.078984	-19.710752
2397.995572	-19.841790
2399.915229	-19.970283
2401.837961	-20.099104
2403.763777	-20.224809
2405.692684	-20.350512
2407.624689	-20.473243
2409.559800	-20.589224
2411.498023	-20.708995
2413.439368	-20.829982
2415.383840	-20.946451
2417.331449	-21.066635
2419.282201	-21.189789
2421.236104	-21.305485
2423.193165	-21.426917
2425.153393	-21.556871
2427.116795	-21.685191
2429.083378	-21.821567
2431.053151	-21.970927
2433.026121	-22.126947
2435.002297	-22.284742
2436.981685	-22.452633
2438.964293	-22.635733
2440.950131	-22.818163
2442.939204	-22.996921
2444.931522	-23.188163
2446.927092	-23.374807
2448.925923	-23.551744
2450.928022	-23.731642
2452.933397	-23.905341
2454.942056	-24.072685
2456.954008	-24.237873
2458.969260	-24.405432
2460.987821	-24.565096
2463.009699	-24.721964
2465.034902	-24.881956
2467.063437	-25.035701
2469.095315	-25.182108
2471.130542	-25.328981
2473.169127	-25.468742
2475.211078	-25.609598
2477.256404	-25.745240
2479.305112	-25.880360
2481.357212	-26.020781
2483.412713	-26.158711
2485.471621	-26.312075
2487.533946	-26.473848
2489.599696	-26.650434
2491.668880	-26.843508
2493.741507	-27.035074
2495.817585	-27.249974
2497.897122	-27.477133
2499.980127	-27.719079
2502.066609	-27.960427
2504.156578	-28.190362
2506.250040	-28.445628
2508.347006	-28.678030
2510.447483	-28.891299
2512.551482	-29.098563
2514.659010	-29.302497
2516.770076	-29.492365
2518.884690	-29.669867
2521.002861	-29.874140
2523.124597	-30.068853
2525.249907	-30.229001
2527.378801	-30.400672
2529.511287	-30.567548
2531.647375	-30.709417
2533.787074	-30.816819
2535.930393	-30.958421
2538.077340	-31.084130
2540.227927	-31.185898
2542.382160	-31.316001
2544.540051	-31.464593
2546.701608	-31.600077
2548.866840	-31.752031
2551.035757	-31.968668
2553.208369	-32.184607
2555.384684	-32.422155
2557.564713	-32.689449
2559.748465	-33.003428
2561.935948	-33.308374
2564.127174	-33.620590
2566.322152	-33.958018
2568.520890	-34.272901
2570.723399	-34.533022
2572.929689	-34.819971
2575.139769	-35.079483
2577.353649	-35.303044
2579.571340	-35.543113
2581.792849	-35.771166
2584.018189	-35.973764
2586.247368	-36.182432
2588.480396	-36.369262
2590.717284	-36.494254
2592.958041	-36.614409
2595.202678	-36.672392
2597.451204	-36.717605
2599.703630	-36.779104
2601.959966	-36.771850
2604.220222	-36.823362
2606.484408	-36.868569
2608.752535	-36.967021
2611.024612	-37.052088
2613.300651	-37.217141
2615.580661	-37.387998
2617.864653	-37.629325
2620.152638	-37.941009
2622.444625	-38.259905
2624.740626	-38.697398
2627.040651	-39.105517
2629.344710	-39.568019
2631.652814	-39.979667
2633.964974	-40.401510
2636.281200	-40.772622
2638.601504	-41.249603
2640.925896	-41.607600
2643.254386	-42.032668
2645.586987	-42.420804
2647.923707	-42.788523
2650.264559	-43.213866
2652.609554	-43.402385
2654.958702	-43.600001
2657.312015	-43.621689
2659.669503	-43.551934
2662.031178	-43.388260
2664.397051	-43.219965
2666.767132	-42.990874
2669.141434	-42.871145
2671.519968	-42.663024
2673.902745	-42.518609
2676.289776	-42.429467
2678.681072	-42.390552
2681.076646	-42.434310
2683.476508	-42.548731
2685.880671	-42.758251
2688.289145	-43.101068
2690.701942	-43.424816
2693.119075	-43.831167
2695.540554	-44.265322
2697.966391	-44.694708
2700.396599	-45.191824
2702.831189	-45.691392
2705.270172	-46.236913
2707.713561	-46.858370
2710.161368	-47.613393
2712.613605	-48.510367
2715.070283	-49.477137
2717.531416	-50.549836
2719.997014	-51.756944
2722.467090	-52.482078
2724.941657	-52.952924
2727.420726	-52.923958
2729.904310	-52.610136
2732.392421	-51.958016
2734.885072	-51.259678
2737.382275	-50.547534
2739.884042	-49.868860
2742.390387	-49.196322
2744.901321	-48.668849
2747.416857	-48.347934
2749.937008	-48.225108
2752.461787	-48.180191
2754.991206	-48.220199
2757.525279	-48.365901
2760.064017	-48.450850
2762.607434	-48.617371
2765.155544	-48.712748
2767.708358	-48.854506
2770.265890	-48.963106
2772.828153	-49.198101
2775.395160	-49.466788
2777.966924	-49.874749
2780.543459	-50.508957
2783.124778	-51.277796
2785.710894	-52.163994
2788.301821	-53.450827
2790.897572	-54.708186
2793.498160	-56.354238
2796.103599	-58.091597
2798.713903	-60.218239
2801.329085	-62.219592
2803.949159	-64.287552
2806.574139	-64.381481
2809.204038	-62.229481
2811.838871	-60.151721
2814.478650	-58.784028
2817.123391	-57.855304
2819.773107	-57.443515
2822.427812	-56.910268
2825.087521	-56.947477
2827.752247	-57.138858
2830.422005	-55.459535
2833.096808	-56.471460
2835.776672	-55.993575
2838.461611	-53.666886
2841.151638	-55.412973
2843.846769	-53.913216
2846.547019	-54.009013
2849.252401	-53.183417
2851.962930	-54.056859
2854.678621	-54.395504
2857.399489	-54.647838
2860.125549	-54.830576
2862.856815	-55.375803
2865.593302	-56.841179
2868.335026	-57.579720
2871.082002	-58.858698
2873.834244	-59.785085
2876.591767	-61.623093
2879.354588	-63.364891
2882.122721	-65.961454
2884.896181	-65.566352
2887.674984	-66.438801
2890.459146	-65.519053
2893.248681	-65.637415
2896.043606	-66.639752
2898.843937	-66.729763
2901.649687	-69.432140
2904.460875	-70.142871
2907.277515	-74.486654
2910.099623	-71.196374
2912.927215	-69.456908
2915.760308	-65.196756
2918.598916	-64.502648
2921.443057	-61.596136
2924.292747	-61.903748
2927.148002	-60.341180
2930.008837	-59.937477
2932.875270	-60.248102
2935.747318	-59.489415
2938.624995	-60.093256
2941.508320	-59.574836
2944.397308	-60.254435
2947.291977	-61.206345
2950.192343	-61.958965
2953.098423	-64.774978
2956.010234	-66.045773
2958.927792	-68.845980
2961.851116	-68.089857
2964.780221	-67.592375
2967.715126	-66.651699
2970.655847	-64.733026
2973.602402	-65.272920
2976.554808	-64.121580
2979.513083	-64.213208
2982.477243	-65.687319
2985.447308	-65.609396
2988.423293	-68.198836
2991.405218	-70.561166
2994.393099	-71.784102
2997.386955	-77.386495
