# 2022-03-21_21.16.43
# shape = sech2
# FWHM_ps = 0.1
# carrier_nm = 1542
# frep_MHz = 12126
# pow_mW = 8000
# GDD = 0.0
# propa_len = 0.098
# untap_len = 0.01
# taper_len = 0.038
# waist_len = 0.02
# uptap_len = 0.02
# untap_scale = 1.0
# waist_scale = 0.19473684210526318
# workingDir = NL_20110305_12 (Spirou)
# axis = slow
# window_ps = 10.0
# steps = 200
# points = 21700
# 
# wavelength [nm]	 power spectral density [dB]
600.043425	-79.905768
600.163550	-78.365952
600.283723	-77.536601
600.403943	-77.296157
600.524212	-77.449378
600.644529	-77.878509
600.764895	-78.630496
600.885308	-79.619699
601.005770	-80.384418
601.126280	-80.607915
601.246839	-80.780864
601.367446	-81.594286
601.488101	-83.467207
601.608804	-86.662695
601.729557	-89.849472
601.850357	-86.957876
601.971206	-82.819034
602.092104	-80.035112
602.213050	-78.352931
602.334045	-77.484179
602.455089	-77.297820
602.576181	-77.681071
602.697322	-78.512545
602.818511	-79.640432
602.939749	-80.913520
603.061036	-82.149501
603.182372	-83.105706
603.303757	-83.588383
603.425191	-83.453407
603.546673	-82.752250
603.668204	-82.007457
603.789785	-81.790582
603.911414	-82.248099
604.033092	-82.956699
604.154820	-82.987890
604.276596	-81.999847
604.398422	-80.612444
604.520297	-79.295427
604.642220	-78.309958
604.764193	-77.838832
604.886216	-78.016707
605.008287	-78.906002
605.130408	-80.559323
605.252578	-82.825947
605.374798	-85.003375
605.497066	-85.854583
605.619385	-85.175252
605.741752	-83.786486
605.864169	-82.235706
605.986636	-80.909761
606.109152	-79.985938
606.231718	-79.492366
606.354333	-79.390826
606.476998	-79.601270
606.599712	-79.994092
606.722476	-80.398660
606.845290	-80.598645
606.968154	-80.466783
607.091067	-80.207553
607.214030	-80.370383
607.337043	-81.564716
607.460106	-84.523709
607.583219	-90.005553
607.706381	-88.479958
607.829594	-82.753714
607.952856	-79.419287
608.076169	-77.541497
608.199531	-76.664704
608.322944	-76.593645
608.446407	-77.280952
608.569920	-78.736067
608.693483	-80.818095
608.817096	-82.995590
608.940759	-84.452186
609.064473	-85.439711
609.188237	-86.639330
609.312051	-86.751245
609.435916	-84.390108
609.559831	-81.642839
609.683796	-79.653638
609.807812	-78.508237
609.931878	-78.144065
610.055995	-78.498632
610.180162	-79.469011
610.304380	-80.716244
610.428648	-81.440002
610.552967	-81.083461
610.677337	-80.489315
610.801757	-80.742878
610.926228	-82.656457
611.050750	-87.867180
611.175323	-97.589693
611.299946	-84.932035
611.424620	-79.831697
611.549345	-77.245575
611.674121	-76.074930
611.798948	-76.026856
611.923826	-77.060983
612.048755	-79.375149
612.173734	-83.298002
612.298765	-87.058357
612.423847	-84.782970
612.548980	-82.244980
612.674165	-81.611792
612.799400	-82.742791
612.924687	-85.260398
613.050025	-86.201212
613.175414	-83.040944
613.300854	-80.143854
613.426346	-78.657116
613.551889	-78.579810
613.677484	-80.014709
613.803130	-83.465849
613.928827	-88.202946
614.054576	-84.340213
614.180377	-79.902171
614.306229	-77.702000
614.432132	-77.174751
614.558087	-78.228610
614.684094	-81.432303
614.810153	-90.075838
614.936263	-89.487299
615.062425	-80.702585
615.188639	-77.193756
615.314904	-75.823020
615.441222	-76.011285
615.567591	-77.850973
615.694012	-82.342663
615.820486	-91.027846
615.947011	-82.383067
616.073588	-77.156423
616.200217	-74.662048
616.326898	-73.720956
616.453632	-74.010262
616.580417	-75.554320
616.707255	-78.612382
616.834144	-82.672323
616.961086	-81.745775
617.088081	-78.075264
617.215127	-75.908433
617.342226	-75.202187
617.469378	-75.809573
617.596581	-77.900434
617.723837	-82.291818
617.851146	-91.727266
617.978507	-86.820109
618.105920	-81.152037
618.233386	-78.865032
618.360905	-78.419260
618.488476	-79.572565
618.616100	-82.793134
618.743777	-90.720337
618.871506	-92.308085
618.999288	-83.271468
619.127123	-79.558639
619.255011	-77.748302
619.382951	-77.019277
619.510945	-77.062421
619.638991	-77.845097
619.767090	-79.466723
619.895243	-82.265859
620.023448	-87.260087
620.151706	-101.392395
620.280017	-91.319355
620.408382	-84.520105
620.536799	-81.251799
620.665270	-79.560146
620.793794	-78.975281
620.922371	-79.304698
621.051002	-80.410968
621.179686	-82.000133
621.308423	-83.537793
621.437213	-84.557738
621.566057	-85.285794
621.694954	-86.326158
621.823905	-88.677383
621.952909	-94.534399
622.081967	-94.379703
622.211079	-85.933736
622.340244	-81.625909
622.469462	-79.282953
622.598735	-78.178666
622.728061	-77.990585
622.857441	-78.593220
622.986874	-80.019019
623.116361	-82.538788
623.245903	-86.955086
623.375498	-96.877942
623.505147	-96.058795
623.634850	-88.472020
623.764606	-85.128694
623.894417	-82.919318
624.024282	-81.294850
624.154201	-80.289177
624.284174	-79.911731
624.414202	-80.112185
624.544283	-80.836915
624.674419	-82.175566
624.804609	-84.385668
624.934853	-87.950304
625.065151	-93.894300
625.195504	-99.762444
625.325911	-94.444802
625.456373	-90.329304
625.586889	-86.812723
625.717460	-83.795798
625.848085	-81.608390
625.978764	-80.251412
626.109498	-79.539201
626.240287	-79.384653
626.371131	-79.872414
626.502029	-81.160107
626.632982	-83.496732
626.763989	-87.352441
626.895052	-93.685187
627.026169	-96.492554
627.157341	-90.163939
627.288568	-85.982043
627.419850	-83.099010
627.551187	-80.995248
627.682579	-79.482785
627.814026	-78.469525
627.945528	-77.936417
628.077085	-77.927389
628.208697	-78.513811
628.340364	-79.751899
628.472087	-81.570114
628.603865	-83.512545
628.735698	-84.116526
628.867586	-82.580303
628.999530	-80.388287
629.131529	-78.475733
629.263584	-77.008304
629.395694	-75.991155
629.527859	-75.402918
629.660080	-75.253069
629.792357	-75.512791
629.924689	-76.202341
630.057077	-77.235609
630.189520	-78.342640
630.322019	-78.888639
630.454574	-78.361620
630.587184	-77.148576
630.719851	-75.894764
630.852573	-74.907362
630.985351	-74.251375
631.118185	-73.945754
631.251075	-73.996618
631.384021	-74.388004
631.517023	-75.089231
631.650081	-76.048660
631.783195	-77.065319
631.916365	-77.622282
632.049592	-77.182779
632.182874	-75.989520
632.316213	-74.696158
632.449608	-73.675339
632.583059	-73.039123
632.716567	-72.813089
632.850131	-73.011443
632.983751	-73.638250
633.117428	-74.685980
633.251161	-76.085916
633.384951	-77.641472
633.518797	-78.761727
633.652700	-78.529771
633.786660	-77.092067
633.920676	-75.445040
634.054749	-74.134844
634.188879	-73.298824
634.323065	-72.957695
634.457308	-73.127164
634.591608	-73.819965
634.725965	-75.064162
634.860379	-76.896317
634.994850	-79.351343
635.129377	-82.074018
635.263962	-82.939204
635.398604	-80.761026
635.533303	-78.131961
635.668058	-76.107432
635.802872	-74.712739
635.937742	-73.894163
636.072669	-73.628423
636.207654	-73.908592
636.342696	-74.742270
636.477796	-76.204430
636.612953	-78.520124
636.748167	-82.141297
636.883439	-87.032013
637.018768	-85.932047
637.154155	-81.189100
637.289599	-77.940832
637.425101	-75.807950
637.560660	-74.433576
637.696277	-73.653679
637.831952	-73.393993
637.967685	-73.645535
638.103475	-74.478350
638.239324	-76.084502
638.375230	-78.893009
638.511194	-83.847687
638.647215	-88.880830
638.783295	-82.760702
638.919433	-78.119330
639.055629	-75.285052
639.191883	-73.563093
639.328195	-72.640233
639.464565	-72.318310
639.600994	-72.494883
639.737481	-73.218944
639.874025	-74.717205
640.010629	-77.453490
640.147290	-82.579549
640.284010	-90.442620
640.420789	-82.117561
640.557625	-76.869388
640.694521	-73.905514
640.831474	-72.207422
640.968487	-71.420300
641.105558	-71.348612
641.242687	-71.877870
641.379876	-73.044443
641.517123	-75.117921
641.654429	-78.785970
641.791793	-86.646455
641.929216	-91.845166
642.066699	-80.416013
642.204240	-75.807567
642.341840	-73.158910
642.479499	-71.659345
642.617217	-71.043092
642.754994	-71.179552
642.892830	-72.017310
643.030726	-73.647749
643.168680	-76.415304
643.306694	-81.099862
643.444767	-86.025048
643.582899	-81.326153
643.721091	-77.083592
643.859342	-74.416421
643.997652	-72.697259
644.136022	-71.741111
644.274451	-71.496245
644.412940	-71.853899
644.551488	-72.759843
644.690096	-74.307638
644.828763	-76.597035
644.967490	-79.045822
645.106277	-79.420181
645.245124	-77.419560
645.384030	-75.219092
645.522997	-73.535202
645.662023	-72.440399
645.801109	-71.922730
645.940255	-71.913625
646.079460	-72.265281
646.218726	-72.852121
646.358052	-73.658474
646.497438	-74.635030
646.636884	-75.562559
646.776391	-76.107477
646.915957	-75.931706
647.055584	-74.820399
647.195271	-73.272584
647.335019	-71.998869
647.474826	-71.238165
647.614695	-70.942445
647.754623	-71.025123
647.894612	-71.493770
648.034662	-72.345871
648.174772	-73.431771
648.314943	-74.555653
648.455174	-75.347990
648.595466	-75.049489
648.735819	-73.526917
648.876233	-71.768452
649.016707	-70.429040
649.157242	-69.623353
649.297838	-69.330421
649.438495	-69.584719
649.579213	-70.479985
649.719992	-72.021834
649.860832	-73.917945
650.001733	-75.193831
650.142695	-74.535364
650.283718	-72.507619
650.424803	-70.560000
650.565949	-69.249683
650.707156	-68.586104
650.848424	-68.433203
650.989754	-68.769476
651.131145	-69.685432
651.272597	-71.235222
651.414111	-73.100413
651.555687	-74.132024
651.697324	-73.246291
651.839022	-71.255870
651.980782	-69.394517
652.122604	-68.177740
652.264488	-67.693685
652.406433	-67.855459
652.548441	-68.557347
652.690510	-69.769910
652.832640	-71.347859
652.974833	-72.461816
653.117088	-72.032483
653.259405	-70.643867
653.401784	-69.282302
653.544224	-68.237493
653.686727	-67.633179
653.829293	-67.572677
653.971920	-68.043186
654.114609	-68.896279
654.257361	-69.933223
654.400175	-70.800319
654.543052	-70.802803
654.685991	-69.789019
654.828992	-68.546775
654.972056	-67.628608
655.115183	-67.155976
655.258372	-67.144767
655.401623	-67.617391
655.544937	-68.505087
655.688314	-69.435160
655.831754	-69.807435
655.975256	-69.402959
656.118822	-68.534931
656.262450	-67.616490
656.406141	-66.953600
656.549894	-66.679196
656.693711	-66.770450
656.837591	-67.141069
656.981534	-67.727041
657.125540	-68.401614
657.269610	-68.807165
657.413742	-68.604265
657.557938	-67.904139
657.702196	-67.103242
657.846519	-66.458786
657.990904	-66.102529
658.135353	-66.100146
658.279866	-66.421138
658.424441	-66.921136
658.569081	-67.380895
658.713784	-67.619570
658.858550	-67.526501
659.003381	-67.146643
659.148274	-66.710665
659.293232	-66.373107
659.438253	-66.140689
659.583339	-65.996916
659.728488	-65.929199
659.873701	-65.920680
660.018978	-65.954283
660.164318	-66.044222
660.309723	-66.214600
660.455192	-66.421765
660.600725	-66.544081
660.746323	-66.474921
660.891984	-66.227589
661.037710	-65.875553
661.183500	-65.472316
661.329354	-65.099920
661.475272	-64.840096
661.621255	-64.746770
661.767303	-64.879019
661.913415	-65.290027
662.059591	-65.902732
662.205833	-66.419661
662.352138	-66.461994
662.498509	-65.935768
662.644944	-65.097043
662.791443	-64.280395
662.938008	-63.722041
663.084638	-63.550631
663.231332	-63.799791
663.378091	-64.441330
663.524915	-65.347551
663.671804	-66.123448
663.818759	-66.180320
663.965778	-65.437845
664.112863	-64.435364
664.260012	-63.578752
664.407227	-63.022679
664.554507	-62.849767
664.701853	-63.095190
664.849264	-63.729306
664.996740	-64.639118
665.144282	-65.474188
665.291889	-65.631252
665.439561	-64.905242
665.587300	-63.834543
665.735103	-62.944179
665.882973	-62.433554
666.030908	-62.343866
666.178909	-62.669334
666.326976	-63.335314
666.475109	-64.144230
666.623307	-64.706933
666.771571	-64.633997
666.919902	-63.975568
667.068298	-63.165944
667.216761	-62.550464
667.365289	-62.247119
667.513884	-62.235437
667.662545	-62.452138
667.811272	-62.836000
667.960065	-63.274327
668.108925	-63.576508
668.257851	-63.568314
668.406843	-63.235437
668.555902	-62.759907
668.705027	-62.361585
668.854219	-62.132420
669.003478	-62.064435
669.152803	-62.123454
669.302195	-62.247848
669.451653	-62.374330
669.601179	-62.474117
669.750771	-62.534304
669.900430	-62.527903
670.050156	-62.455497
670.199949	-62.347693
670.349808	-62.169351
670.499735	-61.872929
670.649729	-61.537014
670.799790	-61.301649
670.949918	-61.253098
671.100114	-61.427825
671.250377	-61.805425
671.400707	-62.228544
671.551104	-62.422910
671.701569	-62.252539
671.852101	-61.803731
672.002700	-61.219648
672.153368	-60.703885
672.304102	-60.443349
672.454905	-60.504497
672.605775	-60.853987
672.756713	-61.414370
672.907718	-61.973075
673.058791	-62.162521
673.209933	-61.821241
673.361142	-61.161036
673.512419	-60.462519
673.663764	-59.937506
673.815177	-59.767039
673.966658	-60.023361
674.118207	-60.619111
674.269825	-61.321730
674.421510	-61.773000
674.573264	-61.631008
674.725086	-60.969932
674.876977	-60.224070
675.028936	-59.689478
675.180963	-59.457884
675.333059	-59.572503
675.485224	-60.022247
675.637457	-60.607623
675.789758	-60.992199
675.942129	-60.974858
676.094568	-60.593439
676.247075	-60.052658
676.399652	-59.603677
676.552298	-59.374901
676.705012	-59.365463
676.857795	-59.557673
677.010648	-59.892042
677.163569	-60.175252
677.316560	-60.190805
677.469619	-59.952023
677.622748	-59.643911
677.775946	-59.406864
677.929214	-59.301664
678.082551	-59.328806
678.235957	-59.419636
678.389432	-59.471152
678.542977	-59.421110
678.696592	-59.277209
678.850276	-59.092670
679.004030	-58.985409
679.157853	-59.069078
679.311746	-59.285816
679.465709	-59.450682
679.619742	-59.413823
679.773844	-59.152622
679.928017	-58.786729
680.082259	-58.476801
680.236571	-58.336234
680.390954	-58.389070
680.545406	-58.633922
680.699929	-59.017087
680.854522	-59.324394
681.009185	-59.296024
681.163918	-58.917751
681.318722	-58.424944
681.473596	-58.025337
681.628540	-57.823622
681.783555	-57.862534
681.938641	-58.131086
682.093797	-58.549837
682.249023	-58.931518
682.404321	-59.001940
682.559689	-58.659376
682.715128	-58.137093
682.870637	-57.721296
683.026218	-57.530584
683.181869	-57.564213
683.337591	-57.770581
683.493385	-58.052825
683.649249	-58.268258
683.805185	-58.297241
683.961191	-58.117943
684.117269	-57.843923
684.273418	-57.634731
684.429639	-57.546948
684.585930	-57.516667
684.742294	-57.465064
684.898728	-57.401451
685.055234	-57.383169
685.211812	-57.433701
685.368461	-57.534086
685.525182	-57.644097
685.681975	-57.713640
685.838839	-57.678791
685.995775	-57.472010
686.152783	-57.117716
686.309863	-56.766681
686.467014	-56.590578
686.624238	-56.667429
686.781534	-56.980064
686.938902	-57.423300
687.096342	-57.789966
687.253854	-57.825027
687.411438	-57.421188
687.569095	-56.759550
687.726824	-56.162966
687.884626	-55.881319
688.042499	-56.018900
688.200446	-56.546360
688.358465	-57.289906
688.516556	-57.855489
688.674720	-57.785955
688.832957	-57.084198
688.991266	-56.208929
689.149649	-55.581109
689.308104	-55.400207
689.466632	-55.701009
689.625233	-56.392818
689.783906	-57.197455
689.942653	-57.611860
690.101473	-57.279000
690.260367	-56.467954
690.419333	-55.687262
690.578372	-55.237460
690.737485	-55.227978
690.896672	-55.635598
691.055931	-56.299947
691.215264	-56.891423
691.374671	-57.015299
691.534151	-56.559044
691.693704	-55.862554
691.853332	-55.323156
692.013033	-55.119156
692.172807	-55.271398
692.332656	-55.705462
692.492578	-56.197050
692.652575	-56.423603
692.812645	-56.245919
692.972789	-55.803778
693.133007	-55.373659
693.293300	-55.167783
693.453666	-55.232676
693.614107	-55.472385
693.774622	-55.726992
693.935211	-55.823709
694.095875	-55.694138
694.256613	-55.464144
694.417426	-55.286892
694.578313	-55.224019
694.739274	-55.275374
694.900311	-55.373110
695.061421	-55.392831
695.222607	-55.286637
695.383868	-55.125815
695.545203	-55.012378
695.706613	-55.019174
695.868098	-55.142307
696.029658	-55.268531
696.191293	-55.274307
696.353003	-55.133995
696.514789	-54.892790
696.676649	-54.658496
696.838585	-54.567614
697.000596	-54.676278
697.162682	-54.929269
697.324844	-55.182743
697.487081	-55.225736
697.649394	-54.971547
697.811782	-54.585685
697.974246	-54.276438
698.136786	-54.167613
698.299401	-54.325060
698.462092	-54.706226
698.624859	-55.094791
698.787702	-55.185348
698.950621	-54.857808
699.113616	-54.331558
699.276686	-53.934442
699.439833	-53.843944
699.603056	-54.064445
699.766355	-54.502812
699.929731	-54.935502
700.093183	-55.020790
700.256711	-54.637912
700.420315	-54.072904
700.583996	-53.671036
700.747754	-53.606383
700.911588	-53.876831
701.075499	-54.326750
701.239486	-54.691150
701.403550	-54.717760
701.567691	-54.352734
701.731909	-53.831967
701.896203	-53.464847
702.060575	-53.420966
702.225024	-53.684992
702.389549	-54.104372
702.554152	-54.416152
702.718832	-54.402400
702.883589	-54.074431
703.048424	-53.631828
703.213335	-53.306915
703.378324	-53.262292
703.543391	-53.510511
703.708535	-53.896094
703.873757	-54.163229
704.039056	-54.126804
704.204433	-53.820191
704.369887	-53.451169
704.535420	-53.202304
704.701030	-53.171195
704.866718	-53.370508
705.032484	-53.676981
705.198328	-53.869283
705.364250	-53.817246
705.530250	-53.588213
705.696328	-53.329909
705.862485	-53.154773
706.028720	-53.113840
706.195033	-53.188765
706.361424	-53.335663
706.527894	-53.473077
706.694442	-53.504948
706.861069	-53.428395
707.027775	-53.301029
707.194559	-53.141985
707.361422	-52.979787
707.528363	-52.888758
707.695384	-52.916149
707.862483	-53.072814
708.029661	-53.289010
708.196918	-53.411518
708.364254	-53.351532
708.531670	-53.113305
708.699164	-52.782794
708.866738	-52.538134
709.034391	-52.524995
709.202123	-52.765481
709.369935	-53.152704
709.537826	-53.443116
709.705796	-53.404528
709.873847	-53.030590
710.041976	-52.540749
710.210186	-52.196917
710.378475	-52.176314
710.546844	-52.507702
710.715292	-53.050736
710.883821	-53.477041
711.052429	-53.425067
711.221118	-52.899337
711.389887	-52.272328
711.558735	-51.883759
711.727664	-51.903957
711.896673	-52.347454
712.065763	-53.016305
712.234932	-53.468703
712.404183	-53.304762
712.573513	-52.635870
712.742924	-51.957423
712.912416	-51.631119
713.081988	-51.762680
713.251641	-52.295359
713.421375	-52.969240
713.591190	-53.294661
713.761085	-52.991711
713.931061	-52.326647
714.101119	-51.756885
714.271257	-51.566421
714.441476	-51.792061
714.611777	-52.299861
714.782159	-52.813713
714.952622	-52.974197
715.123166	-52.653497
715.293792	-52.136251
715.464499	-51.740257
715.635288	-51.631391
715.806158	-51.827467
715.977110	-52.194723
716.148143	-52.518754
716.319259	-52.620881
716.490456	-52.434564
716.661735	-52.086182
716.833096	-51.785263
717.004538	-51.653190
717.176063	-51.718912
717.347670	-51.937863
717.519359	-52.195432
717.691130	-52.364773
717.862984	-52.338836
718.034920	-52.090326
718.206938	-51.757714
718.379039	-51.512631
718.551222	-51.453265
718.723488	-51.620481
718.895836	-51.963690
719.068267	-52.297328
719.240781	-52.379709
719.413377	-52.094630
719.586057	-51.604757
719.758819	-51.226198
719.931664	-51.160726
720.104593	-51.460011
720.277604	-52.020255
720.450699	-52.491913
720.623876	-52.458951
720.797137	-51.895619
720.970482	-51.222441
721.143910	-50.870640
721.317421	-51.021414
721.491016	-51.603226
721.664694	-52.323714
721.838456	-52.617972
722.012302	-52.143449
722.186231	-51.329237
722.360244	-50.759567
722.534342	-50.711768
722.708523	-51.208124
722.882788	-51.996877
723.057137	-52.501338
723.231570	-52.242857
723.406088	-51.465173
723.580689	-50.788118
723.755375	-50.603317
723.930146	-50.964520
724.105000	-51.675798
724.279940	-52.264165
724.454963	-52.184655
724.630072	-51.549423
724.805265	-50.920858
724.980543	-50.667022
725.155905	-50.915587
725.331353	-51.511969
725.506885	-52.015567
725.682503	-52.000280
725.858205	-51.505723
726.033993	-50.977730
726.209865	-50.776789
726.385823	-50.981929
726.561866	-51.451512
726.737995	-51.821209
726.914209	-51.729324
727.090508	-51.287635
727.266893	-50.884591
727.443364	-50.789209
727.619920	-51.047460
727.796562	-51.471601
727.973290	-51.699677
728.150103	-51.498984
728.327003	-51.054591
728.503988	-50.735755
728.681060	-50.762542
728.858218	-51.107269
729.035461	-51.521832
729.212791	-51.656284
729.390208	-51.367216
729.567710	-50.920992
729.745299	-50.672992
729.922975	-50.769666
730.100737	-51.139224
730.278586	-51.512660
730.456521	-51.564267
730.634543	-51.261952
730.812652	-50.877178
730.990848	-50.690249
731.169130	-50.806406
731.347500	-51.096202
731.525957	-51.333784
731.704500	-51.337504
731.883131	-51.114777
732.061850	-50.876704
732.240655	-50.791179
732.419548	-50.868021
732.598528	-51.009468
732.777596	-51.078440
732.956751	-51.043770
733.135994	-50.979600
733.315325	-50.944675
733.494744	-50.962124
733.674250	-50.991010
733.853844	-50.945492
734.033526	-50.852110
734.213296	-50.814064
734.393154	-50.891358
734.573101	-51.053961
734.753135	-51.154767
734.933258	-51.089920
735.113469	-50.876886
735.293769	-50.654171
735.474157	-50.626190
735.654633	-50.838966
735.835198	-51.134649
736.015852	-51.270549
736.196594	-51.088063
736.377426	-50.730047
736.558346	-50.466573
736.739355	-50.489804
736.920453	-50.821682
737.101640	-51.207129
737.282916	-51.281325
737.464282	-50.976802
737.645736	-50.552501
737.827280	-50.336113
738.008914	-50.495446
738.190637	-50.933717
738.372449	-51.310981
738.554351	-51.230852
738.736342	-50.777296
738.918424	-50.382741
739.100595	-50.318309
739.282855	-50.648743
739.465206	-51.157524
739.647647	-51.365829
739.830178	-51.037644
740.012799	-50.507410
740.195510	-50.231729
740.378311	-50.393017
740.561203	-50.882640
740.744185	-51.321341
740.927258	-51.238778
741.110421	-50.696791
741.293674	-50.224622
741.477018	-50.166020
741.660453	-50.554742
741.843979	-51.124049
742.027596	-51.348791
742.211303	-50.976942
742.395102	-50.385711
742.578991	-50.075374
742.762972	-50.258213
742.947044	-50.802493
743.131207	-51.292880
743.315461	-51.246328
743.499807	-50.702967
743.684244	-50.195862
743.868773	-50.086036
744.053394	-50.433349
744.238106	-51.000865
744.422910	-51.294776
744.607805	-51.037494
744.792793	-50.492067
744.977872	-50.118373
745.163044	-50.166116
745.348307	-50.560412
745.533663	-51.012169
745.719111	-51.137488
745.904651	-50.816937
746.090283	-50.372158
746.276008	-50.133960
746.461826	-50.234482
746.647735	-50.581312
746.833738	-50.912094
747.019833	-50.988045
747.206021	-50.741796
747.392302	-50.397084
747.578676	-50.212342
747.765143	-50.253927
747.951703	-50.505027
748.138356	-50.810284
748.325102	-50.948788
748.511941	-50.802587
748.698874	-50.454850
748.885900	-50.163846
749.073019	-50.110609
749.260232	-50.342099
749.447539	-50.774392
749.634939	-51.053833
749.822433	-50.876492
750.010021	-50.363465
750.197703	-49.909837
750.385479	-49.861150
750.573348	-50.277995
750.761312	-50.939039
750.949370	-51.263502
751.137523	-50.811024
751.325769	-50.038712
751.514110	-49.591055
751.702545	-49.763376
751.891075	-50.520709
752.079700	-51.341583
752.268419	-51.332196
752.457233	-50.436215
752.646142	-49.598069
752.835145	-49.409886
753.024244	-49.969557
753.213437	-50.993910
753.402726	-51.550404
753.592110	-50.894576
753.781589	-49.828545
753.971163	-49.268994
754.160833	-49.517472
754.350598	-50.426743
754.540459	-51.345506
754.730415	-51.228523
754.920467	-50.212979
755.110615	-49.401881
755.300858	-49.304363
755.491198	-49.938080
755.681633	-50.900176
755.872164	-51.272081
756.062792	-50.622862
756.253515	-49.727063
756.444335	-49.338262
756.635252	-49.630513
756.826264	-50.382175
757.017373	-51.006472
757.208579	-50.823974
757.399881	-50.070682
757.591280	-49.490580
757.782776	-49.425087
757.974368	-49.878737
758.166058	-50.517531
758.357844	-50.758304
758.549728	-50.356706
758.741708	-49.721302
758.933786	-49.373019
759.125961	-49.503067
759.318233	-50.023077
759.510603	-50.552716
759.703071	-50.557907
759.895635	-50.026688
760.088298	-49.453692
760.281058	-49.270197
760.473916	-49.605671
760.666872	-50.232457
760.859926	-50.599583
761.053078	-50.245676
761.246328	-49.529890
761.439676	-49.080083
761.633122	-49.202770
761.826667	-49.844435
762.020310	-50.464964
762.214052	-50.352500
762.407892	-49.591646
762.601831	-48.942807
762.795868	-48.904440
762.990004	-49.507470
763.184239	-50.310114
763.378573	-50.410155
763.573006	-49.648384
763.767538	-48.876359
763.962169	-48.708028
764.156900	-49.268814
764.351729	-50.135430
764.546658	-50.343661
764.741687	-49.585282
764.936815	-48.742584
765.132042	-48.522849
765.327370	-49.054790
765.522797	-49.937456
765.718324	-50.174117
765.913950	-49.414668
766.109677	-48.579064
766.305504	-48.375248
766.501431	-48.928892
766.697458	-49.798346
766.893586	-49.997289
767.089814	-49.228347
767.286142	-48.436175
767.482571	-48.294650
767.679100	-48.859919
767.875730	-49.662810
768.072461	-49.749965
768.269293	-48.988519
768.466225	-48.288308
768.663259	-48.220561
768.860393	-48.782240
769.057629	-49.444187
769.254966	-49.419844
769.452404	-48.733986
769.649944	-48.173027
769.847585	-48.183880
770.045328	-48.668442
770.243172	-49.143384
770.441118	-49.048500
770.639166	-48.528674
770.837315	-48.149879
771.035567	-48.184815
771.233920	-48.509299
771.432376	-48.750403
771.630934	-48.668560
771.829594	-48.386754
772.028356	-48.185884
772.227220	-48.161057
772.426188	-48.224803
772.625257	-48.277281
772.824430	-48.295761
773.023705	-48.300716
773.223083	-48.217194
773.422563	-48.028417
773.622147	-47.825471
773.821834	-47.798007
774.021624	-48.027568
774.221517	-48.288337
774.421513	-48.222286
774.621613	-47.777818
774.821816	-47.389492
775.022122	-47.422743
775.222532	-47.892187
775.423046	-48.322760
775.623664	-48.084469
775.824385	-47.393694
776.025211	-46.960058
776.226140	-47.168764
776.427173	-47.855335
776.628311	-48.242497
776.829553	-47.723367
777.030899	-46.905942
777.232350	-46.618320
777.433905	-47.072755
777.635564	-47.865598
777.837328	-47.999595
778.039197	-47.209719
778.241171	-46.476326
778.443250	-46.453560
778.645433	-47.142653
778.847722	-47.823184
779.050116	-47.543624
779.252615	-46.653496
779.455219	-46.163336
779.657929	-46.456426
779.860744	-47.223545
780.063665	-47.541054
780.266691	-46.897496
780.469823	-46.142961
780.673061	-46.005294
780.876405	-46.548859
781.079855	-47.174427
781.283410	-47.013986
781.487072	-46.279777
781.690840	-45.831632
781.894715	-46.051544
782.098695	-46.656901
782.302783	-46.887477
782.506976	-46.380442
782.711277	-45.795162
782.915684	-45.723488
783.120198	-46.141987
783.324818	-46.536747
783.529546	-46.319933
783.734381	-45.771866
783.939322	-45.514860
784.144372	-45.740441
784.349528	-46.129960
784.554792	-46.135739
784.760163	-45.719886
784.965642	-45.383761
785.171228	-45.462052
785.376922	-45.772322
785.582724	-45.884144
785.788634	-45.601793
785.994651	-45.268529
786.200777	-45.241020
786.407011	-45.460591
786.613353	-45.581279
786.819804	-45.386039
787.026363	-45.102969
787.233030	-45.038220
787.439806	-45.203388
787.646691	-45.297551
787.853684	-45.131987
788.060786	-44.892406
788.267997	-44.849710
788.475317	-45.015398
788.682746	-45.091333
788.890285	-44.898406
789.097932	-44.635301
789.305689	-44.611864
789.513555	-44.816803
789.721531	-44.927486
789.929617	-44.693757
790.137812	-44.355325
790.346117	-44.295791
790.554531	-44.547798
790.763056	-44.756231
790.971691	-44.539435
791.180436	-44.121761
791.389291	-43.975290
791.598256	-44.241381
791.807332	-44.559047
792.016518	-44.428863
792.225815	-43.955852
792.435222	-43.697975
792.644740	-43.913866
792.854369	-44.296545
793.064109	-44.275734
793.273960	-43.795338
793.483922	-43.447103
793.693995	-43.579620
793.904180	-43.986485
794.114475	-44.064726
794.324882	-43.630977
794.535401	-43.231548
794.746031	-43.296396
794.956774	-43.703125
795.167627	-43.852714
795.378593	-43.468384
795.589671	-43.038969
795.800861	-43.051511
796.012162	-43.436349
796.223577	-43.624813
796.435103	-43.265583
796.646742	-42.816474
796.858493	-42.791805
797.070357	-43.165147
797.282334	-43.390255
797.494423	-43.059092
797.706626	-42.599799
797.918941	-42.548653
798.131369	-42.920024
798.343911	-43.176035
798.556566	-42.875575
798.769334	-42.398756
798.982215	-42.317109
799.195210	-42.668231
799.408319	-42.941832
799.621541	-42.670197
799.834877	-42.189610
800.048327	-42.080592
800.261890	-42.404044
800.475568	-42.688193
800.689360	-42.456854
800.903266	-42.006113
801.117287	-41.879582
801.331422	-42.167272
801.545671	-42.429037
801.760036	-42.235528
801.974514	-41.831251
802.189108	-41.707448
802.403816	-41.939509
802.618640	-42.142653
802.833578	-41.969919
803.048632	-41.641356
803.263800	-41.556200
803.479085	-41.737509
803.694484	-41.852285
803.909999	-41.674973
804.125630	-41.440371
804.341376	-41.429453
804.557239	-41.579503
804.773217	-41.579808
804.989311	-41.366906
805.205521	-41.216992
805.421847	-41.310417
805.638290	-41.447119
805.854849	-41.328960
806.071524	-41.050282
806.288316	-40.968573
806.505225	-41.168074
806.722250	-41.313546
806.939393	-41.091080
807.156652	-40.746276
807.374028	-40.714828
807.591521	-41.008911
807.809132	-41.178783
808.026859	-40.877528
808.244705	-40.483768
808.462667	-40.483153
808.680748	-40.843626
808.898946	-41.019692
809.117261	-40.665857
809.335695	-40.243347
809.554246	-40.262898
809.772916	-40.647615
809.991704	-40.811256
810.210610	-40.439175
810.429634	-40.033837
810.648777	-40.079895
810.868039	-40.458772
811.087419	-40.585750
811.306918	-40.223291
811.526535	-39.869126
811.746272	-39.936293
811.966127	-40.258178
812.186102	-40.312098
812.406196	-39.981188
812.626409	-39.711893
812.846742	-39.800713
813.067194	-40.033426
813.287766	-40.012478
813.508457	-39.744591
813.729269	-39.595851
813.950200	-39.697546
814.171251	-39.814526
814.392422	-39.710143
814.613714	-39.523753
814.835126	-39.491898
815.056658	-39.577994
815.278311	-39.552914
815.500084	-39.390203
815.721978	-39.308789
815.943993	-39.392226
816.166128	-39.439320
816.388385	-39.281779
816.610762	-39.102652
816.833261	-39.140222
817.055881	-39.304992
817.278623	-39.266102
817.501486	-38.993206
817.724471	-38.841576
817.947577	-38.996543
818.170805	-39.189348
818.394155	-39.037929
818.617627	-38.700289
818.841221	-38.627940
819.064937	-38.885983
819.288775	-39.045088
819.512736	-38.773335
819.736819	-38.436177
819.961025	-38.476399
820.185354	-38.798087
820.409805	-38.851155
820.634379	-38.479775
820.859076	-38.203849
821.083897	-38.371574
821.308840	-38.686969
821.533907	-38.593586
821.759097	-38.179867
821.984411	-38.031704
822.209848	-38.305514
822.435409	-38.540837
822.661093	-38.295781
822.886902	-37.922408
823.112834	-37.929280
823.338891	-38.247112
823.565072	-38.319455
823.791377	-37.973235
824.017807	-37.717936
824.244361	-37.872493
824.471039	-38.138712
824.697843	-38.022086
824.924771	-37.672656
825.151824	-37.597617
825.379002	-37.846499
825.606306	-37.964046
825.833734	-37.692811
826.061288	-37.444583
826.288967	-37.551418
826.516772	-37.785124
826.744703	-37.683788
826.972759	-37.361117
827.200941	-37.294305
827.429249	-37.538203
827.657683	-37.635257
827.886243	-37.350035
828.114930	-37.108337
828.343743	-37.252510
828.572682	-37.509179
828.801748	-37.377674
829.030941	-37.010096
829.260260	-36.950295
829.489706	-37.248170
829.719280	-37.367709
829.948980	-37.026559
830.178808	-36.735694
830.408763	-36.902849
830.638845	-37.231812
830.869055	-37.110914
831.099393	-36.681918
831.329858	-36.583439
831.560451	-36.917086
831.791173	-37.097882
832.022022	-36.744731
832.252999	-36.395016
832.484105	-36.533510
832.715339	-36.897816
832.946702	-36.827332
833.178193	-36.392731
833.409813	-36.254037
833.641561	-36.562604
833.873439	-36.770793
834.105445	-36.466835
834.337581	-36.121996
834.569846	-36.214883
834.802241	-36.528500
835.034764	-36.483942
835.267418	-36.119825
835.500201	-35.993052
835.733114	-36.230669
835.966157	-36.381756
836.199329	-36.146350
836.432632	-35.894392
836.666065	-35.969533
836.899629	-36.165653
837.133323	-36.089979
837.367147	-35.839667
837.601102	-35.789079
837.835188	-35.939790
838.069405	-35.966137
838.303752	-35.782102
838.538231	-35.677455
838.772841	-35.763554
839.007582	-35.814598
839.242455	-35.678362
839.477459	-35.559166
839.712595	-35.609529
839.947863	-35.667903
840.183263	-35.553851
840.418794	-35.424141
840.654458	-35.465084
840.890254	-35.551715
841.126182	-35.456332
841.362242	-35.292897
841.598435	-35.305837
841.834761	-35.426685
842.071220	-35.370516
842.307811	-35.168576
842.544536	-35.124685
842.781393	-35.268404
843.018384	-35.286347
843.255508	-35.076486
843.492765	-34.962169
843.730156	-35.099074
843.967681	-35.200178
844.205339	-35.016719
844.443132	-34.822761
844.681058	-34.907492
844.919118	-35.072626
845.157313	-34.950965
845.395642	-34.700648
845.634105	-34.714351
845.872703	-34.924815
846.111436	-34.900401
846.350303	-34.625921
846.589306	-34.545176
846.828443	-34.754434
847.067716	-34.831410
847.307124	-34.567183
847.546667	-34.384313
847.786345	-34.549214
848.026160	-34.724669
848.266110	-34.529128
848.506195	-34.272715
848.746417	-34.362222
848.986775	-34.601187
849.227269	-34.503143
849.467899	-34.197359
849.708666	-34.175995
849.949569	-34.421208
850.190609	-34.436201
850.431785	-34.140835
850.673099	-34.025937
850.914549	-34.241091
851.156137	-34.355791
851.397861	-34.111993
851.639723	-33.919017
851.881723	-34.061182
852.123860	-34.227414
852.366135	-34.057783
852.608547	-33.825579
852.851098	-33.892584
853.093786	-34.080103
853.336613	-33.996204
853.579578	-33.767071
853.822681	-33.765726
854.065923	-33.931780
854.309304	-33.903558
854.552823	-33.696298
854.796481	-33.645598
855.040278	-33.776426
855.284215	-33.785762
855.528290	-33.620757
855.772505	-33.554994
856.016859	-33.651020
856.261353	-33.666978
856.505987	-33.531742
856.750760	-33.464340
856.995673	-33.529022
857.240727	-33.532625
857.485920	-33.418141
857.731254	-33.369458
857.976729	-33.426122
858.222343	-33.412842
858.468099	-33.302847
858.713995	-33.273473
858.960032	-33.334020
859.206211	-33.298014
859.452530	-33.172709
859.698991	-33.158214
859.945593	-33.239102
860.192336	-33.192602
860.439222	-33.044249
860.686248	-33.039196
860.933417	-33.150451
861.180728	-33.102784
861.428181	-32.921649
861.675776	-32.909639
861.923514	-33.049583
862.171394	-33.011301
862.419417	-32.799111
862.667582	-32.772601
862.915890	-32.945980
863.164342	-32.931103
863.412936	-32.693894
863.661674	-32.642268
863.910555	-32.836763
864.159579	-32.847400
864.408747	-32.586616
864.658059	-32.507707
864.907515	-32.717610
865.157114	-32.762554
865.406858	-32.493387
865.656746	-32.389752
865.906778	-32.605744
866.156955	-32.675958
866.407277	-32.400231
866.657743	-32.270306
866.908354	-32.485816
867.159110	-32.578642
867.410011	-32.309184
867.661057	-32.167039
867.912249	-32.379410
868.163586	-32.485190
868.415069	-32.218285
868.666697	-32.066386
868.918472	-32.269257
869.170392	-32.377363
869.422458	-32.121120
869.674671	-31.973543
869.927030	-32.172715
870.179536	-32.275213
870.432188	-32.025810
870.684987	-31.887401
870.937933	-32.077404
871.191026	-32.161980
871.444266	-31.919104
871.697653	-31.801348
871.951188	-31.989387
872.204870	-32.054210
872.458700	-31.818449
872.712677	-31.723986
872.966803	-31.903702
873.221076	-31.936074
873.475498	-31.707710
873.730068	-31.643202
873.984787	-31.817203
874.239654	-31.819462
874.494669	-31.604021
874.749834	-31.573413
875.005147	-31.732140
875.260610	-31.695131
875.516222	-31.494999
875.771983	-31.499849
876.027894	-31.640240
876.283954	-31.566726
876.540164	-31.394469
876.796524	-31.436039
877.053033	-31.547200
877.309693	-31.436498
877.566503	-31.294843
877.823464	-31.369046
878.080575	-31.441817
878.337837	-31.301563
878.595249	-31.203603
878.852813	-31.305996
879.110528	-31.333612
879.368393	-31.171011
879.626410	-31.120334
879.884579	-31.236434
880.142899	-31.209548
880.401371	-31.040304
880.659994	-31.043463
880.918770	-31.162264
881.177698	-31.081820
881.436778	-30.921873
881.696010	-30.976743
881.955395	-31.076990
882.214933	-30.943103
882.474623	-30.809748
882.734467	-30.911352
882.994463	-30.976872
883.254613	-30.806076
883.514916	-30.719113
883.775372	-30.852499
884.035982	-30.862439
884.296746	-30.667740
884.557664	-30.637849
884.818735	-30.782525
885.079961	-30.729726
885.341341	-30.542269
885.602876	-30.577851
885.864565	-30.707184
886.126409	-30.588114
886.388407	-30.429971
886.650561	-30.522309
886.912870	-30.605603
887.175334	-30.438068
887.437953	-30.341627
887.700728	-30.475989
887.963658	-30.489927
888.226745	-30.296673
888.489987	-30.273317
888.753385	-30.414995
889.016940	-30.347294
889.280651	-30.169667
889.544518	-30.227414
889.808543	-30.340396
890.072723	-30.197975
890.337061	-30.069837
890.601556	-30.188949
890.866208	-30.233536
891.131017	-30.046081
891.395984	-29.999917
891.661109	-30.148557
891.926391	-30.103602
892.191831	-29.915745
892.457429	-29.959898
892.723186	-30.086160
892.989100	-29.952233
893.255173	-29.814889
893.521405	-29.936907
893.787796	-29.994830
894.054345	-29.806825
894.321053	-29.757935
894.587921	-29.912916
894.854948	-29.868345
895.122134	-29.680256
895.389480	-29.734985
895.656986	-29.865155
895.924651	-29.725931
896.192477	-29.599581
896.460463	-29.733876
896.728609	-29.777566
896.996915	-29.585254
897.265382	-29.561667
897.534010	-29.720809
897.802799	-29.654529
898.071749	-29.482048
898.340860	-29.566146
898.610132	-29.673745
898.879566	-29.511642
899.149162	-29.422710
899.418919	-29.574342
899.688838	-29.575204
899.958919	-29.388753
900.229162	-29.417960
900.499568	-29.557620
900.770136	-29.438616
901.040867	-29.306386
901.311761	-29.432220
901.582817	-29.480148
901.854037	-29.298819
902.125420	-29.283668
902.396966	-29.431003
902.668676	-29.347115
902.940550	-29.191696
903.212587	-29.292318
903.484788	-29.367123
903.757153	-29.192571
904.029683	-29.147649
904.302377	-29.296621
904.575236	-29.233838
904.848259	-29.062168
905.121447	-29.145502
905.394800	-29.236870
905.668319	-29.064595
905.942002	-28.997784
906.215852	-29.149001
906.489866	-29.099798
906.764047	-28.912876
907.038393	-28.985229
907.312906	-29.089926
907.587584	-28.914923
907.862429	-28.831557
908.137441	-28.987762
908.412619	-28.946225
908.687964	-28.746260
908.963476	-28.813812
909.239155	-28.928715
909.515002	-28.748318
909.791015	-28.655009
910.067197	-28.817991
910.343546	-28.779086
910.620063	-28.569086
910.896748	-28.638244
911.173601	-28.758519
911.450623	-28.570228
911.727813	-28.476480
912.005171	-28.647287
912.282699	-28.600966
912.560395	-28.386354
912.838261	-28.467477
913.116296	-28.585307
913.394500	-28.384438
913.672874	-28.303128
913.951418	-28.483046
914.230131	-28.416989
914.509015	-28.205106
914.788068	-28.309765
915.067292	-28.413832
915.346687	-28.196686
915.626252	-28.143356
915.905988	-28.330056
916.185895	-28.230289
916.465973	-28.032104
916.746223	-28.169393
917.026644	-28.245110
917.307236	-28.011982
917.588000	-28.001599
917.868937	-28.185154
918.150045	-28.040992
918.431325	-27.875591
918.712778	-28.048340
918.994404	-28.073275
919.276202	-27.834863
919.558173	-27.883953
919.840317	-28.043460
920.122634	-27.850910
920.405125	-27.744271
920.687789	-27.941770
920.970627	-27.891442
921.253639	-27.673262
921.536824	-27.790890
921.820184	-27.892244
922.103718	-27.663861
922.387427	-27.642643
922.671310	-27.833631
922.955368	-27.696665
923.239601	-27.538373
923.524009	-27.713709
923.808592	-27.720783
924.093351	-27.492721
924.378285	-27.572160
924.663396	-27.707303
924.948682	-27.499083
925.234144	-27.444349
925.519782	-27.635712
925.805597	-27.526239
926.091589	-27.358282
926.377757	-27.523086
926.664102	-27.545023
926.950624	-27.322577
927.237323	-27.394560
927.524200	-27.525778
927.811255	-27.324567
928.098487	-27.280406
928.385897	-27.465821
928.673485	-27.347847
928.961251	-27.198308
929.249196	-27.367007
929.537319	-27.363207
929.825621	-27.155384
930.114102	-27.254761
930.402762	-27.355311
930.691601	-27.144702
930.980620	-27.143185
931.269818	-27.310162
931.559196	-27.154330
931.848753	-27.052423
932.138491	-27.234038
932.428409	-27.167632
932.718508	-26.986985
933.008787	-27.131668
933.299246	-27.167504
933.589887	-26.952629
933.880709	-27.022686
934.171712	-27.143777
934.462896	-26.939303
934.754262	-26.915152
935.045810	-27.089325
935.337539	-26.941782
935.629451	-26.827018
935.921545	-27.007846
936.213822	-26.942645
936.506281	-26.758312
936.798922	-26.906413
937.091747	-26.935995
937.384755	-26.716767
937.677946	-26.797033
937.971321	-26.907186
938.264879	-26.692681
938.558621	-26.690459
938.852547	-26.857748
939.146657	-26.684035
939.440952	-26.595145
939.735431	-26.781758
940.030095	-26.677458
940.324943	-26.516884
940.619977	-26.688787
940.915196	-26.667574
941.210600	-26.457441
941.506189	-26.582307
941.801965	-26.642643
942.097926	-26.415284
942.394074	-26.474477
942.690407	-26.602226
942.986927	-26.386564
943.283634	-26.368423
943.580527	-26.539777
943.877608	-26.366066
944.174875	-26.273444
944.472330	-26.460661
944.769972	-26.347143
945.067802	-26.189218
945.365820	-26.364894
945.664026	-26.323910
945.962420	-26.121592
946.261002	-26.262584
946.559773	-26.291187
946.858733	-26.064692
947.157881	-26.155411
947.457219	-26.248423
947.756746	-26.021352
948.056462	-26.050928
948.356368	-26.190986
948.656464	-25.983401
948.956749	-25.951299
949.257225	-26.122747
949.557891	-25.951318
949.858748	-25.860089
950.159796	-26.042334
950.461034	-25.918716
950.762463	-25.778244
951.064084	-25.956883
951.365896	-25.886143
951.667900	-25.705894
951.970095	-25.865586
952.272483	-25.849061
952.575063	-25.643489
952.877835	-25.774284
953.180799	-25.807755
953.483956	-25.588003
953.787307	-25.683181
954.090850	-25.760599
954.394586	-25.539612
954.698516	-25.596679
955.002640	-25.709872
955.306957	-25.495923
955.611469	-25.513749
955.916174	-25.654998
956.221074	-25.457200
956.526169	-25.438035
956.831458	-25.597110
957.136942	-25.418797
957.442622	-25.366176
957.748496	-25.537938
958.054567	-25.383085
958.360833	-25.299846
958.667294	-25.476307
958.973952	-25.346048
959.280806	-25.238843
959.587857	-25.416304
959.895104	-25.310277
960.202548	-25.180863
960.510189	-25.355248
960.818027	-25.273041
961.126062	-25.127798
961.434295	-25.295847
961.742726	-25.233294
962.051355	-25.075110
962.360182	-25.236697
962.669207	-25.193255
962.978431	-25.025609
963.287854	-25.178265
963.597475	-25.149969
963.907296	-24.977089
964.217315	-25.122680
964.527535	-25.106420
964.837954	-24.928489
965.148573	-25.066273
965.459392	-25.060105
965.770411	-24.880731
966.081630	-25.011821
966.393051	-25.011027
966.704672	-24.830787
967.016494	-24.957620
967.328517	-24.961293
967.640742	-24.782071
967.953169	-24.904006
968.265797	-24.908369
968.578627	-24.731760
968.891660	-24.852143
969.204895	-24.854650
969.518332	-24.680299
969.831972	-24.798355
970.145816	-24.797869
970.459862	-24.628703
970.774112	-24.746200
971.088565	-24.738928
971.403223	-24.574490
971.718084	-24.694166
972.033149	-24.679532
972.348419	-24.521062
972.663893	-24.641626
972.979572	-24.616685
973.295456	-24.466694
973.611546	-24.589723
973.927840	-24.552491
974.244340	-24.410954
974.561046	-24.536126
974.877958	-24.485933
975.195076	-24.356176
975.512401	-24.483185
975.829932	-24.417368
976.147670	-24.300748
976.465615	-24.429317
976.783767	-24.347798
977.102126	-24.246702
977.420693	-24.373482
977.739468	-24.275058
978.058451	-24.192738
978.377642	-24.316656
978.697041	-24.201505
979.016649	-24.139710
979.336466	-24.256452
979.656492	-24.126502
979.976727	-24.089289
980.297171	-24.194876
980.617825	-24.050623
980.938689	-24.038916
981.259763	-24.129377
981.581048	-23.975720
981.902542	-23.990797
982.224248	-24.058794
982.546164	-23.900938
982.868291	-23.943733
983.190630	-23.985427
983.513180	-23.828709
983.835942	-23.896439
984.158916	-23.907398
984.482101	-23.761402
984.805500	-23.849398
985.129110	-23.825200
985.452934	-23.697568
985.776970	-23.800743
986.101220	-23.740906
986.425683	-23.639558
986.750359	-23.748070
987.075250	-23.655291
987.400354	-23.588464
987.725673	-23.691502
988.051206	-23.570725
988.376954	-23.543263
988.702916	-23.629263
989.029094	-23.490308
989.355487	-23.503252
989.682095	-23.559917
990.008919	-23.415375
990.335959	-23.466608
990.663216	-23.484648
990.990688	-23.349053
991.318377	-23.430238
991.646283	-23.404885
991.974406	-23.293673
992.302746	-23.391752
992.631304	-23.322932
992.960079	-23.248645
993.289072	-23.347450
993.618283	-23.242305
993.947713	-23.213174
994.277361	-23.294138
994.607227	-23.166867
994.937313	-23.185541
995.267618	-23.232237
995.598142	-23.100606
995.928886	-23.161063
996.259849	-23.162265
996.591033	-23.047070
996.922437	-23.134401
997.254061	-23.085736
997.585906	-23.006161
997.917972	-23.100849
998.250260	-23.008190
998.582768	-22.977005
998.915498	-23.055743
999.248450	-22.936415
999.581624	-22.956669
999.915020	-22.997440
1000.248639	-22.874091
1000.582480	-22.938314
1000.916545	-22.926777
1001.250832	-22.824772
1001.585343	-22.913783
1001.920077	-22.848194
1002.255035	-22.790390
1002.590218	-22.876928
1002.925624	-22.769476
1003.261255	-22.767799
1003.597111	-22.822879
1003.933192	-22.698200
1004.269497	-22.749448
1004.606029	-22.749920
1004.942785	-22.640463
1005.279768	-22.725491
1005.616977	-22.664207
1005.954412	-22.599973
1006.292074	-22.686310
1006.629962	-22.576102
1006.968077	-22.574349
1007.306420	-22.624842
1007.644990	-22.495972
1007.983787	-22.553037
1008.322813	-22.540281
1008.662067	-22.433680
1009.001549	-22.522808
1009.341259	-22.441551
1009.681199	-22.393559
1010.021367	-22.471579
1010.361765	-22.344200
1010.702392	-22.368595
1011.043250	-22.391970
1011.384337	-22.263892
1011.725654	-22.342478
1012.067202	-22.288914
1012.408980	-22.209525
1012.750989	-22.298173
1013.093230	-22.180562
1013.435702	-22.178696
1013.778405	-22.223921
1014.121341	-22.088052
1014.464508	-22.155169
1014.807908	-22.120569
1015.151540	-22.024842
1015.495405	-22.116015
1015.839503	-22.006721
1016.183835	-21.990854
1016.528400	-22.045487
1016.873198	-21.908505
1017.218231	-21.969926
1017.563498	-21.943409
1017.908999	-21.843520
1018.254735	-21.935370
1018.600707	-21.828547
1018.946913	-21.812025
1019.293354	-21.866613
1019.640032	-21.731055
1019.986945	-21.795462
1020.334094	-21.764719
1020.681480	-21.671958
1021.029102	-21.763729
1021.376961	-21.652623
1021.725058	-21.648999
1022.073391	-21.694177
1022.421962	-21.562721
1022.770772	-21.637922
1023.119819	-21.591158
1023.469104	-21.516350
1023.818628	-21.605190
1024.168391	-21.484604
1024.518393	-21.506278
1024.868634	-21.530050
1025.219115	-21.409763
1025.569836	-21.498668
1025.920796	-21.424945
1026.271997	-21.382183
1026.623438	-21.457141
1026.975121	-21.328967
1027.327044	-21.383526
1027.679208	-21.370839
1028.031614	-21.276362
1028.384262	-21.370865
1028.737152	-21.266276
1029.090284	-21.269294
1029.443659	-21.310817
1029.797276	-21.188501
1030.151137	-21.273475
1030.505240	-21.210896
1030.859587	-21.163368
1031.214178	-21.241136
1031.569013	-21.115520
1031.924093	-21.171075
1032.279417	-21.154641
1032.634985	-21.067354
1032.990799	-21.159380
1033.346858	-21.049465
1033.703162	-21.067406
1034.059712	-21.091720
1034.416509	-20.979739
1034.773551	-21.069004
1035.130841	-20.984901
1035.488377	-20.965542
1035.846160	-21.018687
1036.204190	-20.895882
1036.562468	-20.971010
1036.920994	-20.914858
1037.279768	-20.864528
1037.638790	-20.935325
1037.998061	-20.812384
1038.357581	-20.868205
1038.717350	-20.836986
1039.077368	-20.763352
1039.437636	-20.841335
1039.798154	-20.724021
1040.158922	-20.760277
1040.519940	-20.748930
1040.881209	-20.660248
1041.242729	-20.739023
1041.604501	-20.630254
1041.966524	-20.649489
1042.328798	-20.651002
1042.691325	-20.554027
1043.054103	-20.629076
1043.417135	-20.529249
1043.780419	-20.535218
1044.143956	-20.545982
1044.507746	-20.445064
1044.871791	-20.515893
1045.236088	-20.422930
1045.600641	-20.420355
1045.965447	-20.434755
1046.330508	-20.333424
1046.695824	-20.400332
1047.061395	-20.311961
1047.427222	-20.306370
1047.793304	-20.321238
1048.159642	-20.221819
1048.526237	-20.285657
1048.893088	-20.198829
1049.260196	-20.193762
1049.627561	-20.205768
1049.995183	-20.110340
1050.363063	-20.172873
1050.731201	-20.085250
1051.099597	-20.085500
1051.468251	-20.091679
1051.837164	-20.001127
1052.206336	-20.063814
1052.575767	-19.970969
1052.945458	-19.982418
1053.315409	-19.977483
1053.685619	-19.897152
1054.056090	-19.958944
1054.426821	-19.860023
1054.797814	-19.887026
1055.169067	-19.864421
1055.540582	-19.800552
1055.912359	-19.855742
1056.284398	-19.754309
1056.656698	-19.797656
1057.029262	-19.754307
1057.402088	-19.713979
1057.775177	-19.754945
1058.148530	-19.656923
1058.522146	-19.712659
1058.896027	-19.647159
1059.270171	-19.635435
1059.644580	-19.653366
1060.019254	-19.569519
1060.394193	-19.628899
1060.769397	-19.545756
1061.144867	-19.563183
1061.520602	-19.549797
1061.896604	-19.490863
1062.272872	-19.539507
1062.649407	-19.450870
1063.026210	-19.490129
1063.403279	-19.445713
1063.780616	-19.418716
1064.158221	-19.442776
1064.536094	-19.362975
1064.914235	-19.409425
1065.292645	-19.342000
1065.671325	-19.345563
1066.050273	-19.338708
1066.429491	-19.280644
1066.808979	-19.319221
1067.188738	-19.241808
1067.568766	-19.267625
1067.949066	-19.229444
1068.329636	-19.199939
1068.710478	-19.218677
1069.091592	-19.145824
1069.472977	-19.183408
1069.854635	-19.119467
1070.236565	-19.121883
1070.618768	-19.109075
1071.001243	-19.057058
1071.383993	-19.089225
1071.767016	-19.013406
1072.150313	-19.043522
1072.533884	-18.994989
1072.917730	-18.979274
1073.301850	-18.983749
1073.686246	-18.920068
1074.070917	-18.957153
1074.455864	-18.884376
1074.841087	-18.906342
1075.226586	-18.870310
1075.612362	-18.842845
1075.998415	-18.858057
1076.384745	-18.788475
1076.771353	-18.827723
1077.158238	-18.757392
1077.545401	-18.775142
1077.932843	-18.745000
1078.320564	-18.713037
1078.708564	-18.732302
1079.096842	-18.660913
1079.485401	-18.701406
1079.874240	-18.630543
1080.263358	-18.649670
1080.652757	-18.617538
1081.042438	-18.589235
1081.432399	-18.604769
1081.822641	-18.537290
1082.213166	-18.576157
1082.603972	-18.504715
1082.995061	-18.528203
1083.386433	-18.489022
1083.778087	-18.470859
1084.170025	-18.476345
1084.562246	-18.418910
1084.954751	-18.451661
1085.347541	-18.383208
1085.740615	-18.409635
1086.133973	-18.364215
1086.527617	-18.356677
1086.921546	-18.351576
1087.315761	-18.305230
1087.710262	-18.331384
1088.105050	-18.266248
1088.500124	-18.296007
1088.895485	-18.243139
1089.291134	-18.247993
1089.687070	-18.229691
1090.083294	-18.196483
1090.479806	-18.213820
1090.876607	-18.152170
1091.273696	-18.185893
1091.671075	-18.121700
1092.068744	-18.143842
1092.466702	-18.103504
1092.864950	-18.092738
1093.263489	-18.088809
1093.662319	-18.041726
1094.061440	-18.067388
1094.460852	-17.999565
1094.860555	-18.033311
1095.260551	-17.970006
1095.660840	-17.986426
1096.061421	-17.949252
1096.462295	-17.931801
1096.863462	-17.929536
1097.264923	-17.878057
1097.666678	-17.903523
1098.068727	-17.832700
1098.471071	-17.866081
1098.873710	-17.797741
1099.276644	-17.816520
1099.679874	-17.770544
1100.083400	-17.759761
1100.487222	-17.746157
1100.891340	-17.703423
1101.295756	-17.718020
1101.700468	-17.652864
1102.105478	-17.680642
1102.510787	-17.610888
1102.916393	-17.633458
1103.322298	-17.577881
1103.728502	-17.579662
1104.135005	-17.550242
1104.541807	-17.523309
1104.948909	-17.522121
1105.356312	-17.469415
1105.764015	-17.489536
1106.172019	-17.422777
1106.580324	-17.450596
1106.988931	-17.384536
1107.397840	-17.404295
1107.807051	-17.352657
1108.216564	-17.352889
1108.626380	-17.325073
1109.036500	-17.300995
1109.446923	-17.298401
1109.857649	-17.251600
1110.268680	-17.268150
1110.680016	-17.206747
1111.091657	-17.232609
1111.503602	-17.168510
1111.915854	-17.192070
1112.328411	-17.136399
1112.741275	-17.146728
1113.154445	-17.107590
1113.567922	-17.098240
1113.981706	-17.080279
1114.395798	-17.050124
1114.810198	-17.052502
1115.224906	-17.004062
1115.639923	-17.021058
1116.055249	-16.960715
1116.470884	-16.984856
1116.886829	-16.921625
1117.303084	-16.944649
1117.719650	-16.886549
1118.136526	-16.900080
1118.553713	-16.853521
1118.971212	-16.852189
1119.389022	-16.821868
1119.807145	-16.803379
1120.225580	-16.790635
1120.644328	-16.754868
1121.063389	-16.757444
1121.482763	-16.707276
1121.902452	-16.721566
1122.322454	-16.662415
1122.742771	-16.683466
1123.163404	-16.620731
1123.584351	-16.642266
1124.005614	-16.581399
1124.427193	-16.598254
1124.849089	-16.544868
1125.271301	-16.553080
1125.693830	-16.511009
1126.116677	-16.507015
1126.539842	-16.478168
1126.963324	-16.460590
1127.387126	-16.446161
1127.811246	-16.415605
1128.235685	-16.415020
1128.660444	-16.372541
1129.085522	-16.383284
1129.510922	-16.331112
1129.936641	-16.350873
1130.362682	-16.292691
1130.789044	-16.318438
1131.215728	-16.257207
1131.642734	-16.284946
1132.070063	-16.223759
1132.497714	-16.250595
1132.925689	-16.193062
1133.353987	-16.216446
1133.782610	-16.164759
1134.211556	-16.181723
1134.640827	-16.137594
1135.070424	-16.146635
1135.500345	-16.112036
1135.930593	-16.112275
1136.361166	-16.087640
1136.792067	-16.077886
1137.223294	-16.063043
1137.654848	-16.043576
1138.086730	-16.038775
1138.518940	-16.010341
1138.951479	-16.014442
1139.384346	-15.977233
1139.817543	-15.988937
1140.251069	-15.944301
1140.684925	-15.962885
1141.119111	-15.912353
1141.553628	-15.936073
1141.988475	-15.880308
1142.423655	-15.907517
1142.859166	-15.848259
1143.295009	-15.878202
1143.731185	-15.816875
1144.167694	-15.847758
1144.604536	-15.785115
1145.041711	-15.815536
1145.479221	-15.753262
1145.917065	-15.782549
1146.355245	-15.721848
1146.793759	-15.748423
1147.232609	-15.689789
1147.671795	-15.712910
1148.111317	-15.657565
1148.551177	-15.677203
1148.991373	-15.625370
1149.431907	-15.640869
1149.872779	-15.592332
1150.313989	-15.603908
1150.755538	-15.559133
1151.197426	-15.567317
1151.639653	-15.526000
1152.082220	-15.530380
1152.525128	-15.492307
1152.968376	-15.493304
1153.411966	-15.459063
1153.855897	-15.456853
1154.300169	-15.426123
1154.744784	-15.420321
1155.189742	-15.393001
1155.635042	-15.384318
1156.080687	-15.360606
1156.526674	-15.349423
1156.973007	-15.328437
1157.419683	-15.314901
1157.866705	-15.296353
1158.314072	-15.281510
1158.761786	-15.265368
1159.209845	-15.249159
1159.658251	-15.234831
1160.107004	-15.217065
1160.556104	-15.205145
1161.005553	-15.186259
1161.455349	-15.176662
1161.905494	-15.156432
1162.355989	-15.148186
1162.806832	-15.127620
1163.258026	-15.120139
1163.709570	-15.100861
1164.161464	-15.092361
1164.613710	-15.075132
1165.066307	-15.064343
1165.519256	-15.050249
1165.972558	-15.037587
1166.426212	-15.025945
1166.880219	-15.012117
1167.334580	-15.000332
1167.789295	-14.988276
1168.244364	-14.973957
1168.699788	-14.966886
1169.155567	-14.946619
1169.611702	-14.946014
1170.068193	-14.918789
1170.525041	-14.924968
1170.982245	-14.892831
1171.439807	-14.902279
1171.897726	-14.868844
1172.356004	-14.876089
1172.814640	-14.847641
1173.273635	-14.847441
1173.732989	-14.828872
1174.192703	-14.816604
1174.652778	-14.809927
1175.113213	-14.785501
1175.574009	-14.789666
1176.035167	-14.756793
1176.496687	-14.765658
1176.958569	-14.730804
1177.420814	-14.736715
1177.883422	-14.708607
1178.346394	-14.704195
1178.809730	-14.688773
1179.273430	-14.668802
1179.737496	-14.668661
1180.201927	-14.633749
1180.666723	-14.646693
1181.131886	-14.601305
1181.597416	-14.619936
1182.063312	-14.572462
1182.529576	-14.587992
1182.996209	-14.548525
1183.463209	-14.551467
1183.930579	-14.527355
1184.398317	-14.511842
1184.866426	-14.506953
1185.334904	-14.472867
1185.803754	-14.484687
1186.272974	-14.436581
1186.742566	-14.457373
1187.212529	-14.405342
1187.682865	-14.424744
1188.153574	-14.379831
1188.624656	-14.386550
1189.096112	-14.357984
1189.567942	-14.345446
1190.040147	-14.337952
1190.512726	-14.305046
1190.985681	-14.315489
1191.459012	-14.267778
1191.932720	-14.288151
1192.406804	-14.236862
1192.881265	-14.255011
1193.356104	-14.211503
1193.831322	-14.216214
1194.306918	-14.190216
1194.782893	-14.175677
1195.259248	-14.169806
1195.735982	-14.136111
1196.213097	-14.145901
1196.690593	-14.101351
1197.168471	-14.117001
1197.646730	-14.072783
1198.125371	-14.081717
1198.604395	-14.048917
1199.083803	-14.043139
1199.563594	-14.027795
1200.043769	-14.004323
1200.524329	-14.004420
1201.005273	-13.968642
1201.486604	-13.976951
1201.968320	-13.938876
1202.450422	-13.943907
1202.932912	-13.913271
1203.415789	-13.907311
1203.899054	-13.890411
1204.382707	-13.870602
1204.866748	-13.865818
1205.351179	-13.836303
1205.836000	-13.837806
1206.321211	-13.806916
1206.806812	-13.805613
1207.292805	-13.780569
1207.779189	-13.770707
1208.265965	-13.756019
1208.753134	-13.736438
1209.240696	-13.729698
1209.728651	-13.704211
1210.217000	-13.700540
1210.705744	-13.675721
1211.194883	-13.668590
1211.684417	-13.648974
1212.174347	-13.635148
1212.664673	-13.622819
1213.155396	-13.602881
1213.646516	-13.594849
1214.138034	-13.572241
1214.629951	-13.564540
1215.122266	-13.544233
1215.614980	-13.532539
1216.108095	-13.516759
1216.601609	-13.499952
1217.095524	-13.488903
1217.589841	-13.468787
1218.084559	-13.459069
1218.579679	-13.438980
1219.075202	-13.427409
1219.571128	-13.410582
1220.067458	-13.395127
1220.564191	-13.381635
1221.061330	-13.363038
1221.558874	-13.351534
1222.056823	-13.332509
1222.555178	-13.319860
1223.053940	-13.302494
1223.553109	-13.287374
1224.052686	-13.272766
1224.552671	-13.255354
1225.053065	-13.241920
1225.553867	-13.223735
1226.055079	-13.210339
1226.556702	-13.193259
1227.058735	-13.178113
1227.561179	-13.162559
1228.064035	-13.145947
1228.567303	-13.132080
1229.070983	-13.114688
1229.575077	-13.100515
1230.079585	-13.083945
1230.584506	-13.069169
1231.089842	-13.054117
1231.595594	-13.037847
1232.101761	-13.023664
1232.608345	-13.007681
1233.115345	-12.993801
1233.622762	-12.978159
1234.130597	-12.963437
1234.638851	-12.949241
1235.147523	-12.934468
1235.656615	-12.920744
1236.166126	-12.905634
1236.676058	-12.892359
1237.186411	-12.878402
1237.697185	-12.864733
1238.208381	-12.851231
1238.719999	-12.837445
1239.232040	-12.825173
1239.744505	-12.811581
1240.257394	-12.798999
1240.770708	-12.786166
1241.284446	-12.773733
1241.798610	-12.762028
1242.313201	-12.749000
1242.828218	-12.737586
1243.343662	-12.725608
1243.859534	-12.714110
1244.375834	-12.702784
1244.892563	-12.690739
1245.409721	-12.680426
1245.927309	-12.668941
1246.445327	-12.658183
1246.963777	-12.647520
1247.482657	-12.636410
1248.001970	-12.626911
1248.521716	-12.615777
1249.041894	-12.605738
1249.562506	-12.596016
1250.083553	-12.585501
1250.605034	-12.576456
1251.126950	-12.566030
1251.649302	-12.556693
1252.172091	-12.547671
1252.695316	-12.537687
1253.218979	-12.529127
1253.743079	-12.519536
1254.267619	-12.510891
1254.792597	-12.502377
1255.318015	-12.492925
1255.843874	-12.485179
1256.370173	-12.476308
1256.896913	-12.468147
1257.424095	-12.460424
1257.951720	-12.451483
1258.479787	-12.444675
1259.008298	-12.436676
1259.537254	-12.428580
1260.066654	-12.422076
1260.596499	-12.413993
1261.126790	-12.407420
1261.657527	-12.400467
1262.188711	-12.392778
1262.720342	-12.387292
1263.252422	-12.380021
1263.784950	-12.373338
1264.317928	-12.367793
1264.851355	-12.360731
1265.385232	-12.355387
1265.919560	-12.349087
1266.454340	-12.342590
1266.989572	-12.338135
1267.525256	-12.331368
1268.061394	-12.325651
1268.597985	-12.321037
1269.135031	-12.314474
1269.672531	-12.309657
1270.210487	-12.304092
1270.748899	-12.298067
1271.287768	-12.293956
1271.827094	-12.287540
1272.366877	-12.282011
1272.907119	-12.277911
1273.447820	-12.271342
1273.988981	-12.266265
1274.530601	-12.261347
1275.072683	-12.255113
1275.615226	-12.250515
1276.158230	-12.244544
1276.701697	-12.238702
1277.245627	-12.234322
1277.790021	-12.227668
1278.334879	-12.222132
1278.880202	-12.217468
1279.425991	-12.210706
1279.972245	-12.205493
1280.518966	-12.200072
1281.066155	-12.193492
1281.613811	-12.188719
1282.161936	-12.182548
1282.710529	-12.176095
1283.259593	-12.171572
1283.809126	-12.165078
1284.359131	-12.158807
1284.909607	-12.154092
1285.460555	-12.147590
1286.011976	-12.141733
1286.563870	-12.136536
1287.116237	-12.130035
1287.669080	-12.124751
1288.222397	-12.119164
1288.776191	-12.112560
1289.330460	-12.107663
1289.885207	-12.101945
1290.440431	-12.095319
1290.996133	-12.090429
1291.552314	-12.084636
1292.108975	-12.078251
1292.666115	-12.073192
1293.223737	-12.067160
1293.781839	-12.061078
1294.340424	-12.055919
1294.899491	-12.049585
1295.459041	-12.043672
1296.019075	-12.038438
1296.579593	-12.031850
1297.140597	-12.026001
1297.702086	-12.020710
1298.264061	-12.013916
1298.826524	-12.008023
1299.389474	-12.002731
1299.952912	-11.995871
1300.516839	-11.989827
1301.081255	-11.984460
1301.646162	-11.977700
1302.211559	-11.971612
1302.777448	-11.966095
1303.343829	-11.959401
1303.910702	-11.953396
1304.478069	-11.947852
1305.045930	-11.941184
1305.614285	-11.935253
1306.183136	-11.929812
1306.752483	-11.923235
1307.322326	-11.917352
1307.892666	-11.912075
1308.463504	-11.905669
1309.034841	-11.899855
1309.606677	-11.894785
1310.179012	-11.888564
1310.751849	-11.882790
1311.325186	-11.878024
1311.899025	-11.872071
1312.473366	-11.866193
1313.048211	-11.861681
1313.623559	-11.856242
1314.199412	-11.850266
1314.775770	-11.845705
1315.352634	-11.840846
1315.930004	-11.835075
1316.507881	-11.830335
1317.086266	-11.825794
1317.665159	-11.820367
1318.244562	-11.815606
1318.824474	-11.811295
1319.404897	-11.806151
1319.985831	-11.801376
1320.567276	-11.797301
1321.149234	-11.792523
1321.731706	-11.787725
1322.314691	-11.783774
1322.898190	-11.779450
1323.482205	-11.774783
1324.066736	-11.770862
1324.651783	-11.766923
1325.237347	-11.762525
1325.823430	-11.758694
1326.410031	-11.755120
1326.997151	-11.751043
1327.584791	-11.747279
1328.172952	-11.744033
1328.761634	-11.740400
1329.350839	-11.736734
1329.940566	-11.733687
1330.530817	-11.730556
1331.121592	-11.727125
1331.712891	-11.724156
1332.304716	-11.721417
1332.897068	-11.718343
1333.489946	-11.715484
1334.083352	-11.713029
1334.677287	-11.710293
1335.271750	-11.707551
1335.866744	-11.705367
1336.462268	-11.703019
1337.058323	-11.700328
1337.654910	-11.698265
1338.252029	-11.696406
1338.849682	-11.693904
1339.447869	-11.691756
1340.046591	-11.690270
1340.645848	-11.688190
1341.245641	-11.685948
1341.845972	-11.684566
1342.446840	-11.683027
1343.048246	-11.680916
1343.650191	-11.679419
1344.252677	-11.678278
1344.855702	-11.676596
1345.459269	-11.675021
1346.063379	-11.673960
1346.668030	-11.672772
1347.273226	-11.671409
1347.878965	-11.670268
1348.485250	-11.669327
1349.092080	-11.668372
1349.699456	-11.667316
1350.307380	-11.666386
1350.915851	-11.665733
1351.524871	-11.664964
1352.134441	-11.664043
1352.744560	-11.663499
1353.355231	-11.663070
1353.966453	-11.662276
1354.578227	-11.661698
1355.190555	-11.661529
1355.803436	-11.661049
1356.416872	-11.660454
1357.030863	-11.660296
1357.645411	-11.660132
1358.260515	-11.659777
1358.876177	-11.659585
1359.492397	-11.659484
1360.109176	-11.659425
1360.726516	-11.659400
1361.344416	-11.659269
1361.962877	-11.659333
1362.581901	-11.659546
1363.201487	-11.659495
1363.821637	-11.659585
1364.442352	-11.659935
1365.063632	-11.660009
1365.685478	-11.660139
1366.307891	-11.660545
1366.930871	-11.660759
1367.554420	-11.660967
1368.178538	-11.661319
1368.803226	-11.661594
1369.428485	-11.662002
1370.054315	-11.662378
1370.680717	-11.662544
1371.307693	-11.663033
1371.935242	-11.663588
1372.563366	-11.663757
1373.192065	-11.664129
1373.821341	-11.664683
1374.451193	-11.664996
1375.081623	-11.665395
1375.712632	-11.665785
1376.344221	-11.666062
1376.976389	-11.666604
1377.609139	-11.666968
1378.242470	-11.667087
1378.876384	-11.667612
1379.510881	-11.668046
1380.145963	-11.668188
1380.781629	-11.668598
1381.417881	-11.668900
1382.054720	-11.669140
1382.692147	-11.669597
1383.330161	-11.669698
1383.968765	-11.669838
1384.607959	-11.670293
1385.247743	-11.670342
1385.888119	-11.670396
1386.529087	-11.670629
1387.170648	-11.670564
1387.812804	-11.670652
1388.455554	-11.670701
1389.098899	-11.670444
1389.742842	-11.670487
1390.387381	-11.670445
1391.032519	-11.670102
1391.678256	-11.669988
1392.324592	-11.669772
1392.971529	-11.669476
1393.619068	-11.669347
1394.267208	-11.668937
1394.915952	-11.668502
1395.565300	-11.668281
1396.215253	-11.667776
1396.865812	-11.667258
1397.516977	-11.666801
1398.168749	-11.666039
1398.821130	-11.665430
1399.474120	-11.664738
1400.127719	-11.663731
1400.781930	-11.662967
1401.436752	-11.661968
1402.092186	-11.660821
1402.748234	-11.659886
1403.404897	-11.658597
1404.062174	-11.657457
1404.720067	-11.656370
1405.378577	-11.654924
1406.037705	-11.653796
1406.697451	-11.652492
1407.357817	-11.651104
1408.018803	-11.649968
1408.680410	-11.648416
1409.342639	-11.647056
1410.005492	-11.645715
1410.668968	-11.644052
1411.333068	-11.642666
1411.997795	-11.640936
1412.663147	-11.639180
1413.329127	-11.637621
1413.995736	-11.635644
1414.662973	-11.633907
1415.330840	-11.632041
1415.999339	-11.630018
1416.668469	-11.628376
1417.338232	-11.626431
1418.008628	-11.624694
1418.679659	-11.623134
1419.351325	-11.621398
1420.023628	-11.620139
1420.696568	-11.618775
1421.370145	-11.617494
1422.044362	-11.616582
1422.719219	-11.615451
1423.394717	-11.614692
1424.070856	-11.613937
1424.747638	-11.613025
1425.425064	-11.612459
1426.103134	-11.611596
1426.781850	-11.610871
1427.461212	-11.610206
1428.141221	-11.609204
1428.821878	-11.608514
1429.503185	-11.607591
1430.185141	-11.606739
1430.867749	-11.606147
1431.551008	-11.605342
1432.234920	-11.604999
1432.919486	-11.604731
1433.604707	-11.604708
1434.290583	-11.605270
1434.977116	-11.605927
1435.664307	-11.607252
1436.352156	-11.608964
1437.040664	-11.611032
1437.729833	-11.613821
1438.419663	-11.616751
1439.110156	-11.620255
1439.801312	-11.624019
1440.493132	-11.627866
1441.185617	-11.632072
1441.878768	-11.635994
1442.572586	-11.639970
1443.267072	-11.643644
1443.962228	-11.646812
1444.658053	-11.649734
1445.354549	-11.651778
1446.051717	-11.653380
1446.749558	-11.654153
1447.448073	-11.654139
1448.147263	-11.653575
1448.847128	-11.652061
1449.547671	-11.650161
1450.248891	-11.647543
1450.950789	-11.644536
1451.653368	-11.641324
1452.356627	-11.637751
1453.060568	-11.634413
1453.765192	-11.630950
1454.470500	-11.627889
1455.176492	-11.625134
1455.883170	-11.622733
1456.590534	-11.620993
1457.298586	-11.619508
1458.007327	-11.618699
1458.716758	-11.618095
1459.426880	-11.617810
1460.137693	-11.617632
1460.849199	-11.617195
1461.561398	-11.616530
1462.274293	-11.614989
1462.987883	-11.612581
1463.702170	-11.608739
1464.417155	-11.603210
1465.132838	-11.595683
1465.849222	-11.585672
1466.566306	-11.573050
1467.284093	-11.557368
1468.002582	-11.538493
1468.721775	-11.516236
1469.441674	-11.490393
1470.162278	-11.461049
1470.883590	-11.428063
1471.605609	-11.391616
1472.328338	-11.351840
1473.051777	-11.308844
1473.775928	-11.263116
1474.500790	-11.214676
1475.226367	-11.164234
1475.952657	-11.111878
1476.679663	-11.058288
1477.407386	-11.003800
1478.135826	-10.948847
1478.864985	-10.894062
1479.594863	-10.839569
1480.325463	-10.786182
1481.056784	-10.733825
1481.788828	-10.683269
1482.521597	-10.634404
1483.255090	-10.587750
1483.989309	-10.543289
1484.724256	-10.501152
1485.459931	-10.461437
1486.196336	-10.423875
1486.933471	-10.388590
1487.671337	-10.354988
1488.409937	-10.323073
1489.149270	-10.292058
1489.889337	-10.261720
1490.630141	-10.231226
1491.371682	-10.200099
1492.113961	-10.167591
1492.856979	-10.133055
1493.600738	-10.095929
1494.345238	-10.055553
1495.090481	-10.011600
1495.836467	-9.963567
1496.583198	-9.911345
1497.330675	-9.854682
1498.078899	-9.793612
1498.827872	-9.728124
1499.577593	-9.658287
1500.328065	-9.584212
1501.079289	-9.505920
1501.831265	-9.423479
1502.583995	-9.336855
1503.337480	-9.245999
1504.091721	-9.150921
1504.846719	-9.051536
1505.602475	-8.948124
1506.358991	-8.840805
1507.116268	-8.730373
1507.874306	-8.617412
1508.633108	-8.503362
1509.392673	-8.389426
1510.153004	-8.277597
1510.914101	-8.169645
1511.675965	-8.067873
1512.438599	-7.974427
1513.202002	-7.891654
1513.966176	-7.821881
1514.731122	-7.767343
1515.496842	-7.730472
1516.263336	-7.713441
1517.030607	-7.718874
1517.798654	-7.749119
1518.567479	-7.807216
1519.337083	-7.896044
1520.107468	-8.019366
1520.878634	-8.180992
1521.650584	-8.385749
1522.423317	-8.638783
1523.196836	-8.946373
1523.971141	-9.315441
1524.746233	-9.754172
1525.522115	-10.271743
1526.298786	-10.878640
1527.076249	-11.586335
1527.854504	-12.406607
1528.633553	-13.349495
1529.413397	-14.417506
1530.194037	-15.592563
1530.975474	-16.806327
1531.757709	-17.893186
1532.540745	-18.568609
1533.324581	-18.569461
1534.109220	-17.912591
1534.894662	-16.877580
1535.680909	-15.743388
1536.467961	-14.667899
1537.255821	-13.716078
1538.044489	-12.905975
1538.833967	-12.236770
1539.624256	-11.700261
1540.415357	-11.286757
1541.207271	-10.985828
1542.000000	-10.787685
1542.793545	-10.681842
1543.587907	-10.657674
1544.383087	-10.702486
1545.179088	-10.801922
1545.975909	-10.937939
1546.773552	-11.089710
1547.572019	-11.232684
1548.371311	-11.341471
1549.171428	-11.391792
1549.972373	-11.365644
1550.774147	-11.254152
1551.576751	-11.059883
1552.380185	-10.795002
1553.184453	-10.477853
1553.989554	-10.128771
1554.795490	-9.766414
1555.602263	-9.406429
1556.409873	-9.060130
1557.218322	-8.735627
1558.027612	-8.437438
1558.837743	-8.168271
1559.648717	-7.928548
1560.460536	-7.718081
1561.273200	-7.535359
1562.086710	-7.378998
1562.901069	-7.246857
1563.716278	-7.137304
1564.532337	-7.048247
1565.349249	-6.978236
1566.167014	-6.925517
1566.985634	-6.888926
1567.805111	-6.867066
1568.625444	-6.858994
1569.446637	-6.863561
1570.268690	-6.879938
1571.091605	-6.907117
1571.915382	-6.944321
1572.740024	-6.990672
1573.565532	-7.045464
1574.391907	-7.108015
1575.219150	-7.177763
1576.047262	-7.254300
1576.876246	-7.337299
1577.706103	-7.426647
1578.536833	-7.522255
1579.368439	-7.624237
1580.200922	-7.732654
1581.034282	-7.847724
1581.868522	-7.969527
1582.703643	-8.098244
1583.539646	-8.233859
1584.376532	-8.376422
1585.214304	-8.525761
1586.052962	-8.681766
1586.892508	-8.844109
1587.732943	-9.012533
1588.574269	-9.186622
1589.416487	-9.366009
1590.259599	-9.550241
1591.103605	-9.738880
1591.948508	-9.931507
1592.794309	-10.127646
1593.641009	-10.326973
1594.488609	-10.529001
1595.337112	-10.733553
1596.186518	-10.940188
1597.036829	-11.148869
1597.888047	-11.359273
1598.740172	-11.571462
1599.593207	-11.785299
1600.447153	-12.000906
1601.302010	-12.218382
1602.157782	-12.437841
1603.014469	-12.659625
1603.872072	-12.883843
1604.730593	-13.110992
1605.590034	-13.341170
1606.450397	-13.574921
1607.311681	-13.812316
1608.173890	-14.053813
1609.037024	-14.299509
1609.901085	-14.549607
1610.766075	-14.804205
1611.631995	-15.063193
1612.498846	-15.326587
1613.366630	-15.594002
1614.235349	-15.865279
1615.105004	-16.139746
1615.975596	-16.416921
1616.847128	-16.695870
1617.719600	-16.975725
1618.593014	-17.255287
1619.467372	-17.533231
1620.342675	-17.808043
1621.218924	-18.077938
1622.096122	-18.341134
1622.974270	-18.595501
1623.853369	-18.839001
1624.733420	-19.069395
1625.614427	-19.284612
1626.496389	-19.482470
1627.379308	-19.661138
1628.263187	-19.818862
1629.148026	-19.954264
1630.033828	-20.066351
1630.920593	-20.154431
1631.808324	-20.218377
1632.697022	-20.258280
1633.586688	-20.274856
1634.477324	-20.268884
1635.368932	-20.241614
1636.261514	-20.194549
1637.155070	-20.129181
1638.049602	-20.047375
1638.945113	-19.950821
1639.841603	-19.841443
1640.739075	-19.720958
1641.637529	-19.591153
1642.536968	-19.453705
1643.437393	-19.310106
1644.338806	-19.161933
1645.241209	-19.010430
1646.144602	-18.856898
1647.048988	-18.702395
1647.954368	-18.547880
1648.860744	-18.394182
1649.768118	-18.241945
1650.676491	-18.091753
1651.585865	-17.943956
1652.496241	-17.798956
1653.407621	-17.656856
1654.320008	-17.517858
1655.233401	-17.381987
1656.147804	-17.249166
1657.063218	-17.119470
1657.979645	-16.992562
1658.897085	-16.868483
1659.815542	-16.747012
1660.735016	-16.627852
1661.655509	-16.511055
1662.577023	-16.396206
1663.499560	-16.283320
1664.423121	-16.172237
1665.347709	-16.062757
1666.273324	-15.955047
1667.199969	-15.848846
1668.127645	-15.744307
1669.056353	-15.641479
1669.986097	-15.540288
1670.916877	-15.441004
1671.848695	-15.343524
1672.781553	-15.248012
1673.715452	-15.154553
1674.650395	-15.063046
1675.586383	-14.973719
1676.523418	-14.886435
1677.461501	-14.801232
1678.400635	-14.718201
1679.340821	-14.637129
1680.282061	-14.558155
1681.224357	-14.481154
1682.167710	-14.405989
1683.112122	-14.332777
1684.057595	-14.261282
1685.004132	-14.191525
1685.951732	-14.123509
1686.900400	-14.057010
1687.850135	-13.992148
1688.800940	-13.928834
1689.752818	-13.866965
1690.705768	-13.806661
1691.659795	-13.747823
1692.614898	-13.690472
1693.571081	-13.634649
1694.528345	-13.580307
1695.486691	-13.527488
1696.446122	-13.476147
1697.406640	-13.426313
1698.368245	-13.377973
1699.330941	-13.331016
1700.294729	-13.285504
1701.259611	-13.241358
1702.225588	-13.198466
1703.192664	-13.156851
1704.160838	-13.116413
1705.130114	-13.077092
1706.100493	-13.038843
1707.071977	-13.001584
1708.044568	-12.965298
1709.018268	-12.929880
1709.993079	-12.895303
1710.969003	-12.861588
1711.946041	-12.828593
1712.924196	-12.796335
1713.903469	-12.764848
1714.883862	-12.733980
1715.865378	-12.703768
1716.848017	-12.674233
1717.831783	-12.645258
1718.816677	-12.616882
1719.802701	-12.589107
1720.789857	-12.561851
1721.778147	-12.535139
1722.767573	-12.508940
1723.758136	-12.483202
1724.749840	-12.457960
1725.742685	-12.433187
1726.736673	-12.408863
1727.731808	-12.385033
1728.728090	-12.361689
1729.725521	-12.338838
1730.724105	-12.316512
1731.723842	-12.294699
1732.724735	-12.273430
1733.726785	-12.252730
1734.729995	-12.232552
1735.734366	-12.212921
1736.739902	-12.193872
1737.746603	-12.175345
1738.754472	-12.157315
1739.763510	-12.139805
1740.773721	-12.122759
1741.785105	-12.106132
1742.797665	-12.089913
1743.811403	-12.074069
1744.826321	-12.058580
1745.842422	-12.043419
1746.859706	-12.028551
1747.878177	-12.013995
1748.897835	-11.999750
1749.918685	-11.985766
1750.940726	-11.972059
1751.963963	-11.958649
1752.988395	-11.945498
1754.014027	-11.932604
1755.040860	-11.919989
1756.068895	-11.907625
1757.098135	-11.895508
1758.128583	-11.883655
1759.160240	-11.872056
1760.193109	-11.860706
1761.227191	-11.849627
1762.262488	-11.838820
1763.299004	-11.828279
1764.336740	-11.818016
1765.375697	-11.808053
1766.415880	-11.798383
1767.457288	-11.788989
1768.499926	-11.779890
1769.543794	-11.771112
1770.588895	-11.762633
1771.635231	-11.754443
1772.682805	-11.746582
1773.731619	-11.739060
1774.781674	-11.731873
1775.832973	-11.725067
1776.885519	-11.718668
1777.939312	-11.712663
1778.994357	-11.707067
1780.050654	-11.701897
1781.108207	-11.697120
1782.167017	-11.692700
1783.227087	-11.688620
1784.288418	-11.684821
1785.351013	-11.681241
1786.414875	-11.677851
1787.480006	-11.674593
1788.546407	-11.671387
1789.614082	-11.668213
1790.683032	-11.665074
1791.753259	-11.661930
1792.824767	-11.658742
1793.897557	-11.655499
1794.971632	-11.652176
1796.046994	-11.648742
1797.123645	-11.645195
1798.201588	-11.641542
1799.280824	-11.637774
1800.361357	-11.633921
1801.443188	-11.630038
1802.526320	-11.626164
1803.610756	-11.622321
1804.696497	-11.618541
1805.783546	-11.614840
1806.871906	-11.611216
1807.961578	-11.607673
1809.052565	-11.604217
1810.144870	-11.600844
1811.238494	-11.597557
1812.333441	-11.594382
1813.429713	-11.591345
1814.527311	-11.588484
1815.626239	-11.585840
1816.726499	-11.583434
1817.828094	-11.581261
1818.931025	-11.579325
1820.035295	-11.577632
1821.140906	-11.576162
1822.247862	-11.574890
1823.356165	-11.573820
1824.465816	-11.572971
1825.576819	-11.572358
1826.689175	-11.572000
1827.802888	-11.571927
1828.917960	-11.572155
1830.034394	-11.572679
1831.152191	-11.573491
1832.271354	-11.574579
1833.391887	-11.575926
1834.513790	-11.577513
1835.637068	-11.579335
1836.761722	-11.581389
1837.887755	-11.583670
1839.015169	-11.586175
1840.143968	-11.588906
1841.274153	-11.591852
1842.405727	-11.594990
1843.538693	-11.598303
1844.673053	-11.601777
1845.808810	-11.605405
1846.945966	-11.609194
1848.084525	-11.613167
1849.224488	-11.617349
1850.365858	-11.621748
1851.508638	-11.626354
1852.652831	-11.631157
1853.798438	-11.636142
1854.945463	-11.641272
1856.093909	-11.646509
1857.243777	-11.651840
1858.395071	-11.657264
1859.547794	-11.662777
1860.701947	-11.668367
1861.857533	-11.674026
1863.014556	-11.679741
1864.173018	-11.685480
1865.332922	-11.691192
1866.494270	-11.696832
1867.657065	-11.702375
1868.821309	-11.707806
1869.987006	-11.713123
1871.154158	-11.718345
1872.322768	-11.723515
1873.492839	-11.728680
1874.664373	-11.733880
1875.837373	-11.739136
1877.011841	-11.744460
1878.187782	-11.749859
1879.365197	-11.755342
1880.544089	-11.760922
1881.724460	-11.766616
1882.906315	-11.772457
1884.089655	-11.778488
1885.274483	-11.784758
1886.460803	-11.791300
1887.648616	-11.798140
1888.837927	-11.805282
1890.028736	-11.812720
1891.221049	-11.820429
1892.414866	-11.828375
1893.610192	-11.836526
1894.807028	-11.844862
1896.005379	-11.853379
1897.205246	-11.862086
1898.406633	-11.870999
1899.609542	-11.880130
1900.813977	-11.889480
1902.019940	-11.899036
1903.227434	-11.908776
1904.436462	-11.918681
1905.647028	-11.928745
1906.859133	-11.938979
1908.072781	-11.949406
1909.287976	-11.960062
1910.504719	-11.970982
1911.723013	-11.982197
1912.942863	-11.993721
1914.164270	-12.005551
1915.387238	-12.017669
1916.611770	-12.030052
1917.837868	-12.042682
1919.065536	-12.055549
1920.294777	-12.068653
1921.525594	-12.081998
1922.757989	-12.095588
1923.991967	-12.109418
1925.227529	-12.123472
1926.464679	-12.137729
1927.703420	-12.152166
1928.943755	-12.166762
1930.185688	-12.181506
1931.429221	-12.196397
1932.674356	-12.211451
1933.921099	-12.226693
1935.169451	-12.242142
1936.419415	-12.257809
1937.670996	-12.273692
1938.924195	-12.289779
1940.179017	-12.306056
1941.435463	-12.322506
1942.693538	-12.339123
1943.953245	-12.355906
1945.214586	-12.372858
1946.477566	-12.389974
1947.742186	-12.407237
1949.008451	-12.424611
1950.276363	-12.442051
1951.545926	-12.459517
1952.817143	-12.476979
1954.090017	-12.494417
1955.364551	-12.511814
1956.640749	-12.529158
1957.918615	-12.546441
1959.198150	-12.563661
1960.479359	-12.580828
1961.762244	-12.597982
1963.046810	-12.615189
1964.333059	-12.632535
1965.620995	-12.650105
1966.910621	-12.667963
1968.201940	-12.686146
1969.494956	-12.704659
1970.789672	-12.723497
1972.086091	-12.742664
1973.384217	-12.762194
1974.684053	-12.782148
1975.985602	-12.802584
1977.288869	-12.823535
1978.593855	-12.844983
1979.900566	-12.866856
1981.209003	-12.889061
1982.519171	-12.911519
1983.831073	-12.934189
1985.144712	-12.957086
1986.460093	-12.980272
1987.777217	-13.003827
1989.096089	-13.027796
1990.416713	-13.052175
1991.739092	-13.076914
1993.063228	-13.101945
1994.389127	-13.127222
1995.716791	-13.152756
1997.046223	-13.178618
1998.377428	-13.204910
1999.710409	-13.231719
2001.045169	-13.259079
2002.381713	-13.286952
2003.720043	-13.315251
2005.060163	-13.343881
2006.402077	-13.372792
2007.745788	-13.402002
2009.091301	-13.431589
2010.438618	-13.461641
2011.787743	-13.492206
2013.138680	-13.523260
2014.491433	-13.554717
2015.846005	-13.586480
2017.202399	-13.618486
2018.560621	-13.650747
2019.920673	-13.683337
2021.282558	-13.716325
2022.646281	-13.749722
2024.011846	-13.783445
2025.379256	-13.817323
2026.748515	-13.851145
2028.119626	-13.884752
2029.492594	-13.918082
2030.867422	-13.951168
2032.244114	-13.984116
2033.622673	-14.017040
2035.003104	-14.049989
2036.385411	-14.082938
2037.769597	-14.115834
2039.155665	-14.148639
2040.543621	-14.181390
2041.933467	-14.214211
2043.325208	-14.247264
2044.718847	-14.280681
2046.114389	-14.314541
2047.511837	-14.348860
2048.911195	-14.383616
2050.312467	-14.418810
2051.715657	-14.454481
2053.120769	-14.490693
2054.527807	-14.527503
2055.936775	-14.564912
2057.347677	-14.602846
2058.760516	-14.641207
2060.175297	-14.679931
2061.592025	-14.719047
2063.010701	-14.758684
2064.431332	-14.798988
2065.853921	-14.840022
2067.278472	-14.881722
2068.704988	-14.923927
2070.133475	-14.966470
2071.563936	-15.009294
2072.996375	-15.052486
2074.430796	-15.096209
2075.867204	-15.140602
2077.305603	-15.185689
2078.745996	-15.231370
2080.188389	-15.277510
2081.632784	-15.324040
2083.079187	-15.371019
2084.527601	-15.418635
2085.978030	-15.467111
2087.430480	-15.516588
2088.884954	-15.567073
2090.341455	-15.618426
2091.799990	-15.670460
2093.260561	-15.723039
2094.723173	-15.776093
2096.187831	-15.829602
2097.654538	-15.883537
2099.123300	-15.937827
2100.594119	-15.992364
2102.067001	-16.047019
2103.541950	-16.101676
2105.018971	-16.156255
2106.498067	-16.210729
2107.979243	-16.265140
2109.462503	-16.319576
2110.947853	-16.374139
2112.435295	-16.428891
2113.924836	-16.483801
2115.416478	-16.538740
2116.910227	-16.593521
2118.406087	-16.647967
2119.904063	-16.701995
2121.404158	-16.755644
2122.906378	-16.809049
2124.410727	-16.862378
2125.917210	-16.915761
2127.425831	-16.969239
2128.936594	-17.022802
2130.449505	-17.076490
2131.964567	-17.130462
2133.481786	-17.184937
2135.001166	-17.240129
2136.522711	-17.296154
2138.046427	-17.352991
2139.572317	-17.410571
2141.100388	-17.468855
2142.630642	-17.527882
2144.163085	-17.587768
2145.697722	-17.648644
2147.234558	-17.710594
2148.773596	-17.773635
2150.314842	-17.837725
2151.858301	-17.902780
2153.403977	-17.968749
2154.951875	-18.035637
2156.502000	-18.103491
2158.054357	-18.172335
2159.608950	-18.242081
2161.165785	-18.312573
2162.724866	-18.383655
2164.286198	-18.455228
2165.849786	-18.527294
2167.415635	-18.599880
2168.983749	-18.673012
2170.554134	-18.746669
2172.126795	-18.820824
2173.701737	-18.895444
2175.278964	-18.970540
2176.858481	-19.046149
2178.440294	-19.122376
2180.024408	-19.199382
2181.610827	-19.277364
2183.199557	-19.356517
2184.790602	-19.436926
2186.383968	-19.518539
2187.979660	-19.601221
2189.577683	-19.684849
2191.178041	-19.769469
2192.780741	-19.855259
2194.385787	-19.942345
2195.993185	-20.030514
2197.602939	-20.119054
2199.215054	-20.206991
2200.829537	-20.293561
2202.446392	-20.378583
2204.065624	-20.462412
2205.687239	-20.545498
2207.311242	-20.627813
2208.937638	-20.708810
2210.566433	-20.787809
2212.197631	-20.864621
2213.831239	-20.939717
2215.467261	-21.013884
2217.105703	-21.087561
2218.746570	-21.160607
2220.389867	-21.232625
2222.035601	-21.303631
2223.683776	-21.374379
2225.334398	-21.445948
2226.987472	-21.518854
2228.643004	-21.592707
2230.300999	-21.666661
2231.961463	-21.740282
2233.624402	-21.814016
2235.289820	-21.888767
2236.957723	-21.965190
2238.628118	-22.043320
2240.301009	-22.122868
2241.976402	-22.203732
2243.654303	-22.286166
2245.334717	-22.370625
2247.017650	-22.457514
2248.703108	-22.547169
2250.391096	-22.639934
2252.081620	-22.736124
2253.774686	-22.835774
2255.470300	-22.938494
2257.168467	-23.043658
2258.869193	-23.150788
2260.572484	-23.259819
2262.278345	-23.371012
2263.986783	-23.484510
2265.697804	-23.599907
2267.411412	-23.716383
2269.127615	-23.833076
2270.846417	-23.949645
2272.567826	-24.066120
2274.291846	-24.182578
2276.018484	-24.298711
2277.747745	-24.413901
2279.479637	-24.527620
2281.214164	-24.639809
2282.951333	-24.750904
2284.691149	-24.861443
2286.433619	-24.971411
2288.178750	-25.080172
2289.926546	-25.187067
2291.677014	-25.292179
2293.430161	-25.396278
2295.185992	-25.499715
2296.944513	-25.601620
2298.705732	-25.700318
2300.469653	-25.794563
2302.236283	-25.884323
2304.005629	-25.970622
2305.777696	-26.054763
2307.552492	-26.137784
2309.330022	-26.220265
2311.110292	-26.302252
2312.893310	-26.383701
2314.679080	-26.465343
2316.467611	-26.548953
2318.258907	-26.636261
2320.052976	-26.727831
2321.849824	-26.823198
2323.649457	-26.922105
2325.451883	-27.024920
2327.257106	-27.131854
2329.065135	-27.242335
2330.875975	-27.355617
2332.689633	-27.471681
2334.506116	-27.590840
2336.325430	-27.712879
2338.147581	-27.837297
2339.972578	-27.964362
2341.800425	-28.094977
2343.631130	-28.229195
2345.464700	-28.365195
2347.301141	-28.500648
2349.140461	-28.635092
2350.982665	-28.770097
2352.827760	-28.906980
2354.675754	-29.044536
2356.526653	-29.180103
2358.380464	-29.313316
2360.237195	-29.447463
2362.096851	-29.585816
2363.959440	-29.727129
2365.824968	-29.866263
2367.693444	-29.999824
2369.564873	-30.130080
2371.439263	-30.261499
2373.316620	-30.394603
2375.196953	-30.525051
2377.080267	-30.648436
2378.966570	-30.765058
2380.855869	-30.878610
2382.748171	-30.991130
2384.643484	-31.101010
2386.541815	-31.205528
2388.443170	-31.303908
2390.347557	-31.397552
2392.254984	-31.487498
2394.165457	-31.573166
2396.078984	-31.653826
2397.995572	-31.730439
2399.915229	-31.806137
2401.837961	-31.884246
2403.763777	-31.966111
2405.692684	-32.050973
2407.624689	-32.137600
2409.559800	-32.226065
2411.498023	-32.318208
2413.439368	-32.416092
2415.383840	-32.520996
2417.331449	-32.632882
2419.282201	-32.751390
2421.236104	-32.877220
2423.193165	-33.012094
2425.153393	-33.157027
2427.116795	-33.310022
2429.083378	-33.467390
2431.053151	-33.628534
2433.026121	-33.797245
2435.002297	-33.977334
2436.981685	-34.166090
2438.964293	-34.354824
2440.950131	-34.537868
2442.939204	-34.719049
2444.931522	-34.907660
2446.927092	-35.107122
2448.925923	-35.310001
2450.928022	-35.505924
2452.933397	-35.693395
2454.942056	-35.880195
2456.954008	-36.070786
2458.969260	-36.259233
2460.987821	-36.439089
2463.009699	-36.614954
2465.034902	-36.795803
2467.063437	-36.978886
2469.095315	-37.149865
2471.130542	-37.301149
2473.169127	-37.440472
2475.211078	-37.578846
2477.256404	-37.714780
2479.305112	-37.835203
2481.357212	-37.929740
2483.412713	-38.001845
2485.471621	-38.063826
2487.533946	-38.121236
2489.599696	-38.168276
2491.668880	-38.200837
2493.741507	-38.228080
2495.817585	-38.263556
2497.897122	-38.307017
2499.980127	-38.346741
2502.066609	-38.378287
2504.156578	-38.413253
2506.250040	-38.466049
2508.347006	-38.537381
2510.447483	-38.617471
2512.551482	-38.700337
2514.659010	-38.791280
2516.770076	-38.899637
2518.884690	-39.031510
2521.002861	-39.186285
2523.124597	-39.354472
2525.249907	-39.525406
2527.378801	-39.701691
2529.511287	-39.899744
2531.647375	-40.123610
2533.787074	-40.354415
2535.930393	-40.578104
2538.077340	-40.806441
2540.227927	-41.051635
2542.382160	-41.298821
2544.540051	-41.536764
2546.701608	-41.788682
2548.866840	-42.076787
2551.035757	-42.374610
2553.208369	-42.639150
2555.384684	-42.880077
2557.564713	-43.144311
2559.748465	-43.447224
2561.935948	-43.757879
2564.127174	-44.050088
2566.322152	-44.330093
2568.520890	-44.609200
2570.723399	-44.883955
2572.929689	-45.142928
2575.139769	-45.374931
2577.353649	-45.571957
2579.571340	-45.739132
2581.792849	-45.882460
2584.018189	-45.986276
2586.247368	-46.032797
2588.480396	-46.035769
2590.717284	-46.019706
2592.958041	-45.983503
2595.202678	-45.919986
2597.451204	-45.850860
2599.703630	-45.799220
2601.959966	-45.744371
2604.220222	-45.653493
2606.484408	-45.549436
2608.752535	-45.488014
2611.024612	-45.478971
2613.300651	-45.483799
2615.580661	-45.487976
2617.864653	-45.517856
2620.152638	-45.585713
2622.444625	-45.673420
2624.740626	-45.782145
2627.040651	-45.940501
2629.344710	-46.142734
2631.652814	-46.339656
2633.964974	-46.519532
2636.281200	-46.727840
2638.601504	-46.973812
2640.925896	-47.215157
2643.254386	-47.439254
2645.586987	-47.663527
2647.923707	-47.880117
2650.264559	-48.085945
2652.609554	-48.301664
2654.958702	-48.531776
2657.312015	-48.783853
2659.669503	-49.095207
2662.031178	-49.470878
2664.397051	-49.857738
2666.767132	-50.244034
2669.141434	-50.689119
2671.519968	-51.217184
2673.902745	-51.764982
2676.289776	-52.301763
2678.681072	-52.916290
2681.076646	-53.650278
2683.476508	-54.323428
2685.880671	-54.779428
2688.289145	-55.171827
2690.701942	-55.638021
2693.119075	-56.033052
2695.540554	-56.178747
2697.966391	-56.098881
2700.396599	-55.948049
2702.831189	-55.807503
2705.270172	-55.558694
2707.713561	-55.191741
2710.161368	-54.933456
2712.613605	-54.779121
2715.070283	-54.470487
2717.531416	-54.057897
2719.997014	-53.810054
2722.467090	-53.724740
2724.941657	-53.651460
2727.420726	-53.593644
2729.904310	-53.605907
2732.392421	-53.634172
2734.885072	-53.627901
2737.382275	-53.657013
2739.884042	-53.827729
2742.390387	-54.095823
2744.901321	-54.267199
2747.416857	-54.315208
2749.937008	-54.434713
2752.461787	-54.639252
2754.991206	-54.711702
2757.525279	-54.620998
2760.064017	-54.565031
2762.607434	-54.612233
2765.155544	-54.669421
2767.708358	-54.706136
2770.265890	-54.806343
2772.828153	-55.013282
2775.395160	-55.272501
2777.966924	-55.550634
2780.543459	-55.867887
2783.124778	-56.248719
2785.710894	-56.751971
2788.301821	-57.375756
2790.897572	-57.978850
2793.498160	-58.612267
2796.103599	-59.527933
2798.713903	-60.568324
2801.329085	-61.404271
2803.949159	-62.411872
2806.574139	-63.795246
2809.204038	-64.881656
2811.838871	-65.956583
2814.478650	-67.829180
2817.123391	-68.729030
2819.773107	-67.903343
2822.427812	-67.770863
2825.087521	-67.809242
2827.752247	-66.665593
2830.422005	-65.549746
2833.096808	-65.039321
2835.776672	-64.371498
2838.461611	-63.602165
2841.151638	-63.570076
2843.846769	-63.994109
2846.547019	-63.660990
2849.252401	-63.164457
2851.962930	-63.809243
2854.678621	-65.160743
2857.399489	-65.410942
2860.125549	-65.221884
2862.856815	-65.592926
2865.593302	-65.426134
2868.335026	-64.948531
2871.082002	-65.078774
2873.834244	-64.582755
2876.591767	-63.252996
2879.354588	-62.653784
2882.122721	-62.674029
2884.896181	-62.312514
2887.674984	-61.822477
2890.459146	-61.728689
2893.248681	-61.649921
2896.043606	-61.473699
2898.843937	-61.765398
2901.649687	-62.439188
2904.460875	-62.553019
2907.277515	-62.187478
2910.099623	-62.407525
2912.927215	-63.456631
2915.760308	-64.286622
2918.598916	-64.418909
2921.443057	-65.187437
2924.292747	-66.444056
2927.148002	-66.776925
2930.008837	-67.475561
2932.875270	-69.220815
2935.747318	-69.916155
2938.624995	-70.646172
2941.508320	-73.566767
2944.397308	-76.168956
2947.291977	-77.479248
2950.192343	-79.923229
2953.098423	-77.287057
2956.010234	-75.957789
2958.927792	-75.110007
2961.851116	-72.513699
2964.780221	-71.247801
2967.715126	-71.704069
2970.655847	-72.086559
2973.602402	-71.498602
2976.554808	-72.050423
2979.513083	-74.525105
2982.477243	-75.768547
2985.447308	-76.251063
2988.423293	-81.351260
2991.405218	-96.317838
2994.393099	-88.279825
2997.386955	-85.691933
