# 2022-03-21_17.49.36
# shape = sech2
# FWHM_ps = 0.1
# carrier_nm = 1542
# frep_MHz = 12126
# pow_mW = 8000
# GDD = 0.0
# propa_len = 0.14444444444444446
# untap_len = 0.01
# taper_len = 0.08444444444444445
# waist_len = 0.02
# uptap_len = 0.02
# untap_scale = 1.0
# waist_scale = 0.15555555555555556
# workingDir = NL_20110305_12 (Spirou)
# axis = slow
# window_ps = 10.0
# steps = 200
# points = 21700
# 
# wavelength [nm]	 power spectral density [dB]
600.043425	-103.927577
600.163550	-102.299350
600.283723	-101.749058
600.403943	-100.808661
600.524212	-97.433852
600.644529	-97.281975
600.764895	-97.571777
600.885308	-93.546659
601.005770	-91.148485
601.126280	-92.386588
601.246839	-93.116063
601.367446	-92.706986
601.488101	-94.680327
601.608804	-97.951456
601.729557	-98.767783
601.850357	-98.751230
601.971206	-101.639386
602.092104	-97.020844
602.213050	-97.889816
602.334045	-101.402497
602.455089	-119.579393
602.576181	-105.251091
602.697322	-102.755290
602.818511	-97.913905
602.939749	-99.503098
603.061036	-115.997928
603.182372	-101.575046
603.303757	-96.666385
603.425191	-96.458110
603.546673	-96.800663
603.668204	-100.142589
603.789785	-100.795940
603.911414	-92.093326
604.033092	-89.958008
604.154820	-93.647951
604.276596	-94.285270
604.398422	-90.536430
604.520297	-89.627478
604.642220	-92.919758
604.764193	-93.962906
604.886216	-90.779985
605.008287	-92.023690
605.130408	-97.218731
605.252578	-103.638784
605.374798	-98.206264
605.497066	-96.067788
605.619385	-93.714557
605.741752	-92.287364
605.864169	-90.795826
605.986636	-88.628857
606.109152	-88.215530
606.231718	-88.165425
606.354333	-87.844480
606.476998	-88.405525
606.599712	-88.061341
606.722476	-87.982601
606.845290	-89.335625
606.968154	-91.504814
607.091067	-89.362666
607.214030	-89.280041
607.337043	-91.865161
607.460106	-95.372495
607.583219	-94.899948
607.706381	-90.035721
607.829594	-89.009252
607.952856	-90.786521
608.076169	-92.010949
608.199531	-88.475175
608.322944	-86.753034
608.446407	-87.612678
608.569920	-90.874888
608.693483	-90.036283
608.817096	-88.555584
608.940759	-90.315179
609.064473	-93.147345
609.188237	-90.156973
609.312051	-91.203913
609.435916	-95.771250
609.559831	-95.817864
609.683796	-93.520425
609.807812	-96.507972
609.931878	-93.665397
610.055995	-91.601726
610.180162	-92.567171
610.304380	-92.458809
610.428648	-90.514613
610.552967	-91.617089
610.677337	-90.294329
610.801757	-90.198083
610.926228	-91.596656
611.050750	-91.778723
611.175323	-90.221785
611.299946	-93.026900
611.424620	-99.335814
611.549345	-106.291216
611.674121	-95.774891
611.798948	-92.058770
611.923826	-95.401697
612.048755	-94.310508
612.173734	-88.170848
612.298765	-87.517019
612.423847	-90.848781
612.548980	-89.445861
612.674165	-86.932690
612.799400	-88.152857
612.924687	-93.748759
613.050025	-92.094863
613.175414	-88.813524
613.300854	-89.957620
613.426346	-95.428174
613.551889	-95.732376
613.677484	-91.707885
613.803130	-95.456098
613.928827	-104.687759
614.054576	-96.688446
614.180377	-95.458658
614.306229	-103.272927
614.432132	-99.217529
614.558087	-95.786543
614.684094	-99.112453
614.810153	-104.122946
614.936263	-95.683473
615.062425	-90.824218
615.188639	-91.952862
615.314904	-96.384354
615.441222	-91.285538
615.567591	-90.724546
615.694012	-98.529659
615.820486	-95.181873
615.947011	-91.637072
616.073588	-98.629772
616.200217	-96.087792
616.326898	-93.621882
616.453632	-109.594907
616.580417	-92.045050
616.707255	-89.282724
616.834144	-94.120373
616.961086	-93.711808
617.088081	-87.231247
617.215127	-87.633757
617.342226	-93.643814
617.469378	-92.058787
617.596581	-86.351074
617.723837	-87.703333
617.851146	-93.934034
617.978507	-87.476953
618.105920	-85.591882
618.233386	-88.872407
618.360905	-90.220936
618.488476	-86.773827
618.616100	-89.213031
618.743777	-98.767902
618.871506	-94.519653
618.999288	-100.367448
619.127123	-98.907301
619.255011	-96.695146
619.382951	-102.940540
619.510945	-93.108723
619.638991	-93.444938
619.767090	-104.473135
619.895243	-96.545257
620.023448	-99.198765
620.151706	-97.068603
620.280017	-89.749346
620.408382	-92.248670
620.536799	-93.878125
620.665270	-89.501299
620.793794	-92.180365
620.922371	-102.609663
621.051002	-92.007313
621.179686	-93.452150
621.308423	-116.047503
621.437213	-94.750762
621.566057	-93.481537
621.694954	-98.909019
621.823905	-108.461714
621.952909	-95.463509
622.081967	-92.916300
622.211079	-99.644004
622.340244	-100.294861
622.469462	-92.460583
622.598735	-92.142102
622.728061	-89.570624
622.857441	-87.919235
622.986874	-88.779995
623.116361	-89.689844
623.245903	-89.819250
623.375498	-90.325759
623.505147	-92.578333
623.634850	-97.952564
623.764606	-110.415331
623.894417	-100.680685
624.024282	-94.079795
624.154201	-92.320332
624.284174	-91.340620
624.414202	-87.235811
624.544283	-84.923449
624.674419	-86.893670
624.804609	-88.022488
624.934853	-85.841635
625.065151	-88.952506
625.195504	-100.316306
625.325911	-109.897299
625.456373	-94.863984
625.586889	-87.884141
625.717460	-87.760854
625.848085	-88.451158
625.978764	-86.177589
626.109498	-87.642962
626.240287	-95.654528
626.371131	-98.668299
626.502029	-94.146977
626.632982	-88.680132
626.763989	-89.595405
626.895052	-87.202623
627.026169	-83.318069
627.157341	-84.971336
627.288568	-87.256946
627.419850	-84.259361
627.551187	-85.650987
627.682579	-94.938907
627.814026	-99.429118
627.945528	-90.255628
628.077085	-87.161206
628.208697	-92.608699
628.340364	-89.099472
628.472087	-83.567938
628.603865	-87.936841
628.735698	-84.870002
628.867586	-80.305660
628.999530	-83.058917
629.131529	-84.810264
629.263584	-80.785963
629.395694	-83.786271
629.527859	-87.694906
629.660080	-83.987229
629.792357	-88.752451
629.924689	-94.599003
630.057077	-88.161476
630.189520	-96.509999
630.322019	-88.584505
630.454574	-85.124966
630.587184	-88.517580
630.719851	-91.025686
630.852573	-85.044250
630.985351	-84.533067
631.118185	-89.465597
631.251075	-86.316452
631.384021	-85.775416
631.517023	-94.655429
631.650081	-85.878645
631.783195	-86.310129
631.916365	-96.631041
632.049592	-87.260626
632.182874	-91.894788
632.316213	-90.760800
632.449608	-86.300567
632.583059	-97.826450
632.716567	-83.779548
632.850131	-82.473823
632.983751	-84.355908
633.117428	-79.368626
633.251161	-78.904741
633.384951	-79.992882
633.518797	-78.047699
633.652700	-78.484297
633.786660	-82.880178
633.920676	-84.706346
634.054749	-87.852988
634.188879	-92.034678
634.323065	-86.807037
634.457308	-89.351906
634.591608	-85.312658
634.725965	-83.885426
634.860379	-86.027055
634.994850	-92.031708
635.129377	-94.789839
635.263962	-93.481875
635.398604	-86.585429
635.533303	-82.440695
635.668058	-80.379908
635.802872	-79.173703
635.937742	-79.118819
636.072669	-80.093419
636.207654	-81.884189
636.342696	-86.319305
636.477796	-97.483058
636.612953	-99.973320
636.748167	-91.830532
636.883439	-85.693689
637.018768	-85.956661
637.154155	-86.036222
637.289599	-84.781089
637.425101	-89.574259
637.560660	-104.940888
637.696277	-98.402334
637.831952	-84.636792
637.967685	-80.462521
638.103475	-80.710456
638.239324	-79.030510
638.375230	-77.301344
638.511194	-79.787139
638.647215	-79.433355
638.783295	-78.017743
638.919433	-81.572004
639.055629	-84.735295
639.191883	-82.657183
639.328195	-82.825201
639.464565	-87.038466
639.600994	-84.812278
639.737481	-80.395470
639.874025	-81.899900
640.010629	-84.494188
640.147290	-81.038385
640.284010	-84.497615
640.420789	-96.789671
640.557625	-94.971056
640.694521	-87.377050
640.831474	-83.277693
640.968487	-83.693217
641.105558	-80.571330
641.242687	-79.524947
641.379876	-82.142961
641.517123	-81.555884
641.654429	-83.509569
641.791793	-95.843593
641.929216	-100.882985
642.066699	-90.916544
642.204240	-84.671536
642.341840	-88.124702
642.479499	-84.138968
642.617217	-83.399922
642.754994	-93.447152
642.892830	-83.318337
643.030726	-82.527987
643.168680	-81.510938
643.306694	-78.045093
643.444767	-78.830047
643.582899	-78.391025
643.721091	-77.465087
643.859342	-78.993163
643.997652	-81.093058
644.136022	-84.436082
644.274451	-94.318315
644.412940	-96.720377
644.551488	-86.243737
644.690096	-83.234181
644.828763	-82.040088
644.967490	-82.057449
645.106277	-83.444518
645.245124	-87.591991
645.384030	-88.574268
645.522997	-88.027160
645.662023	-86.065316
645.801109	-83.832855
645.940255	-81.103409
646.079460	-82.536999
646.218726	-83.789883
646.358052	-82.801138
646.497438	-85.547241
646.636884	-84.226540
646.776391	-84.284048
646.915957	-82.636260
647.055584	-80.719845
647.195271	-83.247713
647.335019	-82.713271
647.474826	-84.774544
647.614695	-99.020267
647.754623	-94.249903
647.894612	-86.158378
648.034662	-81.434444
648.174772	-82.114194
648.314943	-77.204198
648.455174	-76.532389
648.595466	-80.094031
648.735819	-77.657550
648.876233	-78.435888
649.016707	-83.342334
649.157242	-78.866760
649.297838	-81.662112
649.438495	-88.175264
649.579213	-85.873824
649.719992	-92.856288
649.860832	-96.070844
650.001733	-92.527784
650.142695	-87.309019
650.283718	-93.696028
650.424803	-84.884969
650.565949	-85.950099
650.707156	-86.195885
650.848424	-81.356908
650.989754	-86.047366
651.131145	-79.703457
651.272597	-79.047786
651.414111	-83.480466
651.555687	-80.763844
651.697324	-84.899263
651.839022	-91.724854
651.980782	-88.988502
652.122604	-83.928660
652.264488	-77.870079
652.406433	-78.363641
652.548441	-76.694496
652.690510	-75.065065
652.832640	-78.089224
652.974833	-80.515268
653.117088	-81.605251
653.259405	-85.191423
653.401784	-85.161970
653.544224	-81.622946
653.686727	-77.620872
653.829293	-77.889175
653.971920	-80.635677
654.114609	-78.891505
654.257361	-78.739679
654.400175	-80.549768
654.543052	-78.793831
654.685991	-77.456558
654.828992	-79.192183
654.972056	-80.477286
655.115183	-81.045338
655.258372	-88.404202
655.401623	-94.498082
655.544937	-92.403796
655.688314	-80.977641
655.831754	-79.372358
655.975256	-80.558900
656.118822	-76.291862
656.262450	-77.513955
656.406141	-83.155688
656.549894	-79.143445
656.693711	-79.290707
656.837591	-83.483834
656.981534	-80.817375
657.125540	-75.609891
657.269610	-77.097532
657.413742	-77.182706
657.557938	-74.269800
657.702196	-78.654841
657.846519	-77.180954
657.990904	-76.676464
658.135353	-80.656321
658.279866	-77.842135
658.424441	-83.643292
658.569081	-80.530318
658.713784	-79.061677
658.858550	-85.425586
659.003381	-81.112977
659.148274	-82.875990
659.293232	-95.785082
659.438253	-85.310133
659.583339	-80.943547
659.728488	-88.819537
659.873701	-82.091846
660.018978	-79.854854
660.164318	-101.057741
660.309723	-82.334936
660.455192	-88.707927
660.600725	-80.912802
660.746323	-78.643648
660.891984	-86.218655
661.037710	-83.284983
661.183500	-86.486546
661.329354	-87.405132
661.475272	-90.732022
661.621255	-84.135785
661.767303	-79.625767
661.913415	-86.825405
662.059591	-80.955383
662.205833	-80.486597
662.352138	-86.158181
662.498509	-95.338988
662.644944	-80.723231
662.791443	-81.041610
662.938008	-85.193348
663.084638	-78.191007
663.231332	-86.950901
663.378091	-78.569721
663.524915	-78.113497
663.671804	-81.419725
663.818759	-75.341103
663.965778	-80.820203
664.112863	-76.688442
664.260012	-77.043275
664.407227	-84.561635
664.554507	-76.610377
664.701853	-83.180152
664.849264	-80.077582
664.996740	-78.800893
665.144282	-91.148715
665.291889	-81.177121
665.439561	-77.385948
665.587300	-81.954841
665.735103	-77.484234
665.882973	-76.130681
666.030908	-86.178155
666.178909	-77.507700
666.326976	-81.279944
666.475109	-80.500715
666.623307	-78.408880
666.771571	-84.687497
666.919902	-75.961909
667.068298	-83.250612
667.216761	-79.225580
667.365289	-79.629931
667.513884	-85.153218
667.662545	-79.513451
667.811272	-91.877749
667.960065	-80.589845
668.108925	-89.841963
668.257851	-80.766560
668.406843	-81.775233
668.555902	-89.153595
668.705027	-81.122419
668.854219	-83.884838
669.003478	-91.369776
669.152803	-81.924104
669.302195	-78.170447
669.451653	-84.456792
669.601179	-75.056671
669.750771	-77.854796
669.900430	-77.714020
670.050156	-74.468931
670.199949	-83.596180
670.349808	-75.654548
670.499735	-84.144174
670.649729	-76.086486
670.799790	-76.756319
670.949918	-79.090822
671.100114	-75.311584
671.250377	-83.437780
671.400707	-75.095880
671.551104	-81.349692
671.701569	-74.640420
671.852101	-75.483600
672.002700	-80.789483
672.153368	-76.715281
672.304102	-94.162286
672.454905	-81.862838
672.605775	-83.684193
672.756713	-75.039455
672.907718	-80.982467
673.058791	-72.818598
673.209933	-74.073420
673.361142	-76.408343
673.512419	-73.265354
673.663764	-85.924450
673.815177	-78.738817
673.966658	-96.598532
674.118207	-76.369904
674.269825	-81.180517
674.421510	-75.887775
674.573264	-76.118203
674.725086	-82.402200
674.876977	-76.550660
675.028936	-89.162793
675.180963	-80.114483
675.333059	-84.998050
675.485224	-77.781347
675.637457	-80.255450
675.789758	-74.173687
675.942129	-74.763339
676.094568	-74.832419
676.247075	-72.029656
676.399652	-77.914467
676.552298	-81.362663
676.705012	-82.932725
676.857795	-76.526610
677.010648	-77.541779
677.163569	-72.545448
677.316560	-71.765321
677.469619	-75.805743
677.622748	-73.209074
677.775946	-79.208553
677.929214	-83.353229
678.082551	-83.099364
678.235957	-77.632271
678.389432	-84.197108
678.542977	-78.436106
678.696592	-80.493004
678.850276	-79.858706
679.004030	-76.712483
679.157853	-86.406774
679.311746	-78.850473
679.465709	-83.088049
679.619742	-74.568848
679.773844	-86.860327
679.928017	-71.809999
680.082259	-75.421033
680.236571	-75.411921
680.390954	-77.006246
680.545406	-77.002165
680.699929	-74.004085
680.854522	-76.704173
681.009185	-71.101922
681.163918	-78.628878
681.318722	-72.749205
681.473596	-80.109478
681.628540	-78.731083
681.783555	-97.093550
681.938641	-71.644857
682.093797	-72.127978
682.249023	-73.486926
682.404321	-71.115115
682.559689	-84.715966
682.715128	-81.409386
682.870637	-80.854905
683.026218	-76.342561
683.181869	-79.306437
683.337591	-71.540138
683.493385	-76.624764
683.649249	-73.891617
683.805185	-76.966169
683.961191	-80.709499
684.117269	-80.058733
684.273418	-80.367970
684.429639	-80.294060
684.585930	-77.471921
684.742294	-73.979538
684.898728	-76.436013
685.055234	-70.942144
685.211812	-75.566425
685.368461	-72.637677
685.525182	-76.120014
685.681975	-89.442525
685.838839	-107.933320
685.995775	-75.457902
686.152783	-77.906797
686.309863	-76.034446
686.467014	-74.689323
686.624238	-79.523619
686.781534	-75.712619
686.938902	-79.905070
687.096342	-72.300205
687.253854	-75.868106
687.411438	-70.165552
687.569095	-74.244918
687.726824	-71.645588
687.884626	-74.025152
688.042499	-75.617184
688.200446	-73.574693
688.358465	-85.466068
688.516556	-79.264132
688.674720	-74.535272
688.832957	-76.717327
688.991266	-73.519660
689.149649	-71.732806
689.308104	-78.758212
689.466632	-76.441481
689.625233	-81.373684
689.783906	-77.871791
689.942653	-82.014073
690.101473	-75.372885
690.260367	-79.404558
690.419333	-72.077373
690.578372	-77.383983
690.737485	-73.110909
690.896672	-75.862379
691.055931	-77.040335
691.215264	-80.157623
691.374671	-82.819929
691.534151	-84.475698
691.693704	-72.581032
691.853332	-71.090217
692.013033	-69.040849
692.172807	-67.684032
692.332656	-69.787646
692.492578	-69.376354
692.652575	-73.330814
692.812645	-78.544258
692.972789	-75.650938
693.133007	-74.676032
693.293300	-75.454410
693.453666	-71.600816
693.614107	-72.993146
693.774622	-70.432419
693.935211	-72.295348
694.095875	-75.436388
694.256613	-76.856887
694.417426	-83.398433
694.578313	-78.210291
694.739274	-71.213553
694.900311	-71.579977
695.061421	-71.708865
695.222607	-69.848673
695.383868	-69.714990
695.545203	-68.446167
695.706613	-72.648855
695.868098	-74.850075
696.029658	-82.836835
696.191293	-81.426940
696.353003	-86.956861
696.514789	-78.291506
696.676649	-78.766545
696.838585	-72.894723
697.000596	-75.932403
697.162682	-76.815288
697.324844	-78.730868
697.487081	-80.727797
697.649394	-74.503597
697.811782	-68.963745
697.974246	-70.185274
698.136786	-69.870673
698.299401	-71.455249
698.462092	-80.757111
698.624859	-81.556519
698.787702	-79.369451
698.950621	-82.910772
699.113616	-76.137713
699.276686	-81.687583
699.439833	-72.626937
699.603056	-70.712165
699.766355	-68.763799
699.929731	-69.546977
700.093183	-75.830895
700.256711	-72.775135
700.420315	-83.650929
700.583996	-79.403375
700.747754	-79.362115
700.911588	-77.872862
701.075499	-71.898982
701.239486	-68.616823
701.403550	-70.633701
701.567691	-69.270784
701.731909	-71.855472
701.896203	-68.271320
702.060575	-76.467262
702.225024	-74.514076
702.389549	-79.969555
702.554152	-82.501154
702.718832	-71.057117
702.883589	-70.325688
703.048424	-74.391465
703.213335	-70.416869
703.378324	-71.744506
703.543391	-70.345995
703.708535	-83.019911
703.873757	-72.824231
704.039056	-82.219817
704.204433	-73.627941
704.369887	-72.812529
704.535420	-69.013853
704.701030	-76.128646
704.866718	-70.138094
705.032484	-77.215162
705.198328	-72.268667
705.364250	-74.215087
705.530250	-68.806037
705.696328	-75.048908
705.862485	-68.619843
706.028720	-72.397543
706.195033	-69.769130
706.361424	-82.413366
706.527894	-82.215890
706.694442	-70.545694
706.861069	-65.891745
707.027775	-67.015568
707.194559	-66.520013
707.361422	-75.776779
707.528363	-69.044569
707.695384	-72.533475
707.862483	-70.112632
708.029661	-77.797362
708.196918	-73.480697
708.364254	-70.996742
708.531670	-66.459005
708.699164	-65.961725
708.866738	-65.250484
709.034391	-70.838339
709.202123	-71.598400
709.369935	-77.175253
709.537826	-73.253288
709.705796	-71.371965
709.873847	-69.046623
710.041976	-68.655721
710.210186	-67.279393
710.378475	-67.764528
710.546844	-67.400725
710.715292	-70.704274
710.883821	-70.979750
711.052429	-77.051587
711.221118	-75.134506
711.389887	-70.497647
711.558735	-67.335480
711.727664	-68.447970
711.896673	-67.716166
712.065763	-67.386573
712.234932	-64.507941
712.404183	-65.250903
712.573513	-65.449502
712.742924	-74.053294
712.912416	-72.612603
713.081988	-70.798134
713.251641	-70.150772
713.421375	-69.793548
713.591190	-69.384118
713.761085	-67.848370
713.931061	-69.261288
714.101119	-66.566997
714.271257	-67.494855
714.441476	-65.956050
714.611777	-69.171463
714.782159	-66.639974
714.952622	-68.449706
715.123166	-65.508609
715.293792	-70.661966
715.464499	-66.665463
715.635288	-67.239728
715.806158	-63.514430
715.977110	-66.505335
716.148143	-66.374070
716.319259	-69.290030
716.490456	-64.338766
716.661735	-63.293744
716.833096	-61.294852
717.004538	-63.848883
717.176063	-64.566280
717.347670	-74.767599
717.519359	-71.235514
717.691130	-70.317603
717.862984	-68.057460
718.034920	-66.376114
718.206938	-65.733574
718.379039	-65.458993
718.551222	-66.530529
718.723488	-64.827072
718.895836	-66.523079
719.068267	-65.322773
719.240781	-66.626019
719.413377	-61.890838
719.586057	-62.924948
719.758819	-62.651312
719.931664	-70.486096
720.104593	-69.065907
720.277604	-67.186529
720.450699	-62.923528
720.623876	-63.344309
720.797137	-62.680009
720.970482	-65.918117
721.143910	-67.215366
721.317421	-66.134221
721.491016	-64.349321
721.664694	-62.477465
721.838456	-63.970573
722.012302	-64.089051
722.186231	-64.782764
722.360244	-62.899626
722.534342	-65.115847
722.708523	-65.852090
722.882788	-67.348843
723.057137	-63.336756
723.231570	-62.377118
723.406088	-62.168617
723.580689	-65.449376
723.755375	-66.918504
723.930146	-65.214180
724.105000	-62.413306
724.279940	-61.834250
724.454963	-61.715051
724.630072	-63.448486
724.805265	-64.781606
724.980543	-66.923818
725.155905	-67.718798
725.331353	-64.761104
725.506885	-63.107256
725.682503	-61.396219
725.858205	-63.329543
726.033993	-64.464830
726.209865	-65.092009
726.385823	-62.226776
726.561866	-62.591327
726.737995	-62.003865
726.914209	-62.534223
727.090508	-61.331778
727.266893	-61.546333
727.443364	-62.778349
727.619920	-66.801693
727.796562	-68.165408
727.973290	-63.185312
728.150103	-62.118246
728.327003	-61.625778
728.503988	-65.015268
728.681060	-66.110289
728.858218	-63.403227
729.035461	-60.448474
729.212791	-60.894185
729.390208	-61.956177
729.567710	-62.161237
729.745299	-60.788148
729.922975	-60.312598
730.100737	-62.345717
730.278586	-65.369804
730.456521	-65.436644
730.634543	-61.783388
730.812652	-61.714329
730.990848	-63.234524
731.169130	-64.908925
731.347500	-63.013085
731.525957	-62.110245
731.704500	-63.030919
731.883131	-62.756053
732.061850	-62.403867
732.240655	-62.025067
732.419548	-61.847335
732.598528	-61.655434
732.777596	-62.438757
732.956751	-64.735648
733.135994	-63.741525
733.315325	-62.888500
733.494744	-62.220765
733.674250	-63.337831
733.853844	-63.886016
734.033526	-62.005616
734.213296	-61.304928
734.393154	-61.176153
734.573101	-63.270986
734.753135	-61.956115
734.933258	-61.721534
735.113469	-60.973998
735.293769	-62.488932
735.474157	-62.476868
735.654633	-60.894284
735.835198	-60.379850
736.015852	-60.894331
736.196594	-66.494622
736.377426	-64.976524
736.558346	-63.068228
736.739355	-61.642084
736.920453	-63.151847
737.101640	-61.735152
737.282916	-60.810012
737.464282	-62.540534
737.645736	-64.347092
737.827280	-67.375710
738.008914	-60.363709
738.190637	-58.977987
738.372449	-58.393332
738.554351	-62.653898
738.736342	-65.135384
738.918424	-62.679786
739.100595	-63.562903
739.282855	-62.000670
739.465206	-63.809503
739.647647	-62.100129
739.830178	-63.569682
740.012799	-63.451762
740.195510	-63.471223
740.378311	-63.429167
740.561203	-60.742022
740.744185	-59.939343
740.927258	-58.364833
741.110421	-60.681312
741.293674	-63.918110
741.477018	-67.183952
741.660453	-64.011532
741.843979	-62.009242
742.027596	-61.210907
742.211303	-59.984248
742.395102	-62.743102
742.578991	-64.186262
742.762972	-62.819590
742.947044	-62.107200
743.131207	-66.168273
743.315461	-66.577912
743.499807	-60.595801
743.684244	-60.804943
743.868773	-62.956589
744.053394	-65.362770
744.238106	-64.284220
744.422910	-62.506438
744.607805	-65.498721
744.792793	-62.841413
744.977872	-60.388029
745.163044	-61.538567
745.348307	-63.428942
745.533663	-64.914162
745.719111	-61.520819
745.904651	-64.664505
746.090283	-66.284671
746.276008	-62.395643
746.461826	-62.124972
746.647735	-60.548057
746.833738	-63.909514
747.019833	-64.658925
747.206021	-67.265795
747.392302	-66.551928
747.578676	-62.220626
747.765143	-61.995038
747.951703	-61.988058
748.138356	-69.842331
748.325102	-67.387553
748.511941	-63.251121
748.698874	-62.462945
748.885900	-60.764789
749.073019	-61.871270
749.260232	-60.984758
749.447539	-63.395698
749.634939	-62.711105
749.822433	-65.784074
750.010021	-66.375838
750.197703	-61.238459
750.385479	-63.012968
750.573348	-63.198488
750.761312	-64.977835
750.949370	-64.252517
751.137523	-62.062543
751.325769	-64.999704
751.514110	-64.737969
751.702545	-66.502516
751.891075	-65.981091
752.079700	-60.833055
752.268419	-61.369718
752.457233	-61.823657
752.646142	-69.328088
752.835145	-69.567729
753.024244	-62.827875
753.213437	-63.013563
753.402726	-61.113963
753.592110	-63.823933
753.781589	-69.788334
753.971163	-65.491888
754.160833	-62.467385
754.350598	-59.381918
754.540459	-61.212841
754.730415	-61.671838
754.920467	-66.073391
755.110615	-68.689707
755.300858	-61.100119
755.491198	-63.019626
755.681633	-61.934376
755.872164	-60.966145
756.062792	-62.624037
756.253515	-62.645190
756.444335	-67.304820
756.635252	-61.625394
756.826264	-59.641347
757.017373	-62.626115
757.208579	-65.311174
757.399881	-67.375780
757.591280	-63.637420
757.782776	-60.208510
757.974368	-60.854815
758.166058	-59.386185
758.357844	-63.960409
758.549728	-65.123894
758.741708	-60.568788
758.933786	-60.373403
759.125961	-59.289055
759.318233	-63.047598
759.510603	-62.794875
759.703071	-60.313972
759.895635	-64.916225
760.088298	-63.924926
760.281058	-60.151275
760.473916	-59.298625
760.666872	-59.292503
760.859926	-62.202665
761.053078	-60.438764
761.246328	-64.601529
761.439676	-63.219982
761.633122	-58.371899
761.826667	-60.718821
762.020310	-59.850471
762.214052	-60.904818
762.407892	-61.817488
762.601831	-61.207444
762.795868	-62.323337
762.990004	-58.874953
763.184239	-58.676786
763.378573	-60.800329
763.573006	-57.466294
763.767538	-59.034081
763.962169	-59.798338
764.156900	-58.653892
764.351729	-61.004443
764.546658	-60.199397
764.741687	-60.008397
764.936815	-60.460673
765.132042	-59.351208
765.327370	-58.992522
765.522797	-56.266843
765.718324	-58.901988
765.913950	-64.140079
766.109677	-59.067557
766.305504	-59.117147
766.501431	-57.850423
766.697458	-55.925510
766.893586	-58.220755
767.089814	-56.878238
767.286142	-57.903422
767.482571	-57.995290
767.679100	-57.094679
767.875730	-61.056928
768.072461	-57.709714
768.269293	-55.946457
768.466225	-58.995673
768.663259	-56.910049
768.860393	-57.327968
769.057629	-57.954654
769.254966	-55.877333
769.452404	-59.695908
769.649944	-58.994437
769.847585	-55.574588
770.045328	-57.185284
770.243172	-56.086112
770.441118	-57.963199
770.639166	-59.026605
770.837315	-56.251759
771.035567	-56.224968
771.233920	-54.283743
771.432376	-55.159391
771.630934	-60.213696
771.829594	-56.933690
772.028356	-55.512070
772.227220	-56.743220
772.426188	-55.192930
772.625257	-57.160893
772.824430	-57.289987
773.023705	-55.112571
773.223083	-55.861588
773.422563	-54.500730
773.622147	-55.537417
773.821834	-58.044268
774.021624	-54.534906
774.221517	-54.388482
774.421513	-55.548240
774.621613	-55.205755
774.821816	-56.405973
775.022122	-54.621723
775.222532	-53.601272
775.423046	-55.769348
775.623664	-54.197253
775.824385	-54.481577
776.025211	-56.576464
776.226140	-55.232479
776.427173	-56.233654
776.628311	-55.606010
776.829553	-52.317677
777.030899	-53.858257
777.232350	-54.994226
777.433905	-54.853031
777.635564	-55.561283
777.837328	-53.194126
778.039197	-52.791858
778.241171	-56.120435
778.443250	-54.695541
778.645433	-52.436694
778.847722	-52.222377
779.050116	-51.557720
779.252615	-55.449911
779.455219	-57.764385
779.657929	-53.420306
779.860744	-52.129103
780.063665	-52.306921
780.266691	-54.030670
780.469823	-55.804433
780.673061	-52.324801
780.876405	-51.458539
781.079855	-54.360843
781.283410	-54.656723
781.487072	-53.306288
781.690840	-51.978679
781.894715	-50.173870
782.098695	-52.590175
782.302783	-55.767735
782.506976	-52.888921
782.711277	-51.495278
782.915684	-52.162337
783.120198	-52.301884
783.324818	-54.552089
783.529546	-53.599619
783.734381	-51.068972
783.939322	-52.219790
784.144372	-53.108204
784.349528	-51.011210
784.554792	-50.645695
784.760163	-51.038737
784.965642	-52.542330
785.171228	-54.479325
785.376922	-52.400755
785.582724	-50.124687
785.788634	-51.741326
785.994651	-52.687836
786.200777	-51.600643
786.407011	-51.878148
786.613353	-51.051361
786.819804	-50.441378
787.026363	-52.347450
787.233030	-51.857027
787.439806	-50.500194
787.646691	-52.105765
787.853684	-52.001749
788.060786	-50.642907
788.267997	-50.925011
788.475317	-49.808639
788.682746	-50.141924
788.890285	-52.474555
789.097932	-51.434206
789.305689	-50.911076
789.513555	-51.940380
789.721531	-50.468879
789.929617	-50.541373
790.137812	-51.982838
790.346117	-50.208157
790.554531	-49.036099
790.763056	-50.316459
790.971691	-50.462706
791.180436	-50.313563
791.389291	-50.864127
791.598256	-50.293057
791.807332	-50.140487
792.016518	-51.362156
792.225815	-50.777931
792.435222	-49.545166
792.644740	-50.038318
792.854369	-49.625714
793.064109	-49.583367
793.273960	-50.654377
793.483922	-49.213752
793.693995	-48.141813
793.904180	-50.306607
794.114475	-50.911862
794.324882	-49.877254
794.535401	-50.559655
794.746031	-49.852594
794.956774	-48.223216
795.167627	-49.981084
795.378593	-51.804992
795.589671	-48.980336
795.800861	-48.025219
796.012162	-49.578260
796.223577	-49.711240
796.435103	-49.211133
796.646742	-49.615607
796.858493	-48.693688
797.070357	-49.080392
797.282334	-50.820591
797.494423	-48.988499
797.706626	-47.662468
797.918941	-49.223071
798.131369	-49.817384
798.343911	-49.226220
798.556566	-48.915369
798.769334	-47.982386
798.982215	-47.864076
799.195210	-50.333280
799.408319	-50.709476
799.621541	-47.905863
799.834877	-47.624692
800.048327	-49.479352
800.261890	-49.376866
800.475568	-48.743347
800.689360	-48.626144
800.903266	-47.545890
801.117287	-47.960415
801.331422	-50.047524
801.545671	-49.420511
801.760036	-47.769051
801.974514	-48.132795
802.189108	-49.406669
802.403816	-49.013532
802.618640	-47.790594
802.833578	-47.752238
803.048632	-47.875829
803.263800	-49.114955
803.479085	-50.048416
803.694484	-47.878384
803.909999	-46.730929
804.125630	-48.148575
804.341376	-48.985829
804.557239	-48.228917
804.773217	-47.953655
804.989311	-48.507180
805.205521	-48.207775
805.421847	-47.682475
805.638290	-48.094118
805.854849	-47.852097
806.071524	-47.908116
806.288316	-49.138252
806.505225	-48.340349
806.722250	-47.344693
806.939393	-47.895658
807.156652	-48.358230
807.374028	-48.703473
807.591521	-47.856265
807.809132	-47.113661
808.026859	-47.516218
808.244705	-48.142964
808.462667	-48.425602
808.680748	-47.758516
808.898946	-46.936897
809.117261	-47.559081
809.335695	-48.246310
809.554246	-48.188586
809.772916	-47.299699
809.991704	-47.113478
810.210610	-48.196951
810.429634	-47.948565
810.648777	-47.668427
810.868039	-48.026232
811.087419	-46.800718
811.306918	-46.719357
811.526535	-48.092862
811.746272	-48.391149
811.966127	-47.605442
812.186102	-46.701370
812.406196	-47.172295
812.626409	-47.931564
812.846742	-47.812702
813.067194	-47.596386
813.287766	-47.188669
813.508457	-47.268333
813.729269	-47.601837
813.950200	-47.276850
814.171251	-47.390977
814.392422	-47.511671
814.613714	-47.488430
814.835126	-47.119678
815.056658	-46.415585
815.278311	-46.794063
815.500084	-47.388774
815.721978	-47.485719
815.943993	-47.219738
816.166128	-46.582575
816.388385	-47.173546
816.610762	-47.547369
816.833261	-46.917278
817.055881	-47.037210
817.278623	-46.790745
817.501486	-46.674603
817.724471	-47.085134
817.947577	-47.221605
818.170805	-47.201291
818.394155	-46.608343
818.617627	-46.639192
818.841221	-46.807010
819.064937	-46.356900
819.288775	-46.782739
819.512736	-47.217745
819.736819	-46.941867
819.961025	-46.037866
820.185354	-45.995808
820.409805	-47.015162
820.634379	-46.881057
820.859076	-46.356006
821.083897	-45.974792
821.308840	-45.890382
821.533907	-46.679915
821.759097	-46.472459
821.984411	-46.415694
822.209848	-46.389440
822.435409	-46.062408
822.661093	-46.357394
822.886902	-46.236628
823.112834	-46.072427
823.338891	-45.866703
823.565072	-45.624878
823.791377	-45.851012
824.017807	-45.714350
824.244361	-45.974580
824.471039	-45.966020
824.697843	-45.613289
824.924771	-45.638706
825.151824	-45.739128
825.379002	-45.904027
825.606306	-45.262072
825.833734	-44.920127
826.061288	-45.466672
826.288967	-45.921456
826.516772	-45.840063
826.744703	-44.667337
826.972759	-44.968704
827.200941	-46.178798
827.429249	-45.399344
827.657683	-44.955473
827.886243	-44.898468
828.114930	-45.281305
828.343743	-45.243891
828.572682	-44.349581
828.801748	-44.805813
829.030941	-45.338136
829.260260	-44.913868
829.489706	-44.143191
829.719280	-44.123943
829.948980	-45.282320
830.178808	-44.946685
830.408763	-44.148529
830.638845	-43.952823
830.869055	-44.424035
831.099393	-44.847259
831.329858	-44.144488
831.560451	-44.227310
831.791173	-44.140173
832.022022	-44.331666
832.252999	-44.409833
832.484105	-43.454451
832.715339	-43.986109
832.946702	-44.181360
833.178193	-43.774312
833.409813	-43.463586
833.641561	-43.131024
833.873439	-43.991297
834.105445	-43.657112
834.337581	-43.256559
834.569846	-43.461697
834.802241	-43.439789
835.034764	-43.560020
835.267418	-42.926181
835.500201	-43.128021
835.733114	-43.494699
835.966157	-43.277939
836.199329	-42.733859
836.432632	-42.571201
836.666065	-43.555227
836.899629	-42.882871
837.133323	-42.327175
837.367147	-42.465403
837.601102	-42.801888
837.835188	-43.061235
838.069405	-41.968590
838.303752	-42.399173
838.538231	-42.868257
838.772841	-42.300589
839.007582	-42.160771
839.242455	-41.958463
839.477459	-42.553796
839.712595	-42.197417
839.947863	-42.000087
840.183263	-42.167934
840.418794	-41.953533
840.654458	-42.010698
840.890254	-41.420882
841.126182	-41.790102
841.362242	-41.938741
841.598435	-41.491328
841.834761	-41.425643
842.071220	-41.468846
842.307811	-42.131388
842.544536	-41.422880
842.781393	-40.848826
843.018384	-40.934921
843.255508	-41.661296
843.492765	-42.200831
843.730156	-40.780948
843.967681	-40.842632
844.205339	-41.171393
844.443132	-41.014012
844.681058	-40.788890
844.919118	-40.611668
845.157313	-41.346426
845.395642	-40.918517
845.634105	-40.706964
845.872703	-40.745648
846.111436	-40.758112
846.350303	-40.532080
846.589306	-40.150332
846.828443	-41.051404
847.067716	-40.771446
847.307124	-40.195467
847.546667	-40.229252
847.786345	-40.414933
848.026160	-40.476107
848.266110	-39.780801
848.506195	-40.036048
848.746417	-40.393599
848.986775	-40.325547
849.227269	-39.767622
849.467899	-39.834691
849.708666	-40.473811
849.949569	-39.964052
850.190609	-39.800945
850.431785	-39.706470
850.673099	-39.780902
850.914549	-39.648906
851.156137	-39.542079
851.397861	-39.891517
851.639723	-39.670084
851.881723	-39.437689
852.123860	-39.357744
852.366135	-39.707211
852.608547	-39.672408
852.851098	-39.248112
853.093786	-39.457780
853.336613	-39.639472
853.579578	-39.337123
853.822681	-39.106402
854.065923	-39.196162
854.309304	-39.196497
854.552823	-39.175675
854.796481	-39.067738
855.040278	-39.092656
855.284215	-39.026613
855.528290	-39.132724
855.772505	-39.276193
856.016859	-39.201000
856.261353	-39.011058
856.505987	-38.342256
856.750760	-38.545286
856.995673	-39.000060
857.240727	-38.959566
857.485920	-38.743914
857.731254	-38.877224
857.976729	-38.871895
858.222343	-38.275136
858.468099	-38.666217
858.713995	-38.885889
858.960032	-38.689339
859.206211	-38.095832
859.452530	-38.217824
859.698991	-38.843995
859.945593	-38.433451
860.192336	-38.444754
860.439222	-38.295899
860.686248	-38.459508
860.933417	-38.153507
861.180728	-38.235940
861.428181	-38.555760
861.675776	-38.110202
861.923514	-38.143582
862.171394	-37.947459
862.419417	-38.426229
862.667582	-38.111616
862.915890	-38.093664
863.164342	-38.152416
863.412936	-37.741639
863.661674	-37.908713
863.910555	-37.714551
864.159579	-38.295224
864.408747	-37.867828
864.658059	-37.638832
864.907515	-37.680299
865.157114	-37.950888
865.406858	-37.931324
865.656746	-37.299951
865.906778	-37.905465
866.156955	-37.704131
866.407277	-37.483141
866.657743	-37.257603
866.908354	-37.997503
867.159110	-37.935598
867.410011	-37.073099
867.661057	-37.445578
867.912249	-37.465680
868.163586	-37.532779
868.415069	-37.245349
868.666697	-37.703796
868.918472	-37.241752
869.170392	-37.102811
869.422458	-37.458041
869.674671	-37.106747
869.927030	-37.139491
870.179536	-37.084349
870.432188	-37.615069
870.684987	-36.866249
870.937933	-36.785059
871.191026	-37.178408
871.444266	-37.175404
871.697653	-36.902353
871.951188	-36.824584
872.204870	-37.250184
872.458700	-36.542327
872.712677	-36.801356
872.966803	-36.807678
873.221076	-36.897558
873.475498	-36.740794
873.730068	-36.572262
873.984787	-36.885315
874.239654	-36.561804
874.494669	-36.570743
874.749834	-36.479228
875.005147	-36.756562
875.260610	-36.423605
875.516222	-36.711709
875.771983	-36.507302
876.027894	-36.003185
876.283954	-36.530238
876.540164	-36.768160
876.796524	-36.312732
877.053033	-35.886517
877.309693	-36.474038
877.566503	-36.334402
877.823464	-36.167531
878.080575	-36.000352
878.337837	-36.258040
878.595249	-36.320608
878.852813	-35.924021
879.110528	-36.052463
879.368393	-35.966240
879.626410	-36.008111
879.884579	-35.936382
880.142899	-36.098530
880.401371	-35.680163
880.659994	-35.836540
880.918770	-35.967160
881.177698	-35.515432
881.436778	-35.685776
881.696010	-35.829217
881.955395	-35.757743
882.214933	-35.431547
882.474623	-35.537708
882.734467	-35.653628
882.994463	-35.437674
883.254613	-35.281306
883.514916	-35.558419
883.775372	-35.401969
884.035982	-35.217355
884.296746	-35.497394
884.557664	-35.156726
884.818735	-34.929353
885.079961	-35.287972
885.341341	-35.248337
885.602876	-34.906686
885.864565	-35.148333
886.126409	-35.200176
886.388407	-34.817174
886.650561	-34.801420
886.912870	-35.151752
887.175334	-34.843452
887.437953	-34.582809
887.700728	-35.060374
887.963658	-34.850674
888.226745	-34.383574
888.489987	-34.649585
888.753385	-34.915087
889.016940	-34.361080
889.280651	-34.452247
889.544518	-34.862372
889.808543	-34.223131
890.072723	-34.371943
890.337061	-34.621755
890.601556	-34.150427
890.866208	-34.034128
891.131017	-34.472108
891.395984	-34.193315
891.661109	-33.867385
891.926391	-34.251748
892.191831	-34.203558
892.457429	-33.769213
892.723186	-33.954139
892.989100	-34.097032
893.255173	-33.525484
893.521405	-33.861852
893.787796	-33.910357
894.054345	-33.527947
894.321053	-33.643586
894.587921	-33.804211
894.854948	-33.451830
895.122134	-33.436431
895.389480	-33.468757
895.656986	-33.447510
895.924651	-33.204075
896.192477	-33.308501
896.460463	-33.454739
896.728609	-33.020361
896.996915	-33.106041
897.265382	-33.418382
897.534010	-32.937697
897.802799	-32.903015
898.071749	-33.301220
898.340860	-32.575807
898.610132	-32.938891
898.879566	-33.122504
899.149162	-32.620975
899.418919	-32.688371
899.688838	-32.908901
899.958919	-32.625317
900.229162	-32.620601
900.499568	-32.661933
900.770136	-32.483059
901.040867	-32.375656
901.311761	-32.602957
901.582817	-32.436789
901.854037	-32.246233
902.125420	-32.419820
902.396966	-32.439451
902.668676	-32.066192
902.940550	-32.247927
903.212587	-32.307234
903.484788	-31.854554
903.757153	-32.299815
904.029683	-32.101705
904.302377	-31.766122
904.575236	-32.065202
904.848259	-32.112657
905.121447	-31.753807
905.394800	-31.922175
905.668319	-31.824329
905.942002	-31.712829
906.215852	-31.724162
906.489866	-31.812178
906.764047	-31.488256
907.038393	-31.668642
907.312906	-31.689597
907.587584	-31.427292
907.862429	-31.466031
908.137441	-31.684885
908.412619	-31.296640
908.687964	-31.436568
908.963476	-31.431207
909.239155	-31.181531
909.515002	-31.419580
909.791015	-31.324595
910.067197	-31.086974
910.343546	-31.364631
910.620063	-31.187296
910.896748	-31.115129
911.173601	-31.171199
911.450623	-31.144973
911.727813	-30.998390
912.005171	-31.066982
912.282699	-30.964332
912.560395	-30.960095
912.838261	-30.952529
913.116296	-30.870356
913.394500	-30.870497
913.672874	-30.767519
913.951418	-30.791396
914.230131	-30.747647
914.509015	-30.701273
914.788068	-30.741659
915.067292	-30.668679
915.346687	-30.465128
915.626252	-30.614975
915.905988	-30.634555
916.185895	-30.506285
916.465973	-30.516688
916.746223	-30.529565
917.026644	-30.270976
917.307236	-30.486711
917.588000	-30.465920
917.868937	-30.223869
918.150045	-30.475131
918.431325	-30.228257
918.712778	-30.106611
918.994404	-30.358408
919.276202	-30.085314
919.558173	-30.123450
919.840317	-30.242809
920.122634	-30.016636
920.405125	-30.003726
920.687789	-30.202195
920.970627	-29.798654
921.253639	-30.077743
921.536824	-30.105227
921.820184	-29.797724
922.103718	-30.033277
922.387427	-30.025007
922.671310	-29.591170
922.955368	-30.064700
923.239601	-29.906180
923.524009	-29.610685
923.808592	-30.056962
924.093351	-29.717414
924.378285	-29.619526
924.663396	-29.898839
924.948682	-29.627944
925.234144	-29.587657
925.519782	-29.801201
925.805597	-29.478695
926.091589	-29.583716
926.377757	-29.652234
926.664102	-29.370706
926.950624	-29.462887
927.237323	-29.506873
927.524200	-29.217416
927.811255	-29.580429
928.098487	-29.326420
928.385897	-29.251604
928.673485	-29.429545
928.961251	-29.337833
929.249196	-29.030666
929.537319	-29.503565
929.825621	-29.076863
930.114102	-29.174215
930.402762	-29.326598
930.691601	-29.044785
930.980620	-29.224644
931.269818	-29.242126
931.559196	-28.899242
931.848753	-29.302831
932.138491	-28.926794
932.428409	-29.125009
932.718508	-28.980940
933.008787	-29.119981
933.299246	-28.801762
933.589887	-29.199383
933.880709	-28.876276
934.171712	-29.001430
934.462896	-28.872375
934.754262	-29.045741
935.045810	-28.837503
935.337539	-29.056535
935.629451	-28.843378
935.921545	-28.918709
936.213822	-29.093843
936.506281	-28.687647
936.798922	-29.164371
937.091747	-28.823955
937.384755	-28.958228
937.677946	-28.935063
937.971321	-28.940972
938.264879	-28.865330
938.558621	-29.031799
938.852547	-28.795098
939.146657	-28.948276
939.440952	-28.827618
939.735431	-29.010921
940.030095	-28.712636
940.324943	-28.904227
940.619977	-28.876594
940.915196	-28.769782
941.210600	-28.765993
941.506189	-28.936193
941.801965	-28.545272
942.097926	-29.000573
942.394074	-28.603304
942.690407	-28.803648
942.986927	-28.781862
943.283634	-28.626979
943.580527	-28.819218
943.877608	-28.687604
944.174875	-28.750621
944.472330	-28.590816
944.769972	-28.937475
945.067802	-28.456909
945.365820	-28.944032
945.664026	-28.492720
945.962420	-28.843570
946.261002	-28.532453
946.559773	-28.831285
946.858733	-28.484892
947.157881	-28.681585
947.457219	-28.693249
947.756746	-28.399142
948.056462	-28.793106
948.356368	-28.366536
948.656464	-28.582732
948.956749	-28.510524
949.257225	-28.524608
949.557891	-28.314081
949.858748	-28.717231
950.159796	-28.144190
950.461034	-28.722636
950.762463	-28.152024
951.064084	-28.548740
951.365896	-28.390003
951.667900	-28.290363
951.970095	-28.496902
952.272483	-28.239580
952.575063	-28.406562
952.877835	-28.399808
953.180799	-28.242452
953.483956	-28.393341
953.787307	-28.425601
954.090850	-28.067476
954.394586	-28.708912
954.698516	-27.920060
955.002640	-28.646026
955.306957	-28.110701
955.611469	-28.341841
955.916174	-28.284283
956.221074	-28.209013
956.526169	-28.292976
956.831458	-28.203005
957.136942	-28.261752
957.442622	-28.108770
957.748496	-28.374189
958.054567	-27.967895
958.360833	-28.436605
958.667294	-27.893832
958.973952	-28.471339
959.280806	-27.948297
959.587857	-28.301457
959.895104	-28.153048
960.202548	-28.062696
960.510189	-28.389013
960.818027	-27.998624
961.126062	-28.336761
961.434295	-28.085353
961.742726	-28.327075
962.051355	-28.074470
962.360182	-28.396098
962.669207	-27.971690
962.978431	-28.516631
963.287854	-27.990958
963.597475	-28.375340
963.907296	-28.197949
964.217315	-28.185244
964.527535	-28.353309
964.837954	-28.026678
965.148573	-28.421379
965.459392	-28.096114
965.770411	-28.195307
966.081630	-28.257445
966.393051	-28.042040
966.704672	-28.276257
967.016494	-28.025497
967.328517	-28.208904
967.640742	-28.031553
967.953169	-28.185444
968.265797	-27.914967
968.578627	-28.258805
968.891660	-27.824689
969.204895	-28.189199
969.518332	-27.899350
969.831972	-27.993370
970.145816	-28.067852
970.459862	-27.775997
970.774112	-28.147957
971.088565	-27.722073
971.403223	-28.028221
971.718084	-27.820149
972.033149	-27.856439
972.348419	-27.904816
972.663893	-27.724372
972.979572	-27.890129
973.295456	-27.693322
973.611546	-27.848200
973.927840	-27.619002
974.244340	-27.839805
974.561046	-27.522290
974.877958	-27.799512
975.195076	-27.563647
975.512401	-27.572637
975.829932	-27.732187
976.147670	-27.307215
976.465615	-27.838784
976.783767	-27.180363
977.102126	-27.751197
977.420693	-27.247122
977.739468	-27.501575
978.058451	-27.404048
978.377642	-27.238105
978.697041	-27.517889
979.016649	-27.067384
979.336466	-27.488647
979.656492	-27.071320
979.976727	-27.265652
980.297171	-27.231713
980.617825	-27.006787
980.938689	-27.322614
981.259763	-26.877204
981.581048	-27.248875
981.902542	-26.941044
982.224248	-27.008291
982.546164	-27.128267
982.868291	-26.694552
983.190630	-27.310929
983.513180	-26.524569
983.835942	-27.304264
984.158916	-26.551526
984.482101	-27.055404
984.805500	-26.757669
985.129110	-26.772827
985.452934	-26.931574
985.776970	-26.567788
986.101220	-26.969831
986.425683	-26.537215
986.750359	-26.844448
987.075250	-26.627349
987.400354	-26.646908
987.725673	-26.728314
988.051206	-26.462478
988.376954	-26.777258
988.702916	-26.376543
989.029094	-26.687955
989.355487	-26.373721
989.682095	-26.528622
990.008919	-26.395355
990.335959	-26.422177
990.663216	-26.330275
990.990688	-26.379804
991.318377	-26.183865
991.646283	-26.408140
991.974406	-25.954550
992.302746	-26.448510
992.631304	-25.842863
992.960079	-26.328163
993.289072	-25.835139
993.618283	-26.080086
993.947713	-25.936312
994.277361	-25.826780
994.607227	-25.959181
994.937313	-25.721186
995.267618	-25.790680
995.598142	-25.758570
995.928886	-25.576244
996.259849	-25.787826
996.591033	-25.443352
996.922437	-25.687291
997.254061	-25.446280
997.585906	-25.470246
997.917972	-25.532610
998.250260	-25.242103
998.582768	-25.568617
998.915498	-25.114672
999.248450	-25.462614
999.581624	-25.129959
999.915020	-25.230599
1000.248639	-25.205052
1000.582480	-25.035137
1000.916545	-25.181782
1001.250832	-24.962576
1001.585343	-25.009643
1001.920077	-25.008689
1002.255035	-24.803537
1002.590218	-25.006278
1002.925624	-24.699629
1003.261255	-24.863900
1003.597111	-24.722201
1003.933192	-24.631535
1004.269497	-24.793335
1004.606029	-24.422417
1004.942785	-24.786953
1005.279768	-24.312845
1005.616977	-24.683933
1005.954412	-24.296209
1006.292074	-24.510042
1006.629962	-24.319015
1006.968077	-24.376091
1007.306420	-24.283400
1007.644990	-24.286949
1007.983787	-24.220195
1008.322813	-24.239273
1008.662067	-24.151140
1009.001549	-24.164515
1009.341259	-24.142829
1009.681199	-24.028832
1010.021367	-24.164595
1010.361765	-23.909057
1010.702392	-24.145817
1011.043250	-23.848366
1011.384337	-24.068349
1011.725654	-23.845846
1012.067202	-23.917853
1012.408980	-23.870387
1012.750989	-23.795466
1013.093230	-23.841206
1013.435702	-23.729043
1013.778405	-23.749883
1014.121341	-23.711549
1014.464508	-23.620614
1014.807908	-23.675641
1015.151540	-23.534056
1015.495405	-23.599958
1015.839503	-23.494519
1016.183835	-23.462609
1016.528400	-23.482675
1016.873198	-23.340300
1017.218231	-23.407218
1017.563498	-23.286470
1017.908999	-23.275631
1018.254735	-23.280746
1018.600707	-23.126180
1018.946913	-23.245884
1019.293354	-23.040847
1019.640032	-23.106445
1019.986945	-23.045591
1020.334094	-22.935522
1020.681480	-23.024535
1021.029102	-22.842234
1021.376961	-22.893210
1021.725058	-22.846378
1022.073391	-22.684805
1022.421962	-22.856064
1022.770772	-22.565711
1023.119819	-22.723747
1023.469104	-22.588641
1023.818628	-22.529206
1024.168391	-22.581530
1024.518393	-22.431490
1024.868634	-22.423721
1025.219115	-22.496304
1025.569836	-22.185781
1025.920796	-22.517256
1026.271997	-22.128079
1026.623438	-22.327926
1026.975121	-22.235082
1027.327044	-22.081798
1027.679208	-22.297268
1028.031614	-21.994947
1028.384262	-22.153531
1028.737152	-22.077297
1029.090284	-21.990234
1029.443659	-22.061925
1029.797276	-21.996970
1030.151137	-21.905155
1030.505240	-22.068875
1030.859587	-21.793093
1031.214178	-22.007940
1031.569013	-21.836193
1031.924093	-21.826660
1032.279417	-21.933496
1032.634985	-21.711601
1032.990799	-21.884360
1033.346858	-21.718885
1033.703162	-21.766429
1034.059712	-21.729971
1034.416509	-21.696421
1034.773551	-21.683029
1035.130841	-21.681755
1035.488377	-21.596724
1035.846160	-21.675518
1036.204190	-21.530462
1036.562468	-21.627884
1036.920994	-21.521444
1037.279768	-21.530065
1037.638790	-21.542600
1037.998061	-21.399897
1038.357581	-21.572216
1038.717350	-21.319720
1039.077368	-21.484887
1039.437636	-21.360156
1039.798154	-21.320282
1040.158922	-21.390011
1040.519940	-21.245509
1040.881209	-21.281187
1041.242729	-21.275459
1041.604501	-21.151169
1041.966524	-21.225738
1042.328798	-21.157065
1042.691325	-21.048576
1043.054103	-21.199422
1043.417135	-20.960640
1043.780419	-21.052833
1044.143956	-21.041452
1044.507746	-20.843036
1044.871791	-21.049750
1045.236088	-20.810085
1045.600641	-20.862208
1045.965447	-20.891849
1046.330508	-20.683694
1046.695824	-20.874226
1047.061395	-20.662325
1047.427222	-20.712637
1047.793304	-20.692840
1048.159642	-20.603897
1048.526237	-20.632499
1048.893088	-20.585851
1049.260196	-20.537700
1049.627561	-20.549939
1049.995183	-20.468553
1050.363063	-20.512905
1050.731201	-20.399469
1051.099597	-20.459251
1051.468251	-20.372867
1051.837164	-20.367153
1052.206336	-20.370875
1052.575767	-20.304475
1052.945458	-20.299164
1053.315409	-20.319458
1053.685619	-20.206123
1054.056090	-20.283932
1054.426821	-20.237357
1054.797814	-20.140768
1055.169067	-20.273030
1055.540582	-20.117169
1055.912359	-20.144441
1056.284398	-20.209476
1056.656698	-20.030122
1057.029262	-20.161964
1057.402088	-20.098285
1057.775177	-19.994706
1058.148530	-20.160376
1058.522146	-19.964395
1058.896027	-20.057244
1059.270171	-20.016104
1059.644580	-19.973575
1060.019254	-20.005107
1060.394193	-19.945183
1060.769397	-19.972436
1061.144867	-19.919561
1061.520602	-19.917446
1061.896604	-19.940314
1062.272872	-19.818467
1062.649407	-19.942448
1063.026210	-19.810666
1063.403279	-19.810720
1063.780616	-19.877357
1064.158221	-19.725231
1064.536094	-19.778303
1064.914235	-19.792323
1065.292645	-19.646025
1065.671325	-19.769544
1066.050273	-19.641569
1066.429491	-19.638112
1066.808979	-19.654347
1067.188738	-19.597818
1067.568766	-19.557565
1067.949066	-19.577091
1068.329636	-19.506705
1068.710478	-19.507095
1069.091592	-19.474068
1069.472977	-19.454355
1069.854635	-19.385868
1070.236565	-19.422715
1070.618768	-19.362201
1071.001243	-19.296064
1071.383993	-19.343795
1071.767016	-19.272256
1072.150313	-19.215453
1072.533884	-19.289153
1072.917730	-19.153055
1073.301850	-19.187674
1073.686246	-19.189050
1074.070917	-19.110542
1074.455864	-19.115580
1074.841087	-19.139380
1075.226586	-19.046773
1075.612362	-19.078935
1075.998415	-19.073215
1076.384745	-19.021692
1076.771353	-19.007479
1077.158238	-19.042383
1077.545401	-18.969326
1077.932843	-18.963984
1078.320564	-18.999494
1078.708564	-18.922358
1079.096842	-18.914516
1079.485401	-18.969189
1079.874240	-18.869428
1080.263358	-18.887242
1080.652757	-18.919470
1081.042438	-18.844603
1081.432399	-18.849313
1081.822641	-18.884141
1082.213166	-18.811438
1082.603972	-18.813306
1082.995061	-18.840398
1083.386433	-18.772502
1083.778087	-18.766097
1084.170025	-18.774743
1084.562246	-18.725310
1084.954751	-18.677935
1085.347541	-18.707003
1085.740615	-18.636281
1086.133973	-18.580230
1086.527617	-18.608576
1086.921546	-18.532208
1087.315761	-18.462606
1087.710262	-18.501384
1088.105050	-18.407998
1088.500124	-18.365280
1088.895485	-18.353293
1089.291134	-18.325816
1089.687070	-18.230226
1090.083294	-18.249617
1090.479806	-18.212347
1090.876607	-18.127728
1091.273696	-18.128541
1091.671075	-18.116547
1092.068744	-18.017148
1092.466702	-18.019075
1092.864950	-18.007677
1093.263489	-17.916948
1093.662319	-17.902323
1094.061440	-17.905595
1094.460852	-17.818119
1094.860555	-17.795290
1095.260551	-17.805094
1095.660840	-17.738890
1096.061421	-17.708308
1096.462295	-17.723606
1096.863462	-17.690435
1097.264923	-17.645605
1097.666678	-17.684515
1098.068727	-17.663437
1098.471071	-17.641795
1098.873710	-17.658658
1099.276644	-17.691267
1099.679874	-17.647662
1100.083400	-17.683040
1100.487222	-17.721352
1100.891340	-17.685518
1101.295756	-17.706859
1101.700468	-17.754228
1102.105478	-17.717572
1102.510787	-17.728665
1102.916393	-17.754179
1103.322298	-17.743141
1103.728502	-17.710649
1104.135005	-17.741789
1104.541807	-17.725505
1104.948909	-17.682117
1105.356312	-17.699682
1105.764015	-17.684694
1106.172019	-17.645218
1106.580324	-17.639298
1106.988931	-17.646898
1107.397840	-17.600900
1107.807051	-17.591669
1108.216564	-17.598900
1108.626380	-17.580614
1109.036500	-17.539339
1109.446923	-17.570509
1109.857649	-17.546377
1110.268680	-17.506528
1110.680016	-17.521101
1111.091657	-17.506061
1111.503602	-17.456953
1111.915854	-17.443749
1112.328411	-17.435483
1112.741275	-17.366104
1113.154445	-17.334362
1113.567922	-17.302520
1113.981706	-17.249748
1114.395798	-17.168156
1114.810198	-17.137713
1115.224906	-17.082321
1115.639923	-16.990936
1116.055249	-16.940413
1116.470884	-16.905211
1116.886829	-16.814929
1117.303084	-16.753920
1117.719650	-16.735176
1118.136526	-16.668905
1118.553713	-16.611225
1118.971212	-16.589304
1119.389022	-16.575789
1119.807145	-16.511580
1120.225580	-16.502701
1120.644328	-16.506377
1121.063389	-16.481067
1121.482763	-16.450416
1121.902452	-16.475144
1122.322454	-16.471166
1122.742771	-16.441815
1123.163404	-16.450089
1123.584351	-16.466016
1124.005614	-16.447718
1124.427193	-16.419374
1124.849089	-16.445291
1125.271301	-16.430233
1125.693830	-16.392863
1126.116677	-16.384641
1126.539842	-16.393868
1126.963324	-16.344041
1127.387126	-16.314502
1127.811246	-16.319684
1128.235685	-16.287673
1128.660444	-16.241295
1129.085522	-16.235345
1129.510922	-16.223175
1129.936641	-16.180353
1130.362682	-16.166542
1130.789044	-16.152499
1131.215728	-16.151419
1131.642734	-16.113675
1132.070063	-16.107460
1132.497714	-16.129848
1132.925689	-16.095977
1133.353987	-16.086923
1133.782610	-16.113389
1134.211556	-16.102880
1134.640827	-16.087246
1135.070424	-16.098667
1135.500345	-16.107401
1135.930593	-16.097795
1136.361166	-16.080438
1136.792067	-16.095300
1137.223294	-16.085993
1137.654848	-16.064770
1138.086730	-16.048253
1138.518940	-16.042888
1138.951479	-16.025076
1139.384346	-15.976795
1139.817543	-15.969155
1140.251069	-15.944742
1140.684925	-15.891238
1141.119111	-15.866681
1141.553628	-15.837079
1141.988475	-15.793187
1142.423655	-15.751211
1142.859166	-15.713791
1143.295009	-15.689190
1143.731185	-15.640129
1144.167694	-15.600258
1144.604536	-15.578211
1145.041711	-15.547996
1145.479221	-15.511652
1145.917065	-15.479396
1146.355245	-15.476546
1146.793759	-15.440406
1147.232609	-15.419776
1147.671795	-15.418663
1148.111317	-15.398188
1148.551177	-15.390548
1148.991373	-15.376969
1149.431907	-15.386553
1149.872779	-15.377208
1150.313989	-15.362425
1150.755538	-15.376691
1151.197426	-15.380402
1151.639653	-15.375708
1152.082220	-15.363682
1152.525128	-15.378720
1152.968376	-15.389255
1153.411966	-15.364607
1153.855897	-15.368776
1154.300169	-15.374217
1154.744784	-15.365225
1155.189742	-15.351207
1155.635042	-15.336644
1156.080687	-15.344360
1156.526674	-15.316151
1156.973007	-15.288161
1157.419683	-15.278903
1157.866705	-15.266534
1158.314072	-15.231687
1158.761786	-15.184026
1159.209845	-15.182733
1159.658251	-15.154548
1160.107004	-15.107275
1160.556104	-15.063359
1161.005553	-15.041694
1161.455349	-15.028045
1161.905494	-14.962391
1162.355989	-14.921729
1162.806832	-14.903984
1163.258026	-14.884968
1163.709570	-14.830251
1164.161464	-14.786446
1164.613710	-14.778505
1165.066307	-14.755426
1165.519256	-14.723342
1165.972558	-14.678896
1166.426212	-14.676657
1166.880219	-14.664809
1167.334580	-14.636927
1167.789295	-14.620536
1168.244364	-14.610612
1168.699788	-14.610005
1169.155567	-14.586505
1169.611702	-14.591143
1170.068193	-14.585050
1170.525041	-14.577761
1170.982245	-14.572667
1171.439807	-14.572105
1171.897726	-14.585396
1172.356004	-14.562695
1172.814640	-14.562800
1173.273635	-14.571581
1173.732989	-14.579133
1174.192703	-14.555250
1174.652778	-14.540904
1175.113213	-14.564247
1175.574009	-14.560727
1176.035167	-14.540565
1176.496687	-14.505001
1176.958569	-14.526296
1177.420814	-14.535273
1177.883422	-14.497783
1178.346394	-14.467959
1178.809730	-14.470141
1179.273430	-14.481590
1179.737496	-14.443190
1180.201927	-14.416910
1180.666723	-14.409466
1181.131886	-14.417504
1181.597416	-14.376350
1182.063312	-14.344138
1182.529576	-14.357503
1182.996209	-14.347880
1183.463209	-14.308920
1183.930579	-14.266996
1184.398317	-14.286682
1184.866426	-14.292606
1185.334904	-14.243408
1185.803754	-14.184740
1186.272974	-14.204221
1186.742566	-14.227867
1187.212529	-14.178660
1187.682865	-14.113671
1188.153574	-14.104016
1188.624656	-14.143497
1189.096112	-14.108478
1189.567942	-14.041092
1190.040147	-14.014624
1190.512726	-14.039648
1190.985681	-14.018685
1191.459012	-13.960908
1191.932720	-13.933609
1192.406804	-13.943255
1192.881265	-13.922254
1193.356104	-13.864436
1193.831322	-13.850407
1194.306918	-13.861828
1194.782893	-13.845595
1195.259248	-13.775152
1195.735982	-13.757389
1196.213097	-13.785336
1196.690593	-13.790726
1197.168471	-13.725095
1197.646730	-13.679355
1198.125371	-13.701899
1198.604395	-13.738170
1199.083803	-13.711153
1199.563594	-13.645462
1200.043769	-13.636948
1200.524329	-13.664475
1201.005273	-13.695241
1201.486604	-13.656608
1201.968320	-13.612290
1202.450422	-13.598572
1202.932912	-13.640429
1203.415789	-13.663842
1203.899054	-13.631555
1204.382707	-13.570445
1204.866748	-13.568179
1205.351179	-13.627298
1205.836000	-13.646246
1206.321211	-13.584980
1206.806812	-13.522692
1207.292805	-13.556280
1207.779189	-13.616824
1208.265965	-13.602624
1208.753134	-13.514806
1209.240696	-13.495794
1209.728651	-13.546254
1210.217000	-13.583225
1210.705744	-13.519260
1211.194883	-13.462463
1211.684417	-13.470310
1212.174347	-13.522073
1212.664673	-13.501047
1213.155396	-13.442024
1213.646516	-13.410868
1214.138034	-13.440292
1214.629951	-13.449221
1215.122266	-13.410428
1215.614980	-13.363166
1216.108095	-13.359296
1216.601609	-13.372645
1217.095524	-13.354466
1217.589841	-13.313129
1218.084559	-13.284194
1218.579679	-13.287269
1219.075202	-13.276762
1219.571128	-13.250653
1220.067458	-13.211130
1220.564191	-13.203759
1221.061330	-13.187646
1221.558874	-13.175261
1222.056823	-13.136146
1222.555178	-13.122502
1223.053940	-13.100141
1223.553109	-13.092611
1224.052686	-13.058751
1224.552671	-13.044418
1225.053065	-13.019515
1225.553867	-13.011742
1226.055079	-12.982566
1226.556702	-12.969880
1227.058735	-12.945052
1227.561179	-12.940210
1228.064035	-12.912391
1228.567303	-12.901641
1229.070983	-12.877953
1229.575077	-12.876041
1230.079585	-12.854952
1230.584506	-12.842734
1231.089842	-12.820673
1231.595594	-12.820158
1232.101761	-12.805343
1232.608345	-12.800568
1233.115345	-12.773936
1233.622762	-12.773458
1234.130597	-12.763955
1234.638851	-12.768116
1235.147523	-12.743474
1235.656615	-12.738894
1236.166126	-12.728064
1236.676058	-12.740768
1237.186411	-12.724230
1237.697185	-12.718242
1238.208381	-12.699257
1238.719999	-12.714770
1239.232040	-12.707525
1239.744505	-12.706065
1240.257394	-12.681263
1240.770708	-12.689289
1241.284446	-12.686141
1241.798610	-12.694195
1242.313201	-12.669187
1242.828218	-12.665932
1243.343662	-12.660872
1243.859534	-12.672036
1244.375834	-12.655837
1244.892563	-12.645360
1245.409721	-12.631745
1245.927309	-12.640236
1246.445327	-12.632803
1246.963777	-12.622458
1247.482657	-12.601966
1248.001970	-12.602127
1248.521716	-12.598797
1249.041894	-12.591571
1249.562506	-12.573493
1250.083553	-12.560759
1250.605034	-12.559180
1251.126950	-12.552426
1251.649302	-12.541400
1252.172091	-12.522451
1252.695316	-12.516462
1253.218979	-12.508913
1253.743079	-12.505701
1254.267619	-12.484216
1254.792597	-12.476804
1255.318015	-12.463940
1255.843874	-12.465524
1256.370173	-12.447542
1256.896913	-12.438934
1257.424095	-12.420573
1257.951720	-12.422213
1258.479787	-12.409358
1259.008298	-12.400579
1259.537254	-12.380430
1260.066654	-12.376876
1260.596499	-12.366902
1261.126790	-12.361042
1261.657527	-12.341547
1262.188711	-12.330715
1262.720342	-12.322578
1263.252422	-12.315577
1263.784950	-12.302915
1264.317928	-12.284461
1264.851355	-12.277553
1265.385232	-12.267237
1265.919560	-12.261656
1266.454340	-12.241239
1266.989572	-12.233045
1267.525256	-12.219869
1268.061394	-12.219052
1268.597985	-12.201567
1269.135031	-12.191671
1269.672531	-12.177789
1270.210487	-12.176151
1270.748899	-12.167104
1271.287768	-12.155047
1271.827094	-12.144481
1272.366877	-12.136345
1272.907119	-12.136906
1273.447820	-12.125371
1273.988981	-12.118239
1274.530601	-12.104921
1275.072683	-12.108134
1275.615226	-12.101511
1276.158230	-12.096373
1276.701697	-12.084675
1277.245627	-12.079596
1277.790021	-12.081155
1278.334879	-12.075231
1278.880202	-12.070202
1279.425991	-12.055119
1279.972245	-12.059992
1280.518966	-12.053016
1281.066155	-12.054232
1281.613811	-12.038058
1282.161936	-12.033614
1282.710529	-12.031010
1283.259593	-12.029918
1283.809126	-12.024640
1284.359131	-12.007248
1284.909607	-12.008088
1285.460555	-11.998961
1286.011976	-12.005254
1286.563870	-11.987772
1287.116237	-11.980760
1287.669080	-11.972919
1288.222397	-11.972905
1288.776191	-11.971507
1289.330460	-11.955816
1289.885207	-11.950499
1290.440431	-11.939757
1290.996133	-11.948284
1291.552314	-11.936198
1292.108975	-11.930408
1292.666115	-11.917550
1293.223737	-11.915872
1293.781839	-11.920302
1294.340424	-11.909305
1294.899491	-11.905671
1295.459041	-11.889078
1296.019075	-11.897507
1296.579593	-11.891807
1297.140597	-11.891845
1297.702086	-11.877699
1298.264061	-11.871223
1298.826524	-11.874947
1299.389474	-11.870200
1299.952912	-11.872853
1300.516839	-11.852246
1301.081255	-11.855595
1301.646162	-11.848607
1302.211559	-11.854324
1302.777448	-11.845962
1303.343829	-11.833381
1303.910702	-11.832404
1304.478069	-11.826291
1305.045930	-11.834181
1305.614285	-11.819107
1306.183136	-11.814964
1306.752483	-11.805625
1307.322326	-11.807500
1307.892666	-11.809288
1308.463504	-11.797372
1309.034841	-11.794183
1309.606677	-11.783023
1310.179012	-11.790698
1310.751849	-11.787329
1311.325186	-11.781430
1311.899025	-11.776330
1312.473366	-11.768335
1313.048211	-11.778898
1313.623559	-11.772962
1314.199412	-11.773853
1314.775770	-11.765487
1315.352634	-11.763433
1315.930004	-11.774131
1316.507881	-11.768196
1317.086266	-11.774448
1317.665159	-11.761663
1318.244562	-11.768659
1318.824474	-11.773901
1319.404897	-11.772558
1319.985831	-11.779970
1320.567276	-11.764121
1321.149234	-11.778861
1321.731706	-11.776955
1322.314691	-11.782679
1322.898190	-11.785238
1323.482205	-11.772688
1324.066736	-11.788633
1324.651783	-11.781809
1325.237347	-11.794697
1325.823430	-11.789545
1326.410031	-11.783639
1326.997151	-11.796907
1327.584791	-11.789348
1328.172952	-11.805069
1328.761634	-11.796156
1329.350839	-11.796014
1329.940566	-11.804400
1330.530817	-11.799868
1331.121592	-11.815079
1331.712891	-11.805100
1332.304716	-11.808293
1332.897068	-11.812721
1333.489946	-11.809858
1334.083352	-11.824450
1334.677287	-11.814629
1335.271750	-11.817570
1335.866744	-11.820949
1336.462268	-11.818701
1337.058323	-11.833182
1337.654910	-11.822974
1338.252029	-11.824802
1338.849682	-11.829612
1339.447869	-11.826435
1340.046591	-11.841718
1340.645848	-11.829916
1341.245641	-11.832225
1341.845972	-11.840172
1342.446840	-11.834078
1343.048246	-11.850832
1343.650191	-11.839151
1344.252677	-11.842792
1344.855702	-11.851457
1345.459269	-11.842591
1346.063379	-11.862676
1346.668030	-11.850964
1347.273226	-11.853469
1347.878965	-11.864384
1348.485250	-11.854987
1349.092080	-11.875559
1349.699456	-11.864241
1350.307380	-11.865699
1350.915851	-11.879537
1351.524871	-11.867913
1352.134441	-11.887696
1352.744560	-11.880721
1353.355231	-11.877372
1353.966453	-11.894062
1354.578227	-11.883242
1355.190555	-11.899222
1355.803436	-11.897800
1356.416872	-11.889239
1357.030863	-11.907690
1357.645411	-11.900040
1358.260515	-11.908167
1358.876177	-11.915362
1359.492397	-11.902050
1360.109176	-11.918434
1360.726516	-11.918093
1361.344416	-11.916879
1361.962877	-11.929856
1362.581901	-11.917252
1363.201487	-11.927359
1363.821637	-11.935674
1364.442352	-11.929546
1365.063632	-11.942267
1365.685478	-11.936715
1366.307891	-11.939923
1366.930871	-11.953398
1367.554420	-11.949137
1368.178538	-11.957429
1368.803226	-11.958853
1369.428485	-11.960527
1370.054315	-11.973618
1370.680717	-11.974368
1371.307693	-11.981970
1371.935242	-11.984275
1372.563366	-11.990499
1373.192065	-12.003573
1373.821341	-12.004528
1374.451193	-12.017675
1375.081623	-12.019781
1375.712632	-12.025584
1376.344221	-12.046908
1376.976389	-12.044353
1377.609139	-12.058701
1378.242470	-12.072457
1378.876384	-12.068488
1379.510881	-12.097950
1380.145963	-12.104381
1380.781629	-12.104115
1381.417881	-12.136046
1382.054720	-12.132831
1382.692147	-12.148300
1383.330161	-12.179975
1383.968765	-12.168586
1384.607959	-12.192525
1385.247743	-12.218354
1385.888119	-12.210406
1386.529087	-12.244491
1387.170648	-12.260936
1387.812804	-12.251506
1388.455554	-12.295167
1389.098899	-12.306701
1389.742842	-12.302577
1390.387381	-12.350225
1391.032519	-12.348396
1391.678256	-12.354129
1392.324592	-12.408579
1392.971529	-12.396720
1393.619068	-12.411436
1394.267208	-12.460915
1394.915952	-12.442532
1395.565300	-12.474283
1396.215253	-12.515268
1396.865812	-12.491102
1397.516977	-12.531423
1398.168749	-12.562604
1398.821130	-12.546468
1399.474120	-12.591646
1400.127719	-12.611845
1400.781930	-12.600257
1401.436752	-12.647688
1402.092186	-12.668874
1402.748234	-12.659885
1403.404897	-12.705020
1404.062174	-12.722818
1404.720067	-12.717269
1405.378577	-12.767772
1406.037705	-12.783527
1406.697451	-12.775723
1407.357817	-12.829775
1408.018803	-12.840898
1408.680410	-12.842759
1409.342639	-12.894632
1410.005492	-12.897992
1410.668968	-12.906904
1411.333068	-12.954282
1411.997795	-12.960633
1412.663147	-12.975857
1413.329127	-13.012226
1413.995736	-13.024892
1414.662973	-13.043800
1415.330840	-13.078424
1415.999339	-13.095536
1416.668469	-13.110031
1417.338232	-13.144981
1418.008628	-13.162543
1418.679659	-13.181926
1419.351325	-13.215021
1420.023628	-13.227619
1420.696568	-13.256657
1421.370145	-13.287211
1422.044362	-13.302301
1422.719219	-13.339886
1423.394717	-13.358138
1424.070856	-13.381146
1424.747638	-13.418789
1425.425064	-13.434161
1426.103134	-13.457329
1426.781850	-13.490222
1427.461212	-13.509534
1428.141221	-13.531271
1428.821878	-13.569006
1429.503185	-13.590986
1430.185141	-13.605782
1430.867749	-13.655771
1431.551008	-13.672922
1432.234920	-13.688912
1432.919486	-13.735099
1433.604707	-13.746761
1434.290583	-13.763157
1434.977116	-13.802465
1435.664307	-13.819614
1436.352156	-13.828553
1437.040664	-13.869132
1437.729833	-13.898284
1438.419663	-13.903783
1439.110156	-13.954740
1439.801312	-13.980773
1440.493132	-13.991517
1441.185617	-14.036207
1441.878768	-14.064362
1442.572586	-14.066881
1443.267072	-14.096767
1443.962228	-14.127640
1444.658053	-14.120518
1445.354549	-14.151544
1446.051717	-14.180526
1446.749558	-14.183662
1447.448073	-14.214728
1448.147263	-14.260596
1448.847128	-14.273673
1449.547671	-14.304597
1450.248891	-14.355287
1450.950789	-14.369964
1451.653368	-14.391051
1452.356627	-14.428555
1453.060568	-14.433742
1453.765192	-14.433884
1454.470500	-14.459773
1455.176492	-14.461363
1455.883170	-14.456489
1456.590534	-14.480638
1457.298586	-14.499818
1458.007327	-14.509505
1458.716758	-14.548010
1459.426880	-14.588841
1460.137693	-14.611747
1460.849199	-14.654881
1461.561398	-14.699934
1462.274293	-14.715048
1462.987883	-14.732797
1463.702170	-14.752951
1464.417155	-14.741265
1465.132838	-14.722687
1465.849222	-14.713913
1466.566306	-14.683845
1467.284093	-14.650426
1468.002582	-14.642299
1468.721775	-14.630489
1469.441674	-14.618678
1470.162278	-14.638740
1470.883590	-14.671199
1471.605609	-14.698534
1472.328338	-14.749277
1473.051777	-14.810570
1473.775928	-14.855101
1474.500790	-14.901189
1475.226367	-14.948585
1475.952657	-14.964298
1476.679663	-14.961889
1477.407386	-14.957420
1478.135826	-14.926648
1478.864985	-14.875082
1479.594863	-14.831464
1480.325463	-14.786089
1481.056784	-14.735754
1481.788828	-14.709624
1482.521597	-14.706851
1483.255090	-14.715705
1483.989309	-14.756661
1484.724256	-14.838474
1485.459931	-14.937926
1486.196336	-15.060232
1486.933471	-15.219879
1487.671337	-15.391835
1488.409937	-15.557433
1489.149270	-15.728677
1489.889337	-15.882995
1490.630141	-15.986343
1491.371682	-16.045794
1492.113961	-16.056084
1492.856979	-15.984983
1493.600738	-15.849391
1494.345238	-15.677327
1495.090481	-15.457125
1495.836467	-15.201603
1496.583198	-14.951993
1497.330675	-14.709908
1498.078899	-14.469754
1498.827872	-14.258639
1499.577593	-14.084271
1500.328065	-13.927785
1501.079289	-13.797751
1501.831265	-13.707575
1502.583995	-13.637238
1503.337480	-13.575855
1504.091721	-13.539097
1504.846719	-13.517614
1505.602475	-13.485605
1506.358991	-13.447734
1507.116268	-13.406387
1507.874306	-13.333114
1508.633108	-13.215277
1509.392673	-13.061912
1510.153004	-12.856957
1510.914101	-12.584268
1511.675965	-12.261622
1512.438599	-11.901056
1513.202002	-11.496250
1513.966176	-11.065978
1514.731122	-10.640346
1515.496842	-10.224167
1516.263336	-9.820853
1517.030607	-9.455019
1517.798654	-9.140691
1518.567479	-8.872646
1519.337083	-8.658051
1520.107468	-8.515326
1520.878634	-8.445623
1521.650584	-8.443755
1522.423317	-8.523232
1523.196836	-8.698924
1523.971141	-8.968628
1524.746233	-9.336453
1525.522115	-9.828022
1526.298786	-10.463355
1527.076249	-11.251292
1527.854504	-12.226315
1528.633553	-13.457562
1529.413397	-15.021105
1530.194037	-17.028172
1530.975474	-19.725716
1531.757709	-23.546772
1532.540745	-27.911000
1533.324581	-26.000974
1534.109220	-21.409789
1534.894662	-18.021290
1535.680909	-15.552876
1536.467961	-13.656411
1537.255821	-12.129213
1538.044489	-10.878676
1538.833967	-9.854064
1539.624256	-9.002721
1540.415357	-8.285351
1541.207271	-7.690818
1542.000000	-7.211677
1542.793545	-6.827572
1543.587907	-6.524013
1544.383087	-6.303033
1545.179088	-6.162847
1545.975909	-6.089517
1546.773552	-6.076434
1547.572019	-6.129058
1548.371311	-6.244777
1549.171428	-6.410436
1549.972373	-6.623683
1550.774147	-6.891243
1551.576751	-7.207469
1552.380185	-7.558986
1553.184453	-7.948059
1553.989554	-8.382707
1554.795490	-8.853591
1555.602263	-9.348709
1556.409873	-9.877405
1557.218322	-10.448787
1558.027612	-11.048341
1558.837743	-11.666722
1559.648717	-12.320270
1560.460536	-13.012107
1561.273200	-13.714068
1562.086710	-14.415546
1562.901069	-15.130276
1563.716278	-15.833667
1564.532337	-16.470370
1565.349249	-17.027938
1566.167014	-17.506270
1566.985634	-17.852394
1567.805111	-18.034674
1568.625444	-18.094980
1569.446637	-18.053774
1570.268690	-17.896066
1571.091605	-17.658143
1571.915382	-17.397252
1572.740024	-17.113597
1573.565532	-16.796170
1574.391907	-16.477568
1575.219150	-16.182241
1576.047262	-15.889555
1576.876246	-15.589498
1577.706103	-15.307780
1578.536833	-15.052835
1579.368439	-14.801860
1580.200922	-14.551628
1581.034282	-14.325159
1581.868522	-14.124058
1582.703643	-13.928767
1583.539646	-13.742226
1584.376532	-13.584564
1585.214304	-13.452824
1586.052962	-13.330080
1586.892508	-13.223519
1587.732943	-13.149477
1588.574269	-13.099931
1589.416487	-13.060715
1590.259599	-13.041875
1591.103605	-13.054974
1591.948508	-13.088396
1592.794309	-13.131163
1593.641009	-13.194942
1594.488609	-13.286740
1595.337112	-13.391961
1596.186518	-13.503383
1597.036829	-13.633038
1597.888047	-13.783341
1598.740172	-13.938379
1599.593207	-14.094533
1600.447153	-14.263592
1601.302010	-14.443573
1602.157782	-14.618343
1603.014469	-14.787341
1603.872072	-14.961378
1604.730593	-15.134463
1605.590034	-15.291357
1606.450397	-15.435578
1607.311681	-15.577579
1608.173890	-15.708964
1609.037024	-15.818052
1609.901085	-15.913626
1610.766075	-16.005460
1611.631995	-16.083504
1612.498846	-16.140624
1613.366630	-16.190099
1614.235349	-16.239590
1615.105004	-16.277300
1615.975596	-16.300419
1616.847128	-16.324371
1617.719600	-16.352385
1618.593014	-16.370907
1619.467372	-16.381053
1620.342675	-16.398207
1621.218924	-16.420160
1622.096122	-16.433397
1622.974270	-16.442043
1623.853369	-16.458875
1624.733420	-16.476948
1625.614427	-16.483514
1626.496389	-16.484635
1627.379308	-16.489100
1628.263187	-16.486929
1629.148026	-16.468153
1630.033828	-16.441485
1630.920593	-16.412870
1631.808324	-16.371934
1632.697022	-16.313062
1633.586688	-16.246788
1634.477324	-16.177486
1635.368932	-16.095735
1636.261514	-16.000219
1637.155070	-15.902829
1638.049602	-15.806975
1638.945113	-15.704595
1639.841603	-15.596980
1640.739075	-15.494945
1641.637529	-15.399413
1642.536968	-15.302705
1643.437393	-15.206078
1644.338806	-15.117791
1645.241209	-15.036243
1646.144602	-14.954105
1647.048988	-14.872773
1647.954368	-14.797960
1648.860744	-14.726397
1649.768118	-14.651654
1650.676491	-14.575946
1651.585865	-14.503653
1652.496241	-14.431287
1653.407621	-14.354360
1654.320008	-14.277149
1655.233401	-14.204280
1656.147804	-14.132489
1657.063218	-14.059027
1657.979645	-13.988851
1658.897085	-13.925733
1659.815542	-13.865145
1660.735016	-13.804233
1661.655509	-13.747714
1662.577023	-13.698111
1663.499560	-13.650212
1664.423121	-13.601229
1665.347709	-13.555741
1666.273324	-13.515373
1667.199969	-13.474825
1668.127645	-13.431979
1669.056353	-13.391701
1669.986097	-13.355298
1670.916877	-13.318066
1671.848695	-13.279214
1672.781553	-13.243966
1673.715452	-13.213387
1674.650395	-13.182718
1675.586383	-13.151751
1676.523418	-13.125056
1677.461501	-13.102845
1678.400635	-13.079933
1679.340821	-13.056222
1680.282061	-13.035915
1681.224357	-13.018734
1682.167710	-12.999726
1683.112122	-12.979224
1684.057595	-12.961840
1685.004132	-12.947345
1685.951732	-12.931222
1686.900400	-12.914313
1687.850135	-12.901104
1688.800940	-12.890826
1689.752818	-12.878946
1690.705768	-12.866667
1691.659795	-12.857928
1692.614898	-12.850897
1693.571081	-12.841245
1694.528345	-12.830722
1695.486691	-12.823208
1696.446122	-12.816588
1697.406640	-12.807283
1698.368245	-12.798061
1699.330941	-12.792549
1700.294729	-12.788078
1701.259611	-12.781111
1702.225588	-12.774652
1703.192664	-12.771278
1704.160838	-12.767698
1705.130114	-12.761159
1706.100493	-12.754899
1707.071977	-12.751510
1708.044568	-12.747801
1709.018268	-12.741934
1709.993079	-12.736989
1710.969003	-12.735047
1711.946041	-12.732858
1712.924196	-12.728674
1713.903469	-12.725686
1714.883862	-12.725384
1715.865378	-12.724670
1716.848017	-12.721907
1717.831783	-12.720348
1718.816677	-12.721207
1719.802701	-12.721299
1720.789857	-12.719809
1721.778147	-12.720188
1722.767573	-12.723555
1723.758136	-12.726498
1724.749840	-12.728507
1725.742685	-12.732480
1726.736673	-12.738408
1727.731808	-12.743056
1728.728090	-12.746747
1729.725521	-12.752351
1730.724105	-12.759510
1731.723842	-12.766304
1732.724735	-12.772984
1733.726785	-12.781641
1734.729995	-12.791439
1735.734366	-12.800297
1736.739902	-12.808686
1737.746603	-12.818665
1738.754472	-12.829211
1739.763510	-12.838568
1740.773721	-12.847827
1741.785105	-12.858317
1742.797665	-12.868780
1743.811403	-12.878055
1744.826321	-12.887341
1745.842422	-12.897998
1746.859706	-12.908478
1747.878177	-12.917562
1748.897835	-12.927065
1749.918685	-12.937536
1750.940726	-12.947572
1751.963963	-12.956590
1752.988395	-12.966801
1754.014027	-12.978142
1755.040860	-12.988936
1756.068895	-12.999268
1757.098135	-13.010998
1758.128583	-13.023380
1759.160240	-13.035008
1760.193109	-13.046455
1761.227191	-13.059110
1762.262488	-13.072197
1763.299004	-13.084476
1764.336740	-13.096724
1765.375697	-13.109825
1766.415880	-13.123332
1767.457288	-13.135835
1768.499926	-13.148372
1769.543794	-13.162413
1770.588895	-13.176421
1771.635231	-13.189255
1772.682805	-13.202878
1773.731619	-13.217046
1774.781674	-13.230524
1775.832973	-13.243333
1776.885519	-13.256876
1777.939312	-13.271055
1778.994357	-13.284908
1780.050654	-13.298322
1781.108207	-13.312662
1782.167017	-13.327352
1783.227087	-13.341819
1784.288418	-13.356398
1785.351013	-13.372252
1786.414875	-13.388671
1787.480006	-13.404850
1788.546407	-13.421313
1789.614082	-13.438896
1790.683032	-13.456420
1791.753259	-13.473930
1792.824767	-13.492282
1793.897557	-13.511610
1794.971632	-13.530644
1796.046994	-13.549342
1797.123645	-13.568261
1798.201588	-13.587156
1799.280824	-13.605326
1800.361357	-13.623599
1801.443188	-13.642712
1802.526320	-13.661765
1803.610756	-13.679947
1804.696497	-13.697678
1805.783546	-13.715202
1806.871906	-13.731644
1807.961578	-13.747575
1809.052565	-13.763984
1810.144870	-13.780454
1811.238494	-13.795942
1812.333441	-13.811266
1813.429713	-13.826784
1814.527311	-13.841697
1815.626239	-13.855570
1816.726499	-13.869598
1817.828094	-13.883875
1818.931025	-13.897251
1820.035295	-13.909945
1821.140906	-13.922924
1822.247862	-13.935828
1823.356165	-13.947881
1824.465816	-13.960017
1825.576819	-13.972849
1826.689175	-13.985180
1827.802888	-13.996434
1828.917960	-14.007798
1830.034394	-14.019560
1831.152191	-14.030458
1832.271354	-14.041110
1833.391887	-14.052069
1834.513790	-14.062932
1835.637068	-14.072594
1836.761722	-14.082178
1837.887755	-14.091983
1839.015169	-14.101255
1840.143968	-14.109763
1841.274153	-14.118448
1842.405727	-14.127392
1843.538693	-14.135648
1844.673053	-14.143868
1845.808810	-14.152172
1846.945966	-14.160028
1848.084525	-14.166539
1849.224488	-14.172927
1850.365858	-14.179132
1851.508638	-14.184594
1852.652831	-14.189647
1853.798438	-14.194696
1854.945463	-14.199490
1856.093909	-14.203054
1857.243777	-14.206459
1858.395071	-14.209157
1859.547794	-14.210939
1860.701947	-14.211933
1861.857533	-14.212484
1863.014556	-14.212600
1864.173018	-14.211696
1865.332922	-14.210849
1866.494270	-14.209008
1867.657065	-14.206112
1868.821309	-14.202434
1869.987006	-14.198229
1871.154158	-14.193734
1872.322768	-14.188193
1873.492839	-14.182710
1874.664373	-14.176438
1875.837373	-14.168936
1877.011841	-14.160782
1878.187782	-14.151921
1879.365197	-14.142388
1880.544089	-14.131491
1881.724460	-14.120327
1882.906315	-14.108706
1884.089655	-14.096315
1885.274483	-14.084206
1886.460803	-14.072076
1887.648616	-14.059338
1888.837927	-14.045583
1890.028736	-14.031254
1891.221049	-14.016805
1892.414866	-14.002096
1893.610192	-13.988154
1894.807028	-13.974908
1896.005379	-13.961298
1897.205246	-13.947241
1898.406633	-13.933186
1899.609542	-13.919016
1900.813977	-13.904656
1902.019940	-13.890827
1903.227434	-13.877337
1904.436462	-13.863164
1905.647028	-13.848550
1906.859133	-13.833760
1908.072781	-13.818331
1909.287976	-13.802946
1910.504719	-13.787803
1911.723013	-13.772419
1912.942863	-13.756813
1914.164270	-13.740868
1915.387238	-13.724601
1916.611770	-13.707977
1917.837868	-13.690654
1919.065536	-13.672518
1920.294777	-13.653977
1921.525594	-13.635271
1922.757989	-13.616442
1923.991967	-13.597792
1925.227529	-13.578791
1926.464679	-13.558976
1927.703420	-13.538677
1928.943755	-13.517562
1930.185688	-13.496011
1931.429221	-13.474956
1932.674356	-13.453915
1933.921099	-13.432388
1935.169451	-13.410698
1936.419415	-13.388769
1937.670996	-13.366517
1938.924195	-13.344540
1940.179017	-13.322724
1941.435463	-13.300384
1942.693538	-13.278227
1943.953245	-13.256636
1945.214586	-13.235148
1946.477566	-13.213780
1947.742186	-13.192517
1949.008451	-13.171270
1950.276363	-13.150539
1951.545926	-13.130591
1952.817143	-13.111101
1954.090017	-13.091655
1955.364551	-13.072324
1956.640749	-13.053342
1957.918615	-13.034946
1959.198150	-13.017520
1960.479359	-13.000652
1961.762244	-12.983649
1963.046810	-12.966585
1964.333059	-12.949790
1965.620995	-12.933249
1966.910621	-12.916837
1968.201940	-12.900582
1969.494956	-12.884179
1970.789672	-12.867412
1972.086091	-12.850486
1973.384217	-12.833402
1974.684053	-12.815920
1975.985602	-12.797867
1977.288869	-12.779093
1978.593855	-12.759888
1979.900566	-12.740654
1981.209003	-12.721284
1982.519171	-12.701341
1983.831073	-12.680855
1985.144712	-12.660264
1986.460093	-12.639872
1987.777217	-12.619878
1989.096089	-12.600119
1990.416713	-12.580201
1991.739092	-12.560378
1993.063228	-12.541163
1994.389127	-12.522736
1995.716791	-12.505096
1997.046223	-12.487934
1998.377428	-12.471060
1999.710409	-12.454760
2001.045169	-12.439215
2002.381713	-12.424113
2003.720043	-12.409347
2005.060163	-12.395277
2006.402077	-12.382262
2007.745788	-12.370234
2009.091301	-12.358937
2010.438618	-12.348187
2011.787743	-12.338028
2013.138680	-12.328590
2014.491433	-12.319862
2015.846005	-12.311709
2017.202399	-12.304135
2018.560621	-12.297205
2019.920673	-12.291102
2021.282558	-12.285891
2022.646281	-12.281130
2024.011846	-12.276222
2025.379256	-12.271065
2026.748515	-12.265712
2028.119626	-12.260270
2029.492594	-12.254737
2030.867422	-12.248657
2032.244114	-12.241655
2033.622673	-12.233915
2035.003104	-12.225860
2036.385411	-12.217562
2037.769597	-12.208799
2039.155665	-12.199593
2040.543621	-12.190405
2041.933467	-12.181634
2043.325208	-12.173196
2044.718847	-12.164887
2046.114389	-12.157032
2047.511837	-12.149850
2048.911195	-12.142910
2050.312467	-12.136002
2051.715657	-12.129583
2053.120769	-12.124109
2054.527807	-12.119600
2055.936775	-12.115545
2057.347677	-12.111287
2058.760516	-12.107052
2060.175297	-12.103595
2061.592025	-12.101470
2063.010701	-12.100608
2064.431332	-12.100526
2065.853921	-12.101174
2067.278472	-12.103172
2068.704988	-12.106924
2070.133475	-12.112098
2071.563936	-12.117755
2072.996375	-12.123382
2074.430796	-12.129300
2075.867204	-12.135762
2077.305603	-12.142494
2078.745996	-12.148976
2080.188389	-12.154873
2081.632784	-12.160112
2083.079187	-12.164667
2084.527601	-12.169256
2085.978030	-12.175103
2087.430480	-12.182316
2088.884954	-12.190241
2090.341455	-12.198762
2091.799990	-12.208467
2093.260561	-12.220113
2094.723173	-12.233770
2096.187831	-12.248465
2097.654538	-12.263254
2099.123300	-12.278255
2100.594119	-12.294184
2102.067001	-12.310795
2103.541950	-12.326505
2105.018971	-12.340227
2106.498067	-12.352085
2107.979243	-12.362585
2109.462503	-12.371522
2110.947853	-12.378413
2112.435295	-12.383292
2113.924836	-12.386420
2115.416478	-12.388371
2116.910227	-12.389819
2118.406087	-12.391148
2119.904063	-12.392791
2121.404158	-12.395200
2122.906378	-12.398761
2124.410727	-12.404327
2125.917210	-12.412948
2127.425831	-12.424467
2128.936594	-12.438135
2130.449505	-12.454509
2131.964567	-12.475080
2133.481786	-12.500110
2135.001166	-12.528654
2136.522711	-12.560025
2138.046427	-12.594188
2139.572317	-12.630981
2141.100388	-12.670061
2142.630642	-12.710977
2144.163085	-12.753452
2145.697722	-12.797369
2147.234558	-12.842119
2148.773596	-12.886522
2150.314842	-12.929945
2151.858301	-12.972133
2153.403977	-13.012210
2154.951875	-13.049436
2156.502000	-13.083655
2158.054357	-13.114873
2159.608950	-13.142223
2161.165785	-13.165203
2162.724866	-13.184340
2164.286198	-13.200797
2165.849786	-13.215360
2167.415635	-13.228061
2168.983749	-13.239547
2170.554134	-13.251201
2172.126795	-13.263924
2173.701737	-13.277711
2175.278964	-13.293773
2176.858481	-13.313978
2178.440294	-13.338616
2180.024408	-13.366674
2181.610827	-13.397987
2183.199557	-13.432887
2184.790602	-13.471472
2186.383968	-13.513691
2187.979660	-13.559644
2189.577683	-13.608469
2191.178041	-13.658836
2192.780741	-13.710830
2194.385787	-13.765166
2195.993185	-13.820976
2197.602939	-13.876337
2199.215054	-13.930799
2200.829537	-13.985088
2202.446392	-14.038824
2204.065624	-14.090525
2205.687239	-14.139500
2207.311242	-14.186432
2208.937638	-14.231824
2210.566433	-14.275516
2212.197631	-14.317466
2213.831239	-14.358650
2215.467261	-14.400130
2217.105703	-14.442628
2218.746570	-14.486051
2220.389867	-14.529865
2222.035601	-14.574634
2223.683776	-14.621468
2225.334398	-14.670737
2226.987472	-14.721320
2228.643004	-14.772533
2230.300999	-14.826253
2231.961463	-14.882996
2233.624402	-14.940928
2235.289820	-14.999900
2236.957723	-15.061108
2238.628118	-15.124505
2240.301009	-15.189062
2241.976402	-15.255065
2243.654303	-15.323175
2245.334717	-15.392351
2247.017650	-15.462326
2248.703108	-15.533780
2250.391096	-15.606251
2252.081620	-15.679386
2253.774686	-15.753241
2255.470300	-15.826815
2257.168467	-15.898212
2258.869193	-15.969790
2260.572484	-16.043006
2262.278345	-16.114536
2263.986783	-16.182511
2265.697804	-16.249397
2267.411412	-16.315661
2269.127615	-16.378530
2270.846417	-16.439061
2272.567826	-16.500517
2274.291846	-16.562594
2276.018484	-16.624828
2277.747745	-16.688835
2279.479637	-16.753981
2281.214164	-16.820404
2282.951333	-16.890602
2284.691149	-16.964388
2286.433619	-17.040071
2288.178750	-17.118861
2289.926546	-17.201168
2291.677014	-17.284996
2293.430161	-17.370622
2295.185992	-17.460105
2296.944513	-17.552146
2298.705732	-17.643733
2300.469653	-17.738474
2302.236283	-17.837287
2304.005629	-17.934408
2305.777696	-18.031799
2307.552492	-18.131143
2309.330022	-18.228372
2311.110292	-18.325067
2312.893310	-18.422273
2314.679080	-18.517669
2316.467611	-18.612057
2318.258907	-18.706104
2320.052976	-18.798602
2321.849824	-18.889331
2323.649457	-18.978725
2325.451883	-19.065992
2327.257106	-19.150568
2329.065135	-19.233100
2330.875975	-19.313031
2332.689633	-19.391711
2334.506116	-19.472740
2336.325430	-19.552787
2338.147581	-19.631722
2339.972578	-19.715336
2341.800425	-19.803920
2343.631130	-19.895042
2345.464700	-19.989636
2347.301141	-20.089353
2349.140461	-20.192284
2350.982665	-20.300199
2352.827760	-20.412959
2354.675754	-20.528069
2356.526653	-20.647327
2358.380464	-20.770028
2360.237195	-20.893315
2362.096851	-21.018554
2363.959440	-21.144520
2365.824968	-21.269384
2367.693444	-21.393881
2369.564873	-21.512880
2371.439263	-21.628855
2373.316620	-21.744928
2375.196953	-21.857004
2377.080267	-21.966341
2378.966570	-22.076550
2380.855869	-22.185169
2382.748171	-22.290879
2384.643484	-22.394527
2386.541815	-22.495567
2388.443170	-22.592721
2390.347557	-22.685347
2392.254984	-22.773577
2394.165457	-22.859190
2396.078984	-22.943598
2397.995572	-23.025982
2399.915229	-23.109791
2401.837961	-23.200731
2403.763777	-23.297709
2405.692684	-23.398383
2407.624689	-23.511099
2409.559800	-23.634682
2411.498023	-23.763739
2413.439368	-23.895116
2415.383840	-24.034202
2417.331449	-24.181002
2419.282201	-24.327641
2421.236104	-24.474126
2423.193165	-24.623502
2425.153393	-24.774704
2427.116795	-24.924951
2429.083378	-25.069507
2431.053151	-25.212211
2433.026121	-25.352446
2435.002297	-25.487083
2436.981685	-25.620143
2438.964293	-25.746864
2440.950131	-25.867521
2442.939204	-25.987810
2444.931522	-26.104680
2446.927092	-26.215760
2448.925923	-26.317824
2450.928022	-26.415688
2452.933397	-26.509532
2454.942056	-26.590204
2456.954008	-26.666843
2458.969260	-26.748503
2460.987821	-26.827932
2463.009699	-26.902982
2465.034902	-26.987668
2467.063437	-27.082026
2469.095315	-27.184895
2471.130542	-27.299970
2473.169127	-27.430716
2475.211078	-27.577552
2477.256404	-27.736937
2479.305112	-27.910749
2481.357212	-28.081818
2483.412713	-28.257106
2485.471621	-28.448907
2487.533946	-28.624412
2489.599696	-28.789416
2491.668880	-28.970317
2493.741507	-29.155804
2495.817585	-29.305671
2497.897122	-29.466191
2499.980127	-29.631016
2502.066609	-29.802746
2504.156578	-29.925655
2506.250040	-30.071909
2508.347006	-30.221879
2510.447483	-30.336264
2512.551482	-30.438032
2514.659010	-30.521169
2516.770076	-30.645419
2518.884690	-30.663280
2521.002861	-30.754613
2523.124597	-30.797529
2525.249907	-30.891313
2527.378801	-30.876381
2529.511287	-30.988928
2531.647375	-31.027240
2533.787074	-31.118509
2535.930393	-31.170298
2538.077340	-31.330638
2540.227927	-31.448814
2542.382160	-31.613025
2544.540051	-31.804462
2546.701608	-32.019097
2548.866840	-32.229334
2551.035757	-32.414306
2553.208369	-32.643062
2555.384684	-32.852401
2557.564713	-33.043914
2559.748465	-33.267615
2561.935948	-33.480995
2564.127174	-33.730357
2566.322152	-33.866733
2568.520890	-34.144953
2570.723399	-34.338438
2572.929689	-34.521388
2575.139769	-34.701668
2577.353649	-34.882682
2579.571340	-35.012848
2581.792849	-35.158484
2584.018189	-35.183689
2586.247368	-35.375383
2588.480396	-35.297147
2590.717284	-35.379902
2592.958041	-35.360377
2595.202678	-35.357089
2597.451204	-35.314543
2599.703630	-35.362927
2601.959966	-35.325616
2604.220222	-35.396111
2606.484408	-35.433029
2608.752535	-35.569140
2611.024612	-35.706507
2613.300651	-35.844947
2615.580661	-36.029856
2617.864653	-36.256936
2620.152638	-36.456708
2622.444625	-36.597116
2624.740626	-36.856272
2627.040651	-37.071671
2629.344710	-37.276892
2631.652814	-37.513238
2633.964974	-37.816505
2636.281200	-38.059092
2638.601504	-38.431178
2640.925896	-38.695801
2643.254386	-39.087324
2645.586987	-39.364940
2647.923707	-39.658090
2650.264559	-39.935722
2652.609554	-40.192761
2654.958702	-40.426688
2657.312015	-40.553909
2659.669503	-40.751253
2662.031178	-40.630599
2664.397051	-40.744544
2666.767132	-40.587265
2669.141434	-40.441600
2671.519968	-40.458796
2673.902745	-40.310657
2676.289776	-40.394628
2678.681072	-40.209330
2681.076646	-40.395909
2683.476508	-40.409950
2685.880671	-40.449284
2688.289145	-40.610446
2690.701942	-40.672780
2693.119075	-40.842774
2695.540554	-40.707468
2697.966391	-41.004723
2700.396599	-41.069156
2702.831189	-41.084513
2705.270172	-41.382958
2707.713561	-41.612936
2710.161368	-41.846822
2712.613605	-42.167232
2715.070283	-42.442742
2717.531416	-42.987206
2719.997014	-43.135442
2722.467090	-43.720328
2724.941657	-44.259192
2727.420726	-44.553909
2729.904310	-45.304307
2732.392421	-45.576178
2734.885072	-46.139817
2737.382275	-46.256616
2739.884042	-46.388280
2742.390387	-46.613310
2744.901321	-46.311656
2747.416857	-46.569554
2749.937008	-46.385378
2752.461787	-46.322637
2754.991206	-46.576201
2757.525279	-46.415335
2760.064017	-46.622112
2762.607434	-46.710121
2765.155544	-46.590049
2767.708358	-46.687306
2770.265890	-46.498553
2772.828153	-46.401538
2775.395160	-46.285497
2777.966924	-45.977441
2780.543459	-46.256355
2783.124778	-45.916876
2785.710894	-46.159290
2788.301821	-46.191098
2790.897572	-46.131625
2793.498160	-46.476438
2796.103599	-46.474760
2798.713903	-46.883202
2801.329085	-47.296898
2803.949159	-47.603921
2806.574139	-48.457345
2809.204038	-48.627117
2811.838871	-49.384196
2814.478650	-49.878058
2817.123391	-50.056872
2819.773107	-50.729209
2822.427812	-50.641420
2825.087521	-50.892052
2827.752247	-51.235633
2830.422005	-51.149083
2833.096808	-51.887383
2835.776672	-51.955161
2838.461611	-52.735377
2841.151638	-53.334319
2843.846769	-53.629001
2846.547019	-54.441869
2849.252401	-54.250389
2851.962930	-54.679736
2854.678621	-54.200559
2857.399489	-54.045362
2860.125549	-53.963098
2862.856815	-53.580426
2865.593302	-53.405187
2868.335026	-52.843727
2871.082002	-52.303259
2873.834244	-52.235098
2876.591767	-51.800464
2879.354588	-51.921182
2882.122721	-52.104558
2884.896181	-52.093922
2887.674984	-52.927469
2890.459146	-52.859852
2893.248681	-53.542474
2896.043606	-54.024565
2898.843937	-53.995756
2901.649687	-54.877959
2904.460875	-54.161631
2907.277515	-54.744192
2910.099623	-54.450108
2912.927215	-54.365796
2915.760308	-55.045856
2918.598916	-54.380645
2921.443057	-55.367965
2924.292747	-55.662766
2927.148002	-55.896319
2930.008837	-57.125633
2932.875270	-56.802852
2935.747318	-57.970610
2938.624995	-58.537917
2941.508320	-59.092877
2944.397308	-61.559368
2947.291977	-61.570962
2950.192343	-63.890068
2953.098423	-62.904150
2956.010234	-62.428722
2958.927792	-61.805640
2961.851116	-60.308711
2964.780221	-60.068304
2967.715126	-59.852826
2970.655847	-59.091572
2973.602402	-59.447531
2976.554808	-59.820299
2979.513083	-59.763934
2982.477243	-60.870992
2985.447308	-61.185997
2988.423293	-61.062488
2991.405218	-61.972802
2994.393099	-61.449244
2997.386955	-61.427540
