# 2022-03-22_11.31.24
# shape = sech2
# FWHM_ps = 0.11
# carrier_nm = 1542
# frep_MHz = 12126
# pow_mW = 8000
# GDD = 0.0
# propa_len = 0.13933333333333334
# untap_len = 0.01
# taper_len = 0.07933333333333334
# waist_len = 0.02
# uptap_len = 0.02
# untap_scale = 1.0
# waist_scale = 0.19473684210526318
# workingDir = NL_20110305_12 (Spirou)
# axis = slow
# window_ps = 10.0
# steps = 200
# points = 21700
# 
# wavelength [nm]	 power spectral density [dB]
600.043425	-83.854812
600.163550	-83.331038
600.283723	-83.076399
600.403943	-83.067028
600.524212	-83.400739
600.644529	-84.250754
600.764895	-85.555495
600.885308	-86.845700
601.005770	-87.212673
601.126280	-86.542774
601.246839	-85.603135
601.367446	-84.824333
601.488101	-84.300872
601.608804	-84.092696
601.729557	-84.302866
601.850357	-84.932946
601.971206	-85.974473
602.092104	-87.682989
602.213050	-90.519483
602.334045	-94.736605
602.455089	-98.732730
602.576181	-99.551533
602.697322	-98.769705
602.818511	-96.650917
602.939749	-94.402114
603.061036	-92.876006
603.182372	-91.746115
603.303757	-90.808265
603.425191	-90.307956
603.546673	-90.397256
603.668204	-91.006758
603.789785	-91.924302
603.911414	-93.325709
604.033092	-95.748674
604.154820	-99.728801
604.276596	-104.249410
604.398422	-100.493768
604.520297	-96.049479
604.642220	-93.571768
604.764193	-92.418582
604.886216	-92.190468
605.008287	-92.914305
605.130408	-94.921814
605.252578	-98.780906
605.374798	-105.827415
605.497066	-102.680605
605.619385	-95.481718
605.741752	-91.706787
605.864169	-89.517580
605.986636	-88.069932
606.109152	-87.358837
606.231718	-87.754042
606.354333	-89.193957
606.476998	-91.067329
606.599712	-93.338066
606.722476	-97.838236
606.845290	-111.356740
606.968154	-100.130671
607.091067	-95.077640
607.214030	-92.537713
607.337043	-90.624888
607.460106	-89.516691
607.583219	-89.342339
607.706381	-89.574832
607.829594	-89.662565
607.952856	-90.035959
608.076169	-91.357043
608.199531	-93.494291
608.322944	-95.956097
608.446407	-99.557770
608.569920	-107.177950
608.693483	-102.333905
608.817096	-96.449065
608.940759	-93.495079
609.064473	-91.735506
609.188237	-90.714424
609.312051	-90.493751
609.435916	-90.969941
609.559831	-91.820480
609.683796	-92.761331
609.807812	-93.687799
609.931878	-94.920285
610.055995	-96.790148
610.180162	-99.878923
610.304380	-106.019055
610.428648	-114.035323
610.552967	-101.491552
610.677337	-95.399214
610.801757	-91.389372
610.926228	-88.578669
611.050750	-86.638089
611.175323	-85.449704
611.299946	-85.019809
611.424620	-85.377663
611.549345	-86.454308
611.674121	-88.331003
611.798948	-91.469644
611.923826	-96.349193
612.048755	-96.680826
612.173734	-92.016013
612.298765	-88.744979
612.423847	-86.752339
612.548980	-85.582085
612.674165	-85.000867
612.799400	-84.892472
612.924687	-85.307413
613.050025	-86.303354
613.175414	-87.883914
613.300854	-90.178779
613.426346	-93.366893
613.551889	-96.631738
613.677484	-95.623551
613.803130	-92.419820
613.928827	-90.033651
614.054576	-88.474550
614.180377	-87.674470
614.306229	-87.613081
614.432132	-88.195871
614.558087	-89.400602
614.684094	-91.379620
614.810153	-93.962219
614.936263	-94.924064
615.062425	-92.431316
615.188639	-89.534106
615.314904	-87.678866
615.441222	-87.016841
615.567591	-87.512928
615.694012	-89.289714
615.820486	-92.823466
615.947011	-100.884864
616.073588	-103.108658
616.200217	-92.426498
616.326898	-88.023417
616.453632	-85.616114
616.580417	-84.417713
616.707255	-84.080301
616.834144	-84.431001
616.961086	-85.590757
617.088081	-88.058596
617.215127	-92.692766
617.342226	-104.156243
617.469378	-98.866797
617.596581	-91.931526
617.723837	-88.951277
617.851146	-87.359856
617.978507	-86.660913
618.105920	-86.837068
618.233386	-87.694808
618.360905	-88.560894
618.488476	-88.501504
618.616100	-87.387597
618.743777	-85.865733
618.871506	-84.705733
618.999288	-84.308519
619.127123	-84.918061
619.255011	-86.847873
619.382951	-91.012257
619.510945	-100.984295
619.638991	-95.569865
619.767090	-88.547413
619.895243	-84.944161
620.023448	-82.907320
620.151706	-81.865209
620.280017	-81.553297
620.408382	-81.884202
620.536799	-82.784275
620.665270	-84.218744
620.793794	-86.269479
620.922371	-88.127748
621.051002	-87.570562
621.179686	-85.206557
621.308423	-83.109725
621.437213	-81.813610
621.566057	-81.203054
621.694954	-81.069947
621.823905	-81.449244
621.952909	-82.449476
622.081967	-84.274857
622.211079	-86.981448
622.340244	-88.951986
622.469462	-87.943915
622.598735	-86.198425
622.728061	-84.839460
622.857441	-83.884560
622.986874	-83.141231
623.116361	-82.634384
623.245903	-82.660869
623.375498	-83.404679
623.505147	-85.004018
623.634850	-87.897407
623.764606	-92.997725
623.894417	-98.187989
624.024282	-92.495651
624.154201	-88.217555
624.284174	-85.713629
624.414202	-83.871169
624.544283	-82.447443
624.674419	-81.586241
624.804609	-81.393351
624.934853	-82.025730
625.065151	-83.908979
625.195504	-87.437348
625.325911	-92.436414
625.456373	-93.148788
625.586889	-89.777390
625.717460	-87.704920
625.848085	-86.477336
625.978764	-85.726627
626.109498	-85.629566
626.240287	-86.110424
626.371131	-87.322468
626.502029	-89.694565
626.632982	-93.759180
626.763989	-101.690428
626.895052	-110.781621
627.026169	-100.212975
627.157341	-97.922200
627.288568	-97.345348
627.419850	-97.290979
627.551187	-97.433199
627.682579	-96.944600
627.814026	-96.000839
627.945528	-95.136258
628.077085	-94.440719
628.208697	-93.864421
628.340364	-93.552090
628.472087	-93.326515
628.603865	-92.890966
628.735698	-92.359161
628.867586	-92.266332
628.999530	-92.784485
629.131529	-94.016079
629.263584	-96.707163
629.395694	-103.138151
629.527859	-107.006795
629.660080	-94.937887
629.792357	-89.358598
629.924689	-86.067462
630.057077	-83.878448
630.189520	-82.425435
630.322019	-81.668656
630.454574	-81.571677
630.587184	-82.229926
630.719851	-83.570939
630.852573	-85.148420
630.985351	-86.308042
631.118185	-85.720170
631.251075	-83.904974
631.384021	-82.218981
631.517023	-81.066590
631.650081	-80.598544
631.783195	-80.732580
631.916365	-81.435159
632.049592	-82.892010
632.182874	-85.153052
632.316213	-88.034628
632.449608	-89.748040
632.583059	-88.198220
632.716567	-86.199777
632.850131	-84.842849
632.983751	-84.139108
633.117428	-84.054694
633.251161	-84.558344
633.384951	-86.040890
633.518797	-89.315307
633.652700	-96.462401
633.786660	-103.224887
633.920676	-91.559297
634.054749	-87.060684
634.188879	-84.604196
634.323065	-83.495207
634.457308	-83.786732
634.591608	-85.626390
634.725965	-89.770317
634.860379	-101.868631
634.994850	-94.694497
635.129377	-86.921394
635.263962	-83.384540
635.398604	-81.742968
635.533303	-81.138201
635.668058	-81.211697
635.802872	-81.908664
635.937742	-83.160906
636.072669	-85.039871
636.207654	-87.827240
636.342696	-92.028495
636.477796	-99.674752
636.612953	-96.189943
636.748167	-89.289166
636.883439	-85.183031
637.018768	-82.364693
637.154155	-80.653258
637.289599	-79.822529
637.425101	-79.579367
637.560660	-79.759888
637.696277	-80.341204
637.831952	-81.481901
637.967685	-82.821857
638.103475	-83.477884
638.239324	-83.818202
638.375230	-84.486059
638.511194	-85.291492
638.647215	-85.787003
638.783295	-86.087726
638.919433	-86.386248
639.055629	-85.838245
639.191883	-84.443326
639.328195	-83.024692
639.464565	-82.042799
639.600994	-81.784645
639.737481	-82.252415
639.874025	-83.322778
640.010629	-85.420335
640.147290	-89.469795
640.284010	-89.856716
640.420789	-84.064160
640.557625	-80.715818
640.694521	-79.124297
640.831474	-78.535804
640.968487	-78.867104
641.105558	-80.371847
641.242687	-83.510177
641.379876	-86.662763
641.517123	-84.505288
641.654429	-81.624929
641.791793	-79.927420
641.929216	-79.242041
642.066699	-79.558586
642.204240	-81.229789
642.341840	-84.627839
642.479499	-88.938213
642.617217	-88.991445
642.754994	-86.404492
642.892830	-84.794564
643.030726	-83.952307
643.168680	-83.606634
643.306694	-83.592295
643.444767	-83.895160
643.582899	-84.950689
643.721091	-87.254538
643.859342	-90.304108
643.997652	-88.845563
644.136022	-83.775037
644.274451	-80.125216
644.412940	-78.116485
644.551488	-77.415779
644.690096	-77.763390
644.828763	-79.027527
644.967490	-81.222960
645.106277	-83.245882
645.245124	-82.253391
645.384030	-79.987295
645.522997	-78.561724
645.662023	-78.136010
645.801109	-78.703927
645.940255	-80.536738
646.079460	-84.101720
646.218726	-90.757058
646.358052	-97.864762
646.497438	-92.230984
646.636884	-91.398256
646.776391	-93.682455
646.915957	-91.979223
647.055584	-86.374537
647.195271	-82.748550
647.335019	-81.112607
647.474826	-81.053399
647.614695	-82.354170
647.754623	-85.558916
647.894612	-91.132163
648.034662	-87.449502
648.174772	-82.381380
648.314943	-80.115962
648.455174	-79.686326
648.595466	-80.860563
648.735819	-84.061278
648.876233	-91.667565
649.016707	-94.532034
649.157242	-86.056667
649.297838	-83.542807
649.438495	-83.765104
649.579213	-86.165192
649.719992	-88.640614
649.860832	-86.000124
650.001733	-82.868609
650.142695	-81.566954
650.283718	-82.352705
650.424803	-85.805432
650.565949	-89.251337
650.707156	-83.964512
650.848424	-79.707238
650.989754	-77.286644
651.131145	-76.246168
651.272597	-76.533250
651.414111	-78.192886
651.555687	-81.140360
651.697324	-83.304176
651.839022	-81.166025
651.980782	-78.634382
652.122604	-77.435828
652.264488	-77.695994
652.406433	-79.683471
652.548441	-84.150625
652.690510	-92.132714
652.832640	-87.963756
652.974833	-83.283894
653.117088	-81.491254
653.259405	-81.560125
653.401784	-82.717744
653.544224	-83.739365
653.686727	-83.921354
653.829293	-84.374808
653.971920	-86.828437
654.114609	-92.610664
654.257361	-86.679546
654.400175	-80.223965
654.543052	-76.651123
654.685991	-74.877221
654.828992	-74.453093
654.972056	-75.203235
655.115183	-77.087039
655.258372	-78.965469
655.401623	-77.843772
655.544937	-75.541290
655.688314	-74.238161
655.831754	-74.173480
655.975256	-75.423942
656.118822	-78.467812
656.262450	-84.883446
656.406141	-91.662278
656.549894	-84.200548
656.693711	-81.574838
656.837591	-81.661145
656.981534	-83.725132
657.125540	-85.122084
657.269610	-82.402700
657.413742	-79.995689
657.557938	-79.520704
657.702196	-81.433543
657.846519	-87.717172
657.990904	-88.865344
658.135353	-80.142581
658.279866	-76.483789
658.424441	-75.333713
658.569081	-76.135943
658.713784	-79.107495
658.858550	-85.187181
659.003381	-83.368202
659.148274	-77.909966
659.293232	-75.596961
659.438253	-75.382879
659.583339	-77.052284
659.728488	-81.251894
659.873701	-87.379187
660.018978	-81.959417
660.164318	-78.079995
660.309723	-77.001753
660.455192	-78.033950
660.600725	-81.645676
660.746323	-90.201103
660.891984	-85.951852
661.037710	-80.366034
661.183500	-78.592185
661.329354	-79.473433
661.475272	-83.959475
661.621255	-101.900318
661.767303	-83.753477
661.913415	-78.857751
662.059591	-77.353279
662.205833	-78.076328
662.352138	-80.800664
662.498509	-83.006316
662.644944	-80.199823
662.791443	-77.499365
662.938008	-76.526645
663.084638	-77.247542
663.231332	-79.818342
663.378091	-85.368144
663.524915	-105.635399
663.671804	-90.098217
663.818759	-86.766433
663.965778	-88.711634
664.112863	-92.555739
664.260012	-84.520647
664.407227	-79.138491
664.554507	-76.422743
664.701853	-75.409156
664.849264	-75.700971
664.996740	-77.075270
665.144282	-78.830233
665.291889	-79.376129
665.439561	-78.650313
665.587300	-78.327498
665.735103	-79.713654
665.882973	-84.130656
666.030908	-100.457839
666.178909	-86.656800
666.326976	-81.194372
666.475109	-79.374170
666.623307	-79.193957
666.771571	-79.420072
666.919902	-79.097418
667.068298	-78.148996
667.216761	-77.425164
667.365289	-77.505099
667.513884	-78.371094
667.662545	-79.659216
667.811272	-81.219830
667.960065	-82.926240
668.108925	-85.033223
668.257851	-88.211073
668.406843	-92.845489
668.555902	-96.879537
668.705027	-91.012324
668.854219	-86.158006
669.003478	-83.737271
669.152803	-82.687895
669.302195	-82.212657
669.451653	-81.284907
669.601179	-80.210241
669.750771	-79.434198
669.900430	-78.962666
670.050156	-78.903798
670.199949	-78.536606
670.349808	-77.272310
670.499735	-76.075026
670.649729	-75.392967
670.799790	-75.547082
670.949918	-76.709796
671.100114	-78.413953
671.250377	-79.582774
671.400707	-80.060718
671.551104	-80.630503
671.701569	-82.477888
671.852101	-86.927612
672.002700	-99.186450
672.153368	-95.724513
672.304102	-90.909242
672.454905	-92.228570
672.605775	-95.869304
672.756713	-89.202847
672.907718	-84.028856
673.058791	-81.316440
673.209933	-80.391773
673.361142	-80.857820
673.512419	-82.310066
673.663764	-83.639988
673.815177	-81.807108
673.966658	-79.065343
674.118207	-77.816138
674.269825	-78.137081
674.421510	-80.199709
674.573264	-84.109578
674.725086	-84.282682
674.876977	-81.060457
675.028936	-79.655392
675.180963	-79.693388
675.333059	-80.088459
675.485224	-79.417834
675.637457	-78.207267
675.789758	-77.870447
675.942129	-79.085752
676.094568	-80.979485
676.247075	-79.146934
676.399652	-75.662852
676.552298	-73.383475
676.705012	-72.475868
676.857795	-72.896437
677.010648	-74.637121
677.163569	-77.385052
677.316560	-79.155733
677.469619	-77.382207
677.622748	-75.233028
677.775946	-74.254264
677.929214	-74.328509
678.082551	-75.227865
678.235957	-77.118861
678.389432	-80.555421
678.542977	-85.541545
678.696592	-83.705947
678.850276	-78.849217
679.004030	-76.253393
679.157853	-75.692533
679.311746	-77.149156
679.465709	-81.687229
679.619742	-96.371252
679.773844	-81.354524
679.928017	-76.227929
680.082259	-74.413143
680.236571	-74.607027
680.390954	-77.078513
680.545406	-84.126915
680.699929	-88.529151
680.854522	-78.781223
681.009185	-75.449306
681.163918	-74.612446
681.318722	-75.785669
681.473596	-79.455727
681.628540	-88.562452
681.783555	-84.019755
681.938641	-77.638486
682.093797	-75.143151
682.249023	-74.707051
682.404321	-75.953656
682.559689	-79.412363
682.715128	-88.662060
682.870637	-88.968708
683.026218	-80.648480
683.181869	-77.969456
683.337591	-77.730563
683.493385	-79.722901
683.649249	-84.844608
683.805185	-95.542979
683.961191	-87.356108
684.117269	-83.168286
684.273418	-81.907577
684.429639	-81.415002
684.585930	-80.284459
684.742294	-78.926536
684.898728	-78.526651
685.055234	-79.838017
685.211812	-83.825578
685.368461	-91.635077
685.525182	-84.795550
685.681975	-80.159104
685.838839	-78.703821
685.995775	-79.413315
686.152783	-82.447418
686.309863	-87.610494
686.467014	-86.857154
686.624238	-83.722194
686.781534	-82.336337
686.938902	-81.452472
687.096342	-80.257900
687.253854	-79.503122
687.411438	-80.087838
687.569095	-82.306692
687.726824	-83.706235
687.884626	-80.613278
688.042499	-78.257015
688.200446	-78.271118
688.358465	-81.084165
688.516556	-83.838359
688.674720	-78.070224
688.832957	-74.001216
688.991266	-72.252010
689.149649	-72.361052
689.308104	-74.131891
689.466632	-76.895515
689.625233	-77.311917
689.783906	-75.110800
689.942653	-73.746561
690.101473	-73.988390
690.260367	-75.905772
690.419333	-79.630034
690.578372	-85.396395
690.737485	-91.052873
690.896672	-90.511645
691.055931	-84.730443
691.215264	-79.890027
691.374671	-77.131498
691.534151	-76.056651
691.693704	-76.560745
691.853332	-78.764741
692.013033	-82.173571
692.172807	-84.214258
692.332656	-84.290834
692.492578	-85.146800
692.652575	-89.274874
692.812645	-98.752866
692.972789	-88.992996
693.133007	-83.006847
693.293300	-79.557195
693.453666	-77.534914
693.614107	-76.427252
693.774622	-76.163966
693.935211	-76.396242
694.095875	-76.643698
694.256613	-76.859706
694.417426	-77.747263
694.578313	-80.183738
694.739274	-84.372188
694.900311	-84.285591
695.061421	-80.131437
695.222607	-78.118564
695.383868	-78.420946
695.545203	-80.982319
695.706613	-85.382386
695.868098	-83.950726
696.029658	-81.228292
696.191293	-81.669250
696.353003	-85.020187
696.514789	-86.307800
696.676649	-81.163000
696.838585	-78.627245
697.000596	-78.337941
697.162682	-78.712784
697.324844	-77.146621
697.487081	-74.197978
697.649394	-72.198401
697.811782	-71.530971
697.974246	-72.356339
698.136786	-74.931279
698.299401	-79.255684
698.462092	-82.915264
698.624859	-83.070840
698.787702	-85.753629
698.950621	-87.672070
699.113616	-80.031693
699.276686	-76.219066
699.439833	-75.341096
699.603056	-76.656913
699.766355	-77.981647
699.929731	-75.259139
700.093183	-72.175929
700.256711	-71.097731
700.420315	-72.087024
700.583996	-75.083294
700.747754	-78.924913
700.911588	-76.941249
701.075499	-74.701751
701.239486	-75.054125
701.403550	-78.015837
701.567691	-85.632258
701.731909	-84.995271
701.896203	-81.096173
702.060575	-82.405630
702.225024	-82.892897
702.389549	-76.410813
702.554152	-72.532147
702.718832	-71.191729
702.883589	-71.915032
703.048424	-74.099685
703.213335	-74.373062
703.378324	-72.188338
703.543391	-70.896998
703.708535	-71.502032
703.873757	-74.675012
704.039056	-82.543881
704.204433	-93.142798
704.369887	-83.463494
704.535420	-86.422673
704.701030	-82.630827
704.866718	-75.033045
705.032484	-71.756346
705.198328	-71.240642
705.364250	-73.533560
705.530250	-79.692768
705.696328	-82.245678
705.862485	-76.726550
706.028720	-75.990826
706.195033	-80.321537
706.361424	-83.958738
706.527894	-74.763928
706.694442	-70.935187
706.861069	-70.081064
707.027775	-71.615916
707.194559	-76.011843
707.361422	-84.116740
707.528363	-80.995085
707.695384	-78.654713
707.862483	-78.354663
708.029661	-76.549398
708.196918	-74.413765
708.364254	-73.959699
708.531670	-75.414008
708.699164	-77.730277
708.866738	-75.103782
709.034391	-71.916265
709.202123	-71.067859
709.369935	-72.554808
709.537826	-77.628327
709.705796	-87.659896
709.873847	-79.104604
710.041976	-76.925415
710.210186	-78.967061
710.378475	-80.656419
710.546844	-76.504696
710.715292	-73.894134
710.883821	-73.859798
711.052429	-76.848895
711.221118	-85.100215
711.389887	-88.438996
711.558735	-82.204143
711.727664	-84.808581
711.896673	-91.008103
712.065763	-78.847845
712.234932	-74.425530
712.404183	-73.216967
712.573513	-74.298291
712.742924	-76.111327
712.912416	-75.721492
713.081988	-74.166773
713.251641	-74.007415
713.421375	-76.386200
713.591190	-84.035774
713.761085	-84.738931
713.931061	-78.404724
714.101119	-77.928539
714.271257	-82.458627
714.441476	-86.801217
714.611777	-78.721636
714.782159	-76.484115
714.952622	-77.422837
715.123166	-79.498583
715.293792	-76.553581
715.464499	-74.175216
715.635288	-74.414609
715.806158	-77.153018
715.977110	-77.992992
716.148143	-73.328086
716.319259	-70.623941
716.490456	-70.259712
716.661735	-71.858565
716.833096	-74.218099
717.004538	-74.777009
717.176063	-74.093705
717.347670	-75.500567
717.519359	-80.510324
717.691130	-99.352557
717.862984	-85.025916
718.034920	-82.301193
718.206938	-80.325376
718.379039	-75.191667
718.551222	-71.486586
718.723488	-69.739626
718.895836	-69.689430
719.068267	-71.306908
719.240781	-72.897200
719.413377	-71.973580
719.586057	-70.776524
719.758819	-70.709245
719.931664	-71.616948
720.104593	-71.595866
720.277604	-70.862796
720.450699	-71.327681
720.623876	-73.898561
720.797137	-79.558293
720.970482	-78.303047
721.143910	-74.359153
721.317421	-73.788789
721.491016	-74.758204
721.664694	-73.804317
721.838456	-70.982987
722.012302	-69.372792
722.186231	-68.995966
722.360244	-68.662609
722.534342	-68.141943
722.708523	-67.574910
722.882788	-67.606173
723.057137	-68.763742
723.231570	-70.588559
723.406088	-71.975345
723.580689	-71.778952
723.755375	-72.494007
723.930146	-77.138767
724.105000	-79.815481
724.279940	-71.697658
724.454963	-67.996383
724.630072	-66.448391
724.805265	-65.495960
724.980543	-64.253093
725.155905	-63.231349
725.331353	-63.206776
725.506885	-64.748847
725.682503	-67.822736
725.858205	-69.655088
726.033993	-69.235831
726.209865	-70.573244
726.385823	-74.936561
726.561866	-71.625210
726.737995	-67.525777
726.914209	-66.547378
727.090508	-67.464250
727.266893	-67.596928
727.443364	-66.145120
727.619920	-65.675089
727.796562	-67.552096
727.973290	-70.534527
728.150103	-67.474085
728.327003	-64.336200
728.503988	-63.653625
728.681060	-64.690764
728.858218	-65.534303
729.035461	-65.034145
729.212791	-65.442929
729.390208	-68.668111
729.567710	-73.732071
729.745299	-69.092193
729.922975	-66.291874
730.100737	-66.550494
730.278586	-67.010009
730.456521	-64.643102
730.634543	-62.476141
730.812652	-62.217435
730.990848	-63.458583
731.169130	-64.503321
731.347500	-64.069514
731.525957	-64.250371
731.704500	-66.326543
731.883131	-67.478184
732.061850	-64.675653
732.240655	-62.888036
732.419548	-63.161341
732.598528	-64.302485
732.777596	-63.854948
732.956751	-62.644084
733.135994	-62.546842
733.315325	-63.607188
733.494744	-64.422300
733.674250	-64.594594
733.853844	-65.560787
734.033526	-68.089690
734.213296	-69.293509
734.393154	-66.185004
734.573101	-63.930073
734.753135	-63.197472
734.933258	-63.241600
735.113469	-63.052560
735.293769	-62.562231
735.474157	-62.564254
735.654633	-63.297269
735.835198	-64.185497
736.015852	-64.067118
736.196594	-63.588678
736.377426	-63.539162
736.558346	-63.506681
736.739355	-62.374338
736.920453	-61.058319
737.101640	-60.991299
737.282916	-62.413486
737.464282	-64.407820
737.645736	-64.493844
737.827280	-63.790690
738.008914	-63.510161
738.190637	-62.520109
738.372449	-60.744409
738.554351	-59.829059
738.736342	-60.368278
738.918424	-61.717883
739.100595	-62.093146
739.282855	-61.547720
739.465206	-62.233600
739.647647	-64.226376
739.830178	-64.266802
740.012799	-62.161863
740.195510	-61.216690
740.378311	-61.298233
740.561203	-60.871844
740.744185	-60.038309
740.927258	-60.229101
741.110421	-62.437857
741.293674	-65.283923
741.477018	-64.025987
741.660453	-62.241408
741.843979	-62.429669
742.027596	-62.532602
742.211303	-60.948487
742.395102	-59.829133
742.578991	-60.233818
742.762972	-61.245680
742.947044	-60.741119
743.131207	-60.062390
743.315461	-61.317039
743.499807	-65.260415
743.684244	-66.279416
743.868773	-63.152011
744.053394	-62.576319
744.238106	-62.710782
744.422910	-60.627571
744.607805	-58.829255
744.792793	-59.027798
744.977872	-60.436209
745.163044	-60.411752
745.348307	-59.294744
745.533663	-59.903609
745.719111	-62.718670
745.904651	-63.561464
746.090283	-61.024275
746.276008	-60.355780
746.461826	-61.300654
746.647735	-60.961793
746.833738	-59.973547
747.019833	-61.044696
747.206021	-65.287227
747.392302	-66.079630
747.578676	-62.194224
747.765143	-61.114509
747.951703	-61.108523
748.138356	-59.598748
748.325102	-58.117421
748.511941	-58.277942
748.698874	-59.808638
748.885900	-60.899112
749.073019	-61.071365
749.260232	-62.942236
749.447539	-67.385688
749.634939	-64.992978
749.822433	-61.216764
750.010021	-60.052505
750.197703	-59.960213
750.385479	-59.621107
750.573348	-59.523407
750.761312	-60.727717
750.949370	-62.708379
751.137523	-62.569399
751.325769	-61.471231
751.514110	-61.732005
751.702545	-62.522201
751.891075	-61.710019
752.079700	-60.568220
752.268419	-60.365040
752.457233	-60.616545
752.646142	-60.803973
752.835145	-61.609837
753.024244	-63.675235
753.213437	-65.401428
753.402726	-64.351857
753.592110	-63.113040
753.781589	-62.518071
753.971163	-61.967934
754.160833	-61.459792
754.350598	-61.126690
754.540459	-60.691782
754.730415	-60.408856
754.920467	-61.083488
755.110615	-62.912034
755.300858	-64.444662
755.491198	-64.227587
755.681633	-63.254501
755.872164	-61.794669
756.062792	-60.414611
756.253515	-60.403595
756.444335	-62.278823
756.635252	-64.575339
756.826264	-64.535704
757.017373	-65.102030
757.208579	-66.641806
757.399881	-64.223880
757.591280	-61.983045
757.782776	-61.851608
757.974368	-61.786118
758.166058	-60.343119
758.357844	-60.025286
758.549728	-62.416666
758.741708	-67.970247
758.933786	-68.205607
759.125961	-66.489410
759.318233	-67.026205
759.510603	-64.499858
759.703071	-62.358382
759.895635	-63.556822
760.088298	-67.615433
760.281058	-65.994614
760.473916	-63.910514
760.666872	-65.914815
760.859926	-68.779317
761.053078	-65.030009
761.246328	-63.577736
761.439676	-64.467403
761.633122	-63.356871
761.826667	-61.447587
762.020310	-62.108664
762.214052	-66.201795
762.407892	-69.606081
762.601831	-67.065894
762.795868	-68.543068
762.990004	-73.554436
763.184239	-69.385638
763.378573	-67.785103
763.573006	-69.326493
763.767538	-66.936832
763.962169	-64.130216
764.156900	-64.615936
764.351729	-69.545491
764.546658	-79.626857
764.741687	-72.482257
764.936815	-71.351927
765.132042	-68.378624
765.327370	-65.022224
765.522797	-64.674298
765.718324	-67.749638
765.913950	-72.029188
766.109677	-71.108344
766.305504	-73.783143
766.501431	-81.426529
766.697458	-70.126273
766.893586	-67.279315
767.089814	-66.774674
767.286142	-65.223591
767.482571	-64.100328
767.679100	-65.632242
767.875730	-71.589730
768.072461	-80.582612
768.269293	-75.436161
768.466225	-73.945429
768.663259	-69.633215
768.860393	-68.109900
769.057629	-71.370666
769.254966	-84.237295
769.452404	-75.610904
769.649944	-78.618401
769.847585	-75.727141
770.045328	-66.746351
770.243172	-64.468832
770.441118	-64.970885
770.639166	-64.686732
770.837315	-63.654458
771.035567	-65.381053
771.233920	-73.385699
771.432376	-75.255854
771.630934	-71.197964
771.829594	-79.548340
772.028356	-73.425668
772.227220	-68.113994
772.426188	-68.277089
772.625257	-65.916892
772.824430	-62.683967
773.023705	-63.082653
773.223083	-68.253553
773.422563	-68.111798
773.622147	-64.079612
773.821834	-64.587596
774.021624	-64.856357
774.221517	-62.422686
774.421513	-62.736898
774.621613	-67.206583
774.821816	-66.692037
775.022122	-64.229346
775.222532	-67.505531
775.423046	-66.331720
775.623664	-60.674992
775.824385	-59.309501
776.025211	-59.851182
776.226140	-59.347525
776.427173	-59.365089
776.628311	-63.398155
776.829553	-73.954524
777.030899	-63.613076
777.232350	-61.819124
777.433905	-61.694673
777.635564	-58.910328
777.837328	-57.695360
778.039197	-59.194183
778.241171	-59.972767
778.443250	-58.788054
778.645433	-60.635033
778.847722	-65.976576
779.050116	-61.296834
779.252615	-58.907026
779.455219	-59.196988
779.657929	-57.726357
779.860744	-56.278398
780.063665	-57.250542
780.266691	-58.293312
780.469823	-56.840444
780.673061	-57.236259
780.876405	-60.885754
781.079855	-61.035470
781.283410	-58.599916
781.487072	-58.256185
781.690840	-56.715977
781.894715	-55.425933
782.098695	-56.827828
782.302783	-59.734210
782.506976	-58.665542
782.711277	-57.728472
782.915684	-57.607961
783.120198	-55.625457
783.324818	-54.357272
783.529546	-54.702152
783.734381	-54.772775
783.939322	-54.596166
784.144372	-56.364044
784.349528	-58.976324
784.554792	-57.120750
784.760163	-55.329471
784.965642	-54.453200
785.171228	-53.552718
785.376922	-53.858034
785.582724	-56.027587
785.788634	-57.538194
785.994651	-56.749065
786.200777	-56.489685
786.407011	-55.445648
786.613353	-53.653580
786.819804	-52.952529
787.026363	-52.734560
787.233030	-52.242452
787.439806	-52.757449
787.646691	-54.866199
787.853684	-55.862829
788.060786	-54.930567
788.267997	-54.605635
788.475317	-53.758106
788.682746	-52.785349
788.890285	-53.088093
789.097932	-53.327712
789.305689	-52.474295
789.513555	-52.750734
789.721531	-54.482942
789.929617	-54.627734
790.137812	-53.800486
790.346117	-53.510425
790.554531	-52.098968
790.763056	-51.255941
790.971691	-52.391620
791.180436	-53.306490
791.389291	-52.423781
791.598256	-52.662863
791.807332	-52.920965
792.016518	-51.579644
792.225815	-51.349626
792.435222	-51.896592
792.644740	-51.192004
792.854369	-51.413351
793.064109	-53.818913
793.273960	-53.976846
793.483922	-52.205206
793.693995	-51.786039
793.904180	-50.639905
794.114475	-49.793780
794.324882	-51.016906
794.535401	-52.241362
794.746031	-51.357762
794.956774	-51.730098
795.167627	-52.454255
795.378593	-51.179680
795.589671	-50.848059
795.800861	-51.065193
796.012162	-49.983752
796.223577	-49.989258
796.435103	-51.651783
796.646742	-51.640440
796.858493	-50.862410
797.070357	-51.342187
797.282334	-50.824671
797.494423	-50.105314
797.706626	-50.715950
797.918941	-50.333788
798.131369	-49.331450
798.343911	-50.077331
798.556566	-51.359979
798.769334	-51.092833
798.982215	-51.114512
799.195210	-50.588403
799.408319	-49.187183
799.621541	-49.264053
799.834877	-50.273597
800.048327	-50.082500
800.261890	-50.281183
800.475568	-51.286262
800.689360	-50.571589
800.903266	-49.795820
801.117287	-49.513718
801.331422	-48.386620
801.545671	-48.162806
801.760036	-49.698589
801.974514	-50.800028
802.189108	-50.766848
802.403816	-50.942727
802.618640	-49.740241
802.833578	-48.921714
803.048632	-49.549328
803.263800	-49.316044
803.479085	-48.673706
803.694484	-49.384999
803.909999	-49.736055
804.125630	-49.414004
804.341376	-49.948247
804.557239	-49.396557
804.773217	-48.549904
804.989311	-49.398116
805.205521	-49.772493
805.421847	-49.018650
805.638290	-49.312410
805.854849	-49.121492
806.071524	-48.617513
806.288316	-49.408682
806.505225	-49.163837
806.722250	-48.076374
806.939393	-48.663774
807.156652	-49.588433
807.374028	-49.774771
807.591521	-50.583458
807.809132	-49.477494
808.026859	-47.764165
808.244705	-47.785722
808.462667	-47.811585
808.680748	-47.442288
808.898946	-48.514524
809.117261	-49.800452
809.335695	-49.953169
809.554246	-50.619250
809.772916	-49.145280
809.991704	-47.223858
810.210610	-47.310947
810.429634	-47.947891
810.648777	-48.268216
810.868039	-49.715909
811.087419	-50.129955
811.306918	-49.089726
811.526535	-49.448442
811.746272	-48.727817
811.966127	-47.244569
812.186102	-47.346479
812.406196	-47.631583
812.626409	-47.765481
812.846742	-49.316922
813.067194	-49.657036
813.287766	-48.522039
813.508457	-48.978051
813.729269	-48.658191
813.950200	-47.652090
814.171251	-48.139349
814.392422	-48.282520
814.613714	-48.379612
814.835126	-50.061930
815.056658	-49.146971
815.278311	-47.431025
815.500084	-47.531693
815.721978	-47.468578
815.943993	-47.958071
816.166128	-50.033216
816.388385	-49.596618
816.610762	-48.638250
816.833261	-48.546517
817.055881	-46.986590
817.278623	-46.372532
817.501486	-47.276013
817.724471	-48.048057
817.947577	-49.977249
818.170805	-52.172765
818.394155	-49.151126
818.617627	-47.616065
818.841221	-47.059110
819.064937	-46.396006
819.288775	-47.120587
819.512736	-48.283871
819.736819	-48.536944
819.961025	-49.994811
820.185354	-50.052731
820.409805	-47.988957
820.634379	-47.221005
820.859076	-46.711843
821.083897	-46.773189
821.308840	-48.366889
821.533907	-49.339174
821.759097	-49.372569
821.984411	-50.024030
822.209848	-48.836730
822.435409	-47.644139
822.661093	-47.305672
822.886902	-47.035258
823.112834	-48.117990
823.338891	-50.071347
823.565072	-49.226136
823.791377	-48.006104
824.017807	-47.142583
824.244361	-46.657245
824.471039	-47.633669
824.697843	-48.897117
824.924771	-49.438577
825.151824	-50.506783
825.379002	-49.360550
825.606306	-47.651331
825.833734	-47.000398
826.061288	-46.622889
826.288967	-47.573234
826.516772	-49.605031
826.744703	-49.453483
826.972759	-48.905392
827.200941	-48.401275
827.429249	-47.804743
827.657683	-48.306239
827.886243	-48.132927
828.114930	-47.789182
828.343743	-48.867676
828.572682	-49.117822
828.801748	-48.856189
829.030941	-48.738164
829.260260	-47.830259
829.489706	-48.213630
829.719280	-48.792764
829.948980	-48.186066
830.178808	-48.708261
830.408763	-49.109624
830.638845	-48.753939
830.869055	-48.492486
831.099393	-47.136736
831.329858	-46.847162
831.560451	-48.338400
831.791173	-49.413859
832.022022	-50.145270
832.252999	-49.701950
832.484105	-48.185482
832.715339	-48.048466
832.946702	-47.523818
833.178193	-46.982392
833.409813	-47.926686
833.641561	-48.835626
833.873439	-49.491643
834.105445	-49.718584
834.337581	-48.496185
834.569846	-48.471408
834.802241	-48.753726
835.034764	-47.878426
835.267418	-47.774344
835.500201	-47.991393
835.733114	-48.671582
835.966157	-50.094593
836.199329	-49.140487
836.432632	-48.145023
836.666065	-48.170546
836.899629	-48.138970
837.133323	-48.706681
837.367147	-48.814848
837.601102	-48.405360
837.835188	-48.561700
838.069405	-47.819439
838.303752	-47.153200
838.538231	-47.695037
838.772841	-48.900251
839.007582	-50.628969
839.242455	-50.062803
839.477459	-47.958605
839.712595	-47.213545
839.947863	-47.096115
840.183263	-47.340184
840.418794	-47.866151
840.654458	-48.435318
840.890254	-49.670941
841.126182	-49.915005
841.362242	-48.355985
841.598435	-47.153120
841.834761	-46.810409
842.071220	-47.421313
842.307811	-48.351351
842.544536	-49.080732
842.781393	-49.703279
843.018384	-49.047274
843.255508	-47.462060
843.492765	-46.117919
843.730156	-46.032047
843.967681	-47.587889
844.205339	-49.568930
844.443132	-49.650000
844.681058	-47.861923
844.919118	-46.677189
845.157313	-46.717705
845.395642	-46.956838
845.634105	-47.601797
845.872703	-48.547155
846.111436	-48.511238
846.350303	-47.866866
846.589306	-46.649740
846.828443	-46.325371
847.067716	-47.060887
847.307124	-47.185601
847.546667	-47.047683
847.786345	-46.807976
848.026160	-47.078431
848.266110	-48.011643
848.506195	-47.448311
848.746417	-46.698413
848.986775	-46.610154
849.227269	-46.752071
849.467899	-47.178812
849.708666	-46.567210
849.949569	-46.014783
850.190609	-46.117940
850.431785	-45.882605
850.673099	-46.053499
850.914549	-46.454736
851.156137	-46.879233
851.397861	-47.138319
851.639723	-45.953027
851.881723	-45.327842
852.123860	-45.605656
852.366135	-45.791663
852.608547	-45.804673
852.851098	-45.142888
853.093786	-45.116976
853.336613	-45.944517
853.579578	-45.796992
853.822681	-45.313409
854.065923	-44.714672
854.309304	-44.600959
854.552823	-45.147267
854.796481	-45.190451
855.040278	-45.604900
855.284215	-45.632524
855.528290	-44.612618
855.772505	-43.775964
856.016859	-43.351037
856.261353	-44.179437
856.505987	-45.383189
856.750760	-45.066227
856.995673	-44.359152
857.240727	-43.617565
857.485920	-43.462402
857.731254	-43.492154
857.976729	-43.495876
858.222343	-44.314413
858.468099	-44.813489
858.713995	-44.278079
858.960032	-43.306462
859.206211	-42.585906
859.452530	-42.691244
859.698991	-42.811305
859.945593	-43.013945
860.192336	-43.652851
860.439222	-43.938761
860.686248	-43.539268
860.933417	-42.502715
861.180728	-42.051924
861.428181	-42.477339
861.675776	-42.845190
861.923514	-42.884359
862.171394	-42.554935
862.419417	-42.272294
862.667582	-42.006362
862.915890	-41.589341
863.164342	-41.745236
863.412936	-42.383991
863.661674	-42.816111
863.910555	-42.388652
864.159579	-41.644351
864.408747	-41.422090
864.658059	-41.393528
864.907515	-41.247213
865.157114	-41.179291
865.406858	-41.377454
865.656746	-41.559874
865.906778	-41.299308
866.156955	-40.958813
866.407277	-40.974996
866.657743	-41.112019
866.908354	-40.919021
867.159110	-40.746518
867.410011	-40.910667
867.661057	-41.031733
867.912249	-40.622157
868.163586	-40.029268
868.415069	-40.046890
868.666697	-40.443873
868.918472	-40.617128
869.170392	-40.499822
869.422458	-40.330648
869.674671	-40.312242
869.927030	-39.923791
870.179536	-39.600749
870.432188	-39.756923
870.684987	-39.995245
870.937933	-40.055033
871.191026	-39.685960
871.444266	-39.679002
871.697653	-39.727060
871.951188	-39.402186
872.204870	-39.273464
872.458700	-39.431394
872.712677	-39.974850
872.966803	-39.673815
873.221076	-38.986726
873.475498	-38.749933
873.730068	-38.810739
873.984787	-39.094361
874.239654	-38.980608
874.494669	-39.048850
874.749834	-38.948773
875.005147	-38.568940
875.260610	-38.483601
875.516222	-38.645996
875.771983	-39.012779
876.027894	-38.652264
876.283954	-38.252810
876.540164	-38.311984
876.796524	-38.420227
877.053033	-38.331429
877.309693	-37.932894
877.566503	-38.029090
877.823464	-38.195930
878.080575	-38.100762
878.337837	-38.034114
878.595249	-38.001406
878.852813	-38.092450
879.110528	-37.702755
879.368393	-37.566558
879.626410	-37.685751
879.884579	-37.728066
880.142899	-37.568342
880.401371	-37.327688
880.659994	-37.551744
880.918770	-37.424565
881.177698	-37.271346
881.436778	-37.239481
881.696010	-37.551396
881.955395	-37.560436
882.214933	-37.011983
882.474623	-36.822528
882.734467	-36.841034
882.994463	-37.070992
883.254613	-36.904069
883.514916	-36.994649
883.775372	-37.057955
884.035982	-36.896078
884.296746	-36.663281
884.557664	-36.572825
884.818735	-36.758535
885.079961	-36.542168
885.341341	-36.539584
885.602876	-36.598652
885.864565	-36.668964
886.126409	-36.290160
886.388407	-36.084573
886.650561	-36.434809
886.912870	-36.635578
887.175334	-36.461174
887.437953	-36.022758
887.700728	-36.099192
887.963658	-36.118577
888.226745	-36.030378
888.489987	-35.981034
888.753385	-36.007894
889.016940	-36.081721
889.280651	-35.939404
889.544518	-36.136124
889.808543	-35.983029
890.072723	-35.659652
890.337061	-35.404653
890.601556	-35.730629
890.866208	-36.039858
891.131017	-35.606277
891.395984	-35.306513
891.661109	-35.370182
891.926391	-35.896440
892.191831	-35.760380
892.457429	-35.612432
892.723186	-35.363895
892.989100	-35.275376
893.255173	-35.157413
893.521405	-35.251097
893.787796	-35.413303
894.054345	-35.201907
894.321053	-35.249314
894.587921	-35.409424
894.854948	-35.525711
895.122134	-34.918398
895.389480	-34.768045
895.656986	-35.089933
895.924651	-35.443633
896.192477	-35.027114
896.460463	-34.638080
896.728609	-34.750286
896.996915	-35.001271
897.265382	-35.130285
897.534010	-34.990448
897.802799	-34.848704
898.071749	-34.587837
898.340860	-34.735034
898.610132	-34.947952
898.879566	-34.756538
899.149162	-34.228123
899.418919	-34.298299
899.688838	-34.979359
899.958919	-35.127485
900.229162	-34.551986
900.499568	-34.106173
900.770136	-34.346322
901.040867	-34.525202
901.311761	-34.607685
901.582817	-34.362641
901.854037	-34.174894
902.125420	-33.970300
902.396966	-34.296700
902.668676	-34.607767
902.940550	-34.405031
903.212587	-33.948211
903.484788	-33.994345
903.757153	-34.276253
904.029683	-34.057175
904.302377	-33.808295
904.575236	-33.865418
904.848259	-34.198037
905.121447	-34.103709
905.394800	-34.084233
905.668319	-33.948568
905.942002	-33.828100
906.215852	-33.627796
906.489866	-33.839687
906.764047	-33.879405
907.038393	-33.688982
907.312906	-33.602189
907.587584	-33.873110
907.862429	-33.899918
908.137441	-33.556592
908.412619	-33.447580
908.687964	-33.523666
908.963476	-33.536193
909.239155	-33.389072
909.515002	-33.471590
909.791015	-33.376798
910.067197	-33.339310
910.343546	-33.428689
910.620063	-33.642307
910.896748	-33.257602
911.173601	-32.955068
911.450623	-33.048266
911.727813	-33.396086
912.005171	-33.237649
912.282699	-33.025442
912.560395	-32.976032
912.838261	-33.100665
913.116296	-33.152982
913.394500	-33.154101
913.672874	-32.829642
913.951418	-32.497626
914.230131	-32.651565
914.509015	-33.080567
914.788068	-32.970850
915.067292	-32.503277
915.346687	-32.525958
915.626252	-32.828099
915.905988	-32.799241
916.185895	-32.442067
916.465973	-32.336481
916.746223	-32.362318
917.026644	-32.559149
917.307236	-32.669679
917.588000	-32.567234
917.868937	-32.224991
918.150045	-32.338686
918.431325	-32.543548
918.712778	-32.376408
918.994404	-31.972686
919.276202	-32.181968
919.558173	-32.452491
919.840317	-32.340115
920.122634	-32.012463
920.405125	-32.098139
920.687789	-32.122600
920.970627	-32.109717
921.253639	-31.990353
921.536824	-31.904798
921.820184	-31.754343
922.103718	-32.008664
922.387427	-32.144694
922.671310	-31.903717
922.955368	-31.623915
923.239601	-31.902978
923.524009	-31.969295
923.808592	-31.707721
924.093351	-31.561642
924.378285	-31.810009
924.663396	-31.796750
924.948682	-31.772689
925.234144	-31.790441
925.519782	-31.720074
925.805597	-31.454528
926.091589	-31.540106
926.377757	-31.603591
926.664102	-31.490783
926.950624	-31.418264
927.237323	-31.576897
927.524200	-31.416909
927.811255	-31.283471
928.098487	-31.339098
928.385897	-31.274595
928.673485	-30.930392
928.961251	-31.064834
929.249196	-31.375405
929.537319	-31.259173
929.825621	-30.881599
930.114102	-30.955031
930.402762	-31.018127
930.691601	-30.972506
930.980620	-30.856108
931.269818	-30.815971
931.559196	-30.688874
931.848753	-30.935864
932.138491	-31.017300
932.428409	-30.705927
932.718508	-30.437279
933.008787	-30.729377
933.299246	-30.709918
933.589887	-30.406378
933.880709	-30.358635
934.171712	-30.619326
934.462896	-30.517106
934.754262	-30.372096
935.045810	-30.314603
935.337539	-30.217691
935.629451	-30.147949
935.921545	-30.251455
936.213822	-30.183499
936.506281	-30.085722
936.798922	-30.235525
937.091747	-30.212691
937.384755	-29.894603
937.677946	-29.902510
937.971321	-30.176012
938.264879	-30.017538
938.558621	-29.792002
938.852547	-29.953312
939.146657	-30.129461
939.440952	-29.948709
939.735431	-29.827361
940.030095	-29.730085
940.324943	-29.725039
940.619977	-29.846723
940.915196	-29.891045
941.210600	-29.620605
941.506189	-29.663664
941.801965	-29.825920
942.097926	-29.572075
942.394074	-29.265057
942.690407	-29.466075
942.986927	-29.643098
943.283634	-29.464548
943.580527	-29.388973
943.877608	-29.366685
944.174875	-29.255062
944.472330	-29.234336
944.769972	-29.293293
945.067802	-29.162425
945.365820	-29.232077
945.664026	-29.374308
945.962420	-29.195541
946.261002	-29.016809
946.559773	-29.216205
946.858733	-29.219548
947.157881	-29.028031
947.457219	-29.129028
947.756746	-29.252801
948.056462	-29.090694
948.356368	-29.088979
948.656464	-29.182218
948.956749	-28.997196
949.257225	-28.958112
949.557891	-29.096747
949.858748	-29.036165
950.159796	-28.922398
950.461034	-29.032454
950.762463	-28.921842
951.064084	-28.797686
951.365896	-28.869404
951.667900	-28.765825
951.970095	-28.601547
952.272483	-28.821919
952.575063	-28.912878
952.877835	-28.518104
953.180799	-28.443860
953.483956	-28.647297
953.787307	-28.579282
954.090850	-28.422416
954.394586	-28.469873
954.698516	-28.472070
955.002640	-28.509797
955.306957	-28.483373
955.611469	-28.186344
955.916174	-28.165857
956.221074	-28.520133
956.526169	-28.459414
956.831458	-28.128744
957.136942	-28.266396
957.442622	-28.391892
957.748496	-28.173243
958.054567	-28.127299
958.360833	-28.226041
958.667294	-28.198617
958.973952	-28.240617
959.280806	-28.214759
959.587857	-28.004939
959.895104	-28.073502
960.202548	-28.158530
960.510189	-27.954451
960.818027	-27.978547
961.126062	-28.190034
961.434295	-27.999189
961.742726	-27.828279
962.051355	-27.976469
962.360182	-27.890588
962.669207	-27.778914
962.978431	-27.924414
963.287854	-27.921660
963.597475	-27.793976
963.907296	-27.815665
964.217315	-27.704596
964.527535	-27.613867
964.837954	-27.822949
965.148573	-27.804907
965.459392	-27.639316
965.770411	-27.739727
966.081630	-27.698474
966.393051	-27.488689
966.704672	-27.642837
967.016494	-27.784454
967.328517	-27.598052
967.640742	-27.636898
967.953169	-27.685116
968.265797	-27.502843
968.578627	-27.539146
968.891660	-27.660357
969.204895	-27.583310
969.518332	-27.637227
969.831972	-27.660845
970.145816	-27.428284
970.459862	-27.492100
970.774112	-27.652733
971.088565	-27.491382
971.403223	-27.532361
971.718084	-27.670796
972.033149	-27.449288
972.348419	-27.373595
972.663893	-27.544623
972.979572	-27.451271
973.295456	-27.432736
973.611546	-27.592802
973.927840	-27.432265
974.244340	-27.312872
974.561046	-27.393543
974.877958	-27.360140
975.195076	-27.417150
975.512401	-27.483265
975.829932	-27.279425
976.147670	-27.294656
976.465615	-27.470478
976.783767	-27.205173
977.102126	-27.138049
977.420693	-27.495000
977.739468	-27.426562
978.058451	-27.154930
978.377642	-27.200760
978.697041	-27.284489
979.016649	-27.290476
979.336466	-27.253005
979.656492	-27.162970
979.976727	-27.319120
980.297171	-27.386206
980.617825	-26.990489
980.938689	-27.021367
981.259763	-27.439801
981.581048	-27.239407
981.902542	-26.978245
982.224248	-27.175421
982.546164	-27.217056
982.868291	-27.040421
983.190630	-27.013194
983.513180	-27.091902
983.835942	-27.218375
984.158916	-27.071352
984.482101	-26.754401
984.805500	-26.974990
985.129110	-27.231463
985.452934	-26.868652
985.776970	-26.822014
986.101220	-27.105265
986.425683	-26.915789
986.750359	-26.719528
987.075250	-26.860625
987.400354	-26.974967
987.725673	-26.977022
988.051206	-26.802653
988.376954	-26.675624
988.702916	-26.915348
989.029094	-26.935037
989.355487	-26.684037
989.682095	-26.881048
990.008919	-26.992616
990.335959	-26.683210
990.663216	-26.728130
990.990688	-26.910877
991.318377	-26.865549
991.646283	-26.889937
991.974406	-26.803328
992.302746	-26.733890
992.631304	-26.887310
992.960079	-26.818466
993.289072	-26.774088
993.618283	-26.960396
993.947713	-26.799536
994.277361	-26.657804
994.607227	-26.863599
994.937313	-26.816984
995.267618	-26.732571
995.598142	-26.857650
995.928886	-26.741476
996.259849	-26.676727
996.591033	-26.742472
996.922437	-26.651074
997.254061	-26.774876
997.585906	-26.811648
997.917972	-26.512691
998.250260	-26.595774
998.582768	-26.756411
998.915498	-26.586773
999.248450	-26.622872
999.581624	-26.661632
999.915020	-26.555845
1000.248639	-26.567890
1000.582480	-26.467827
1000.916545	-26.540567
1001.250832	-26.775258
1001.585343	-26.458919
1001.920077	-26.261782
1002.255035	-26.585536
1002.590218	-26.593154
1002.925624	-26.399736
1003.261255	-26.420360
1003.597111	-26.427723
1003.933192	-26.443644
1004.269497	-26.314164
1004.606029	-26.245400
1004.942785	-26.545248
1005.279768	-26.401828
1005.616977	-26.014180
1005.954412	-26.258221
1006.292074	-26.426656
1006.629962	-26.173796
1006.968077	-26.144438
1007.306420	-26.171072
1007.644990	-26.164567
1007.983787	-26.107527
1008.322813	-25.978330
1008.662067	-26.161702
1009.001549	-26.173004
1009.341259	-25.833874
1009.681199	-25.941092
1010.021367	-26.078442
1010.361765	-25.907742
1010.702392	-25.969873
1011.043250	-25.915480
1011.384337	-25.766061
1011.725654	-25.875349
1012.067202	-25.854153
1012.408980	-25.819138
1012.750989	-25.816467
1013.093230	-25.671358
1013.435702	-25.735782
1013.778405	-25.721305
1014.121341	-25.617551
1014.464508	-25.818518
1014.807908	-25.644769
1015.151540	-25.370266
1015.495405	-25.663418
1015.839503	-25.721498
1016.183835	-25.466024
1016.528400	-25.470119
1016.873198	-25.512007
1017.218231	-25.531821
1017.563498	-25.425788
1017.908999	-25.402326
1018.254735	-25.621462
1018.600707	-25.372382
1018.946913	-25.179799
1019.293354	-25.557232
1019.640032	-25.486731
1019.986945	-25.212818
1020.334094	-25.353032
1020.681480	-25.356768
1021.029102	-25.280930
1021.376961	-25.280613
1021.725058	-25.287756
1022.073391	-25.313782
1022.421962	-25.109596
1022.770772	-25.115795
1023.119819	-25.312415
1023.469104	-25.083665
1023.818628	-25.036770
1024.168391	-25.135416
1024.518393	-24.923618
1024.868634	-24.990090
1025.219115	-25.072704
1025.569836	-24.855684
1025.920796	-24.819682
1026.271997	-24.828038
1026.623438	-24.814532
1026.975121	-24.760547
1027.327044	-24.656656
1027.679208	-24.709848
1028.031614	-24.556689
1028.384262	-24.470880
1028.737152	-24.707507
1029.090284	-24.479886
1029.443659	-24.260661
1029.797276	-24.473924
1030.151137	-24.388565
1030.505240	-24.236784
1030.859587	-24.295133
1031.214178	-24.250238
1031.569013	-24.126428
1031.924093	-24.064579
1032.279417	-24.215677
1032.634985	-24.136576
1032.990799	-23.830953
1033.346858	-24.017719
1033.703162	-24.083498
1034.059712	-23.786633
1034.416509	-23.899003
1034.773551	-23.929737
1035.130841	-23.710071
1035.488377	-23.756919
1035.846160	-23.850497
1036.204190	-23.768528
1036.562468	-23.585005
1036.920994	-23.643310
1037.279768	-23.781096
1037.638790	-23.550807
1037.998061	-23.558787
1038.357581	-23.679762
1038.717350	-23.452764
1039.077368	-23.511577
1039.437636	-23.622718
1039.798154	-23.447185
1040.158922	-23.408820
1040.519940	-23.428945
1040.881209	-23.460077
1041.242729	-23.398176
1041.604501	-23.304684
1041.966524	-23.379692
1042.328798	-23.287931
1042.691325	-23.263400
1043.054103	-23.345900
1043.417135	-23.171781
1043.780419	-23.164399
1044.143956	-23.203203
1044.507746	-23.122983
1044.871791	-23.155379
1045.236088	-23.033107
1045.600641	-22.988206
1045.965447	-23.062948
1046.330508	-22.967644
1046.695824	-22.928292
1047.061395	-22.866391
1047.427222	-22.837966
1047.793304	-22.844027
1048.159642	-22.743488
1048.526237	-22.772987
1048.893088	-22.669930
1049.260196	-22.573736
1049.627561	-22.709723
1049.995183	-22.569444
1050.363063	-22.452987
1050.731201	-22.507630
1051.099597	-22.434484
1051.468251	-22.407200
1051.837164	-22.350926
1052.206336	-22.307084
1052.575767	-22.261986
1052.945458	-22.202982
1053.315409	-22.267003
1053.685619	-22.120349
1054.056090	-22.034439
1054.426821	-22.135248
1054.797814	-22.020960
1055.169067	-21.991008
1055.540582	-21.972484
1055.912359	-21.888102
1056.284398	-21.923188
1056.656698	-21.869710
1057.029262	-21.835454
1057.402088	-21.770641
1057.775177	-21.738229
1058.148530	-21.811538
1058.522146	-21.691275
1058.896027	-21.663868
1059.270171	-21.671718
1059.644580	-21.610122
1060.019254	-21.663283
1060.394193	-21.558919
1060.769397	-21.525900
1061.144867	-21.554026
1061.520602	-21.492420
1061.896604	-21.539201
1062.272872	-21.445113
1062.649407	-21.413936
1063.026210	-21.458182
1063.403279	-21.391780
1063.780616	-21.408561
1064.158221	-21.320482
1064.536094	-21.325379
1064.914235	-21.355367
1065.292645	-21.251625
1065.671325	-21.295326
1066.050273	-21.217683
1066.429491	-21.194808
1066.808979	-21.223901
1067.188738	-21.105414
1067.568766	-21.137893
1067.949066	-21.093747
1068.329636	-21.062506
1068.710478	-21.051291
1069.091592	-20.963596
1069.472977	-21.006380
1069.854635	-20.929117
1070.236565	-20.907105
1070.618768	-20.881534
1071.001243	-20.794608
1071.383993	-20.867994
1071.767016	-20.763228
1072.150313	-20.716918
1072.533884	-20.715214
1072.917730	-20.641198
1073.301850	-20.666330
1073.686246	-20.552987
1074.070917	-20.536783
1074.455864	-20.524201
1074.841087	-20.469173
1075.226586	-20.467666
1075.612362	-20.343311
1075.998415	-20.387755
1076.384745	-20.345956
1076.771353	-20.268986
1077.158238	-20.296210
1077.545401	-20.195883
1077.932843	-20.247055
1078.320564	-20.195533
1078.708564	-20.129521
1079.096842	-20.145960
1079.485401	-20.080465
1079.874240	-20.120327
1080.263358	-20.025089
1080.652757	-20.018250
1081.042438	-20.032748
1081.432399	-19.961230
1081.822641	-19.985387
1082.213166	-19.884067
1082.603972	-19.928745
1082.995061	-19.901359
1083.386433	-19.832705
1083.778087	-19.882496
1084.170025	-19.799258
1084.562246	-19.847472
1084.954751	-19.794439
1085.347541	-19.771823
1085.740615	-19.786845
1086.133973	-19.725569
1086.527617	-19.796455
1086.921546	-19.691913
1087.315761	-19.717051
1087.710262	-19.717515
1088.105050	-19.649338
1088.500124	-19.677744
1088.895485	-19.572871
1089.291134	-19.639989
1089.687070	-19.568179
1090.083294	-19.517288
1090.479806	-19.536605
1090.876607	-19.449591
1091.273696	-19.487808
1091.671075	-19.370465
1092.068744	-19.390518
1092.466702	-19.371566
1092.864950	-19.307725
1093.263489	-19.327373
1093.662319	-19.226607
1094.061440	-19.288078
1094.460852	-19.195807
1094.860555	-19.170374
1095.260551	-19.178973
1095.660840	-19.110733
1096.061421	-19.132543
1096.462295	-19.026265
1096.863462	-19.058869
1097.264923	-18.974003
1097.666678	-18.944722
1098.068727	-18.930318
1098.471071	-18.824205
1098.873710	-18.875772
1099.276644	-18.761391
1099.679874	-18.752222
1100.083400	-18.692262
1100.487222	-18.669638
1100.891340	-18.656761
1101.295756	-18.557053
1101.700468	-18.631200
1102.105478	-18.540553
1102.510787	-18.557267
1102.916393	-18.522297
1103.322298	-18.508995
1103.728502	-18.545619
1104.135005	-18.473127
1104.541807	-18.540268
1104.948909	-18.485677
1105.356312	-18.529781
1105.764015	-18.481253
1106.172019	-18.474909
1106.580324	-18.505685
1106.988931	-18.437709
1107.397840	-18.480938
1107.807051	-18.392017
1108.216564	-18.443861
1108.626380	-18.358760
1109.036500	-18.323619
1109.446923	-18.337735
1109.857649	-18.254952
1110.268680	-18.272314
1110.680016	-18.191432
1111.091657	-18.208278
1111.503602	-18.138195
1111.915854	-18.145555
1112.328411	-18.087234
1112.741275	-18.093810
1113.154445	-18.118706
1113.567922	-18.010666
1113.981706	-18.113402
1114.395798	-18.027626
1114.810198	-18.055970
1115.224906	-18.041092
1115.639923	-18.041142
1116.055249	-18.058965
1116.470884	-18.005871
1116.886829	-18.044828
1117.303084	-17.965109
1117.719650	-18.010181
1118.136526	-17.917176
1118.553713	-17.923872
1118.971212	-17.889388
1119.389022	-17.823910
1119.807145	-17.775113
1120.225580	-17.717930
1120.644328	-17.695374
1121.063389	-17.555252
1121.482763	-17.608680
1121.902452	-17.457798
1122.322454	-17.455355
1122.742771	-17.388842
1123.163404	-17.300460
1123.584351	-17.336348
1124.005614	-17.220365
1124.427193	-17.241818
1124.849089	-17.198966
1125.271301	-17.198825
1125.693830	-17.136325
1126.116677	-17.193844
1126.539842	-17.154000
1126.963324	-17.171732
1127.387126	-17.205897
1127.811246	-17.169340
1128.235685	-17.252309
1128.660444	-17.187346
1129.085522	-17.268640
1129.510922	-17.250851
1129.936641	-17.289341
1130.362682	-17.263975
1130.789044	-17.301590
1131.215728	-17.279009
1131.642734	-17.253847
1132.070063	-17.284733
1132.497714	-17.213317
1132.925689	-17.250750
1133.353987	-17.137380
1133.782610	-17.173046
1134.211556	-17.073914
1134.640827	-17.049918
1135.070424	-17.003187
1135.500345	-16.950791
1135.930593	-16.899703
1136.361166	-16.828934
1136.792067	-16.804586
1137.223294	-16.722750
1137.654848	-16.712200
1138.086730	-16.628807
1138.518940	-16.645943
1138.951479	-16.539321
1139.384346	-16.557718
1139.817543	-16.502752
1140.251069	-16.490608
1140.684925	-16.471437
1141.119111	-16.446914
1141.553628	-16.456388
1141.988475	-16.402422
1142.423655	-16.439528
1142.859166	-16.402999
1143.295009	-16.433776
1143.731185	-16.390328
1144.167694	-16.436613
1144.604536	-16.385009
1145.041711	-16.413806
1145.479221	-16.396788
1145.917065	-16.410138
1146.355245	-16.391578
1146.793759	-16.380391
1147.232609	-16.388201
1147.671795	-16.340923
1148.111317	-16.364527
1148.551177	-16.318891
1148.991373	-16.335510
1149.431907	-16.263800
1149.872779	-16.287673
1150.313989	-16.221316
1150.755538	-16.223982
1151.197426	-16.177936
1151.639653	-16.169619
1152.082220	-16.113319
1152.525128	-16.090316
1152.968376	-16.061954
1153.411966	-16.023283
1153.855897	-16.000922
1154.300169	-15.964096
1154.744784	-15.941228
1155.189742	-15.882369
1155.635042	-15.888711
1156.080687	-15.828803
1156.526674	-15.833614
1156.973007	-15.772520
1157.419683	-15.784417
1157.866705	-15.713395
1158.314072	-15.731975
1158.761786	-15.687121
1159.209845	-15.687880
1159.658251	-15.648236
1160.107004	-15.647445
1160.556104	-15.617121
1161.005553	-15.603892
1161.455349	-15.607024
1161.905494	-15.579095
1162.355989	-15.576578
1162.806832	-15.550205
1163.258026	-15.562347
1163.709570	-15.524803
1164.161464	-15.552700
1164.613710	-15.513828
1165.066307	-15.525986
1165.519256	-15.488905
1165.972558	-15.513841
1166.426212	-15.471758
1166.880219	-15.494595
1167.334580	-15.458669
1167.789295	-15.461073
1168.244364	-15.427982
1168.699788	-15.441433
1169.155567	-15.407381
1169.611702	-15.404471
1170.068193	-15.378190
1170.525041	-15.361542
1170.982245	-15.336176
1171.439807	-15.325490
1171.897726	-15.303103
1172.356004	-15.272054
1172.814640	-15.254889
1173.273635	-15.219750
1173.732989	-15.202859
1174.192703	-15.174876
1174.652778	-15.155867
1175.113213	-15.111722
1175.574009	-15.096996
1176.035167	-15.060063
1176.496687	-15.043107
1176.958569	-15.007959
1177.420814	-14.990063
1177.883422	-14.943342
1178.346394	-14.932806
1178.809730	-14.895899
1179.273430	-14.881183
1179.737496	-14.844339
1180.201927	-14.828716
1180.666723	-14.787362
1181.131886	-14.781986
1181.597416	-14.749988
1182.063312	-14.737629
1182.529576	-14.703710
1182.996209	-14.695322
1183.463209	-14.661669
1183.930579	-14.664270
1184.398317	-14.635217
1184.866426	-14.627100
1185.334904	-14.600117
1185.803754	-14.601071
1186.272974	-14.575786
1186.742566	-14.583249
1187.212529	-14.556526
1187.682865	-14.554567
1188.153574	-14.536720
1188.624656	-14.544037
1189.096112	-14.522638
1189.567942	-14.531808
1190.040147	-14.507658
1190.512726	-14.512103
1190.985681	-14.499199
1191.459012	-14.507605
1191.932720	-14.487270
1192.406804	-14.493467
1192.881265	-14.471948
1193.356104	-14.481014
1193.831322	-14.466828
1194.306918	-14.470662
1194.782893	-14.447609
1195.259248	-14.453670
1195.735982	-14.431820
1196.213097	-14.441499
1196.690593	-14.420332
1197.168471	-14.416746
1197.646730	-14.395151
1198.125371	-14.397656
1198.604395	-14.377556
1199.083803	-14.373856
1199.563594	-14.353155
1200.043769	-14.337324
1200.524329	-14.326968
1201.005273	-14.312470
1201.486604	-14.297711
1201.968320	-14.274643
1202.450422	-14.260281
1202.932912	-14.235723
1203.415789	-14.229786
1203.899054	-14.198640
1204.382707	-14.182289
1204.866748	-14.154306
1205.351179	-14.138679
1205.836000	-14.113421
1206.321211	-14.096806
1206.806812	-14.059008
1207.292805	-14.046395
1207.779189	-14.011529
1208.265965	-14.003143
1208.753134	-13.959728
1209.240696	-13.951603
1209.728651	-13.900891
1210.217000	-13.909056
1210.705744	-13.853378
1211.194883	-13.856639
1211.684417	-13.802814
1212.174347	-13.799662
1212.664673	-13.766595
1213.155396	-13.749057
1213.646516	-13.726967
1214.138034	-13.687778
1214.629951	-13.696340
1215.122266	-13.639633
1215.614980	-13.667825
1216.108095	-13.591371
1216.601609	-13.625963
1217.095524	-13.563988
1217.589841	-13.588382
1218.084559	-13.546252
1218.579679	-13.534221
1219.075202	-13.536695
1219.571128	-13.488609
1220.067458	-13.541466
1220.564191	-13.438765
1221.061330	-13.532703
1221.558874	-13.406168
1222.056823	-13.522824
1222.555178	-13.397346
1223.053940	-13.481512
1223.553109	-13.403302
1224.052686	-13.434598
1224.552671	-13.434169
1225.053065	-13.376590
1225.553867	-13.455025
1226.055079	-13.324064
1226.556702	-13.478731
1227.058735	-13.295336
1227.561179	-13.464824
1228.064035	-13.284897
1228.567303	-13.431387
1229.070983	-13.309546
1229.575077	-13.375573
1230.079585	-13.330231
1230.584506	-13.315132
1231.089842	-13.360380
1231.595594	-13.269567
1232.101761	-13.362497
1232.608345	-13.229943
1233.115345	-13.353312
1233.622762	-13.221360
1234.130597	-13.318431
1234.638851	-13.212048
1235.147523	-13.270832
1235.656615	-13.223059
1236.166126	-13.223772
1236.676058	-13.215354
1237.186411	-13.173462
1237.697185	-13.209797
1238.208381	-13.141597
1238.719999	-13.184327
1239.232040	-13.103262
1239.744505	-13.153228
1240.257394	-13.086635
1240.770708	-13.111622
1241.284446	-13.058559
1241.798610	-13.062222
1242.313201	-13.045239
1242.828218	-13.019148
1243.343662	-13.012650
1243.859534	-12.971450
1244.375834	-12.984001
1244.892563	-12.941472
1245.409721	-12.940114
1245.927309	-12.900787
1246.445327	-12.900139
1246.963777	-12.875648
1247.482657	-12.858309
1248.001970	-12.832315
1248.521716	-12.819896
1249.041894	-12.803953
1249.562506	-12.786891
1250.083553	-12.760065
1250.605034	-12.749643
1251.126950	-12.733880
1251.649302	-12.720377
1252.172091	-12.697955
1252.695316	-12.680390
1253.218979	-12.678776
1253.743079	-12.654004
1254.267619	-12.650798
1254.792597	-12.618342
1255.318015	-12.630197
1255.843874	-12.605259
1256.370173	-12.599670
1256.896913	-12.582551
1257.424095	-12.574511
1257.951720	-12.579584
1258.479787	-12.549501
1259.008298	-12.557486
1259.537254	-12.533959
1260.066654	-12.548581
1260.596499	-12.525762
1261.126790	-12.518979
1261.657527	-12.519975
1262.188711	-12.509176
1262.720342	-12.515340
1263.252422	-12.486826
1263.784950	-12.502850
1264.317928	-12.489173
1264.851355	-12.490540
1265.385232	-12.478090
1265.919560	-12.472250
1266.454340	-12.484041
1266.989572	-12.463330
1267.525256	-12.468534
1268.061394	-12.453134
1268.597985	-12.466307
1269.135031	-12.453648
1269.672531	-12.444306
1270.210487	-12.447973
1270.748899	-12.441267
1271.287768	-12.446072
1271.827094	-12.424013
1272.366877	-12.433860
1272.907119	-12.427945
1273.447820	-12.424588
1273.988981	-12.414355
1274.530601	-12.409702
1275.072683	-12.417538
1275.615226	-12.400541
1276.158230	-12.398102
1276.701697	-12.389973
1277.245627	-12.394843
1277.790021	-12.381590
1278.334879	-12.370182
1278.880202	-12.371311
1279.425991	-12.365121
1279.972245	-12.356561
1280.518966	-12.339998
1281.066155	-12.342525
1281.613811	-12.334254
1282.161936	-12.320003
1282.710529	-12.308086
1283.259593	-12.304199
1283.809126	-12.298048
1284.359131	-12.277075
1284.909607	-12.268721
1285.460555	-12.262666
1286.011976	-12.252275
1286.563870	-12.232184
1287.116237	-12.221454
1287.669080	-12.218715
1288.222397	-12.200287
1288.776191	-12.183916
1289.330460	-12.173317
1289.885207	-12.167962
1290.440431	-12.149877
1290.996133	-12.129135
1291.552314	-12.127728
1292.108975	-12.113335
1292.666115	-12.097546
1293.223737	-12.079868
1293.781839	-12.076194
1294.340424	-12.066181
1294.899491	-12.040214
1295.459041	-12.037092
1296.019075	-12.026012
1296.579593	-12.015249
1297.140597	-11.994786
1297.702086	-11.986985
1298.264061	-11.987152
1298.826524	-11.960271
1299.389474	-11.954420
1299.952912	-11.946299
1300.516839	-11.938480
1301.081255	-11.922450
1301.646162	-11.907115
1302.211559	-11.914355
1302.777448	-11.892723
1303.343829	-11.880616
1303.910702	-11.878668
1304.478069	-11.869030
1305.045930	-11.861192
1305.614285	-11.841040
1306.183136	-11.848425
1306.752483	-11.838057
1307.322326	-11.817438
1307.892666	-11.822536
1308.463504	-11.812604
1309.034841	-11.807310
1309.606677	-11.792726
1310.179012	-11.791714
1310.751849	-11.796138
1311.325186	-11.770161
1311.899025	-11.776223
1312.473366	-11.775435
1313.048211	-11.763079
1313.623559	-11.761355
1314.199412	-11.753304
1314.775770	-11.763850
1315.352634	-11.745970
1315.930004	-11.741392
1316.507881	-11.756888
1317.086266	-11.737609
1317.665159	-11.739429
1318.244562	-11.740547
1318.824474	-11.738795
1319.404897	-11.738701
1319.985831	-11.724356
1320.567276	-11.742873
1321.149234	-11.733047
1321.731706	-11.720067
1322.314691	-11.739078
1322.898190	-11.726769
1323.482205	-11.725333
1324.066736	-11.725450
1324.651783	-11.724228
1325.237347	-11.729980
1325.823430	-11.710698
1326.410031	-11.724182
1326.997151	-11.726843
1327.584791	-11.703893
1328.172952	-11.721537
1328.761634	-11.716303
1329.350839	-11.707670
1329.940566	-11.712327
1330.530817	-11.706192
1331.121592	-11.714498
1331.712891	-11.699937
1332.304716	-11.700781
1332.897068	-11.716005
1333.489946	-11.690616
1334.083352	-11.699657
1334.677287	-11.708795
1335.271750	-11.688532
1335.866744	-11.697999
1336.462268	-11.695523
1337.058323	-11.692020
1337.654910	-11.691907
1338.252029	-11.682424
1338.849682	-11.695828
1339.447869	-11.682003
1340.046591	-11.673309
1340.645848	-11.693744
1341.245641	-11.670646
1341.845972	-11.668297
1342.446840	-11.683176
1343.048246	-11.662075
1343.650191	-11.664391
1344.252677	-11.666123
1344.855702	-11.656336
1345.459269	-11.657739
1346.063379	-11.646759
1346.668030	-11.651828
1347.273226	-11.646922
1347.878965	-11.629206
1348.485250	-11.645656
1349.092080	-11.632350
1349.699456	-11.615823
1350.307380	-11.635253
1350.915851	-11.616048
1351.524871	-11.605750
1352.134441	-11.619930
1352.744560	-11.601091
1353.355231	-11.597557
1353.966453	-11.601733
1354.578227	-11.588209
1355.190555	-11.589047
1355.803436	-11.581848
1356.416872	-11.578252
1357.030863	-11.578911
1357.645411	-11.563392
1358.260515	-11.570160
1358.876177	-11.566944
1359.492397	-11.547911
1360.109176	-11.562514
1360.726516	-11.554081
1361.344416	-11.535485
1361.962877	-11.554372
1362.581901	-11.540922
1363.201487	-11.526535
1363.821637	-11.545229
1364.442352	-11.528969
1365.063632	-11.519980
1365.685478	-11.534765
1366.307891	-11.518557
1366.930871	-11.514693
1367.554420	-11.523905
1368.178538	-11.510125
1368.803226	-11.510361
1369.428485	-11.512891
1370.054315	-11.503758
1370.680717	-11.505737
1371.307693	-11.502773
1371.935242	-11.498841
1372.563366	-11.501245
1373.192065	-11.493791
1373.821341	-11.495523
1374.451193	-11.496447
1375.081623	-11.486517
1375.712632	-11.493083
1376.344221	-11.491904
1376.976389	-11.480843
1377.609139	-11.491487
1378.242470	-11.487457
1378.876384	-11.476891
1379.510881	-11.490508
1380.145963	-11.483808
1380.781629	-11.474907
1381.417881	-11.490359
1382.054720	-11.481432
1382.692147	-11.474723
1383.330161	-11.491495
1383.968765	-11.480557
1384.607959	-11.476799
1385.247743	-11.493585
1385.888119	-11.481115
1386.529087	-11.479869
1387.170648	-11.496003
1387.812804	-11.482286
1388.455554	-11.483558
1389.098899	-11.498295
1389.742842	-11.483911
1390.387381	-11.487330
1391.032519	-11.500419
1391.678256	-11.485909
1392.324592	-11.491559
1392.971529	-11.502697
1393.619068	-11.489134
1394.267208	-11.496617
1394.915952	-11.505996
1395.565300	-11.494231
1396.215253	-11.503159
1396.865812	-11.510985
1397.516977	-11.501603
1398.168749	-11.511197
1398.821130	-11.517191
1399.474120	-11.510749
1400.127719	-11.519603
1400.781930	-11.524091
1401.436752	-11.520861
1402.092186	-11.527836
1402.748234	-11.531527
1403.404897	-11.531661
1404.062174	-11.535671
1404.720067	-11.539361
1405.378577	-11.542688
1406.037705	-11.542966
1406.697451	-11.547766
1407.357817	-11.553975
1408.018803	-11.550308
1408.680410	-11.557816
1409.342639	-11.566067
1410.005492	-11.559308
1410.668968	-11.570477
1411.333068	-11.579533
1411.997795	-11.571116
1412.663147	-11.585594
1413.329127	-11.594078
1413.995736	-11.585772
1414.662973	-11.602504
1415.330840	-11.609655
1415.999339	-11.603804
1416.668469	-11.621120
1417.338232	-11.626854
1418.008628	-11.625774
1418.679659	-11.640783
1419.351325	-11.645908
1420.023628	-11.650382
1420.696568	-11.660221
1421.370145	-11.666447
1422.044362	-11.675788
1422.719219	-11.679565
1423.394717	-11.689135
1424.070856	-11.702038
1424.747638	-11.701028
1425.425064	-11.715431
1426.103134	-11.729200
1426.781850	-11.726432
1427.461212	-11.744641
1428.141221	-11.756102
1428.821878	-11.755565
1429.503185	-11.773653
1430.185141	-11.781952
1430.867749	-11.787158
1431.551008	-11.801591
1432.234920	-11.809207
1432.919486	-11.822651
1433.604707	-11.831462
1434.290583	-11.842731
1434.977116	-11.862377
1435.664307	-11.865708
1436.352156	-11.882330
1437.040664	-11.901674
1437.729833	-11.902675
1438.419663	-11.922178
1439.110156	-11.935987
1439.801312	-11.941259
1440.493132	-11.959676
1441.185617	-11.969710
1441.878768	-11.985961
1442.572586	-12.000461
1443.267072	-12.013557
1443.962228	-12.040332
1444.658053	-12.050168
1445.354549	-12.070130
1446.051717	-12.097769
1446.749558	-12.105556
1447.448073	-12.128831
1448.147263	-12.147101
1448.847128	-12.159628
1449.547671	-12.179600
1450.248891	-12.190389
1450.950789	-12.214575
1451.653368	-12.230206
1452.356627	-12.246764
1453.060568	-12.282451
1453.765192	-12.300629
1454.470500	-12.332523
1455.176492	-12.370128
1455.883170	-12.399352
1456.590534	-12.440072
1457.298586	-12.470013
1458.007327	-12.510796
1458.716758	-12.545030
1459.426880	-12.569314
1460.137693	-12.612910
1460.849199	-12.638246
1461.561398	-12.670449
1462.274293	-12.710408
1462.987883	-12.745849
1463.702170	-12.797495
1464.417155	-12.841276
1465.132838	-12.907056
1465.849222	-12.977015
1466.566306	-13.041075
1467.284093	-13.131146
1468.002582	-13.209809
1468.721775	-13.296766
1469.441674	-13.380464
1470.162278	-13.458113
1470.883590	-13.543698
1471.605609	-13.599937
1472.328338	-13.667784
1473.051777	-13.724955
1473.775928	-13.768145
1474.500790	-13.820664
1475.226367	-13.858901
1475.952657	-13.917808
1476.679663	-13.964704
1477.407386	-14.023758
1478.135826	-14.104595
1478.864985	-14.174447
1479.594863	-14.271177
1480.325463	-14.359911
1481.056784	-14.465631
1481.788828	-14.564928
1482.521597	-14.646508
1483.255090	-14.740757
1483.989309	-14.793518
1484.724256	-14.841375
1485.459931	-14.854853
1486.196336	-14.850248
1486.933471	-14.832847
1487.671337	-14.776055
1488.409937	-14.737267
1489.149270	-14.674783
1489.889337	-14.629159
1490.630141	-14.586466
1491.371682	-14.560140
1492.113961	-14.570481
1492.856979	-14.580532
1493.600738	-14.645325
1494.345238	-14.721430
1495.090481	-14.846657
1495.836467	-14.992433
1496.583198	-15.173464
1497.330675	-15.401768
1498.078899	-15.636577
1498.827872	-15.924135
1499.577593	-16.208460
1500.328065	-16.537897
1501.079289	-16.848003
1501.831265	-17.165059
1502.583995	-17.470504
1503.337480	-17.731208
1504.091721	-17.969153
1504.846719	-18.119291
1505.602475	-18.251195
1506.358991	-18.281116
1507.116268	-18.277093
1507.874306	-18.203032
1508.633108	-18.100525
1509.392673	-17.970375
1510.153004	-17.806252
1510.914101	-17.666997
1511.675965	-17.508326
1512.438599	-17.399464
1513.202002	-17.283783
1513.966176	-17.245306
1514.731122	-17.228957
1515.496842	-17.295081
1516.263336	-17.418672
1517.030607	-17.647754
1517.798654	-17.985070
1518.567479	-18.448926
1519.337083	-19.100137
1520.107468	-19.953186
1520.878634	-21.135912
1521.650584	-22.691999
1522.423317	-24.961541
1523.196836	-28.247111
1523.971141	-33.176136
1524.746233	-33.118123
1525.522115	-27.479421
1526.298786	-23.298891
1527.076249	-20.252846
1527.854504	-17.882903
1528.633553	-15.953166
1529.413397	-14.319004
1530.194037	-12.926876
1530.975474	-11.700885
1531.757709	-10.631050
1532.540745	-9.667230
1533.324581	-8.819105
1534.109220	-8.048947
1534.894662	-7.368645
1535.680909	-6.751178
1536.467961	-6.210247
1537.255821	-5.727050
1538.044489	-5.310630
1538.833967	-4.949762
1539.624256	-4.651299
1540.415357	-4.409434
1541.207271	-4.225596
1542.000000	-4.098447
1542.793545	-4.026747
1543.587907	-4.012563
1544.383087	-4.049853
1545.179088	-4.143136
1545.975909	-4.284730
1546.773552	-4.481578
1547.572019	-4.722576
1548.371311	-5.016441
1549.171428	-5.351590
1549.972373	-5.739783
1550.774147	-6.167354
1551.576751	-6.648172
1552.380185	-7.169316
1553.184453	-7.748865
1553.989554	-8.372783
1554.795490	-9.061346
1555.602263	-9.801132
1556.409873	-10.616412
1557.218322	-11.491161
1558.027612	-12.446837
1558.837743	-13.459355
1559.648717	-14.537776
1560.460536	-15.630247
1561.273200	-16.690605
1562.086710	-17.600621
1562.901069	-18.234265
1563.716278	-18.492222
1564.532337	-18.348548
1565.349249	-17.923229
1566.167014	-17.314552
1566.985634	-16.671647
1567.805111	-16.027995
1568.625444	-15.456251
1569.446637	-14.937406
1570.268690	-14.508233
1571.091605	-14.139431
1571.915382	-13.856127
1572.740024	-13.626789
1573.565532	-13.470691
1574.391907	-13.359315
1575.219150	-13.311371
1576.047262	-13.298925
1576.876246	-13.337784
1577.706103	-13.399952
1578.536833	-13.502767
1579.368439	-13.618745
1580.200922	-13.763945
1581.034282	-13.909488
1581.868522	-14.074346
1582.703643	-14.231608
1583.539646	-14.402809
1584.376532	-14.559853
1585.214304	-14.727834
1586.052962	-14.881349
1586.892508	-15.049896
1587.732943	-15.207330
1588.574269	-15.383007
1589.416487	-15.551305
1590.259599	-15.744411
1591.103605	-15.935466
1591.948508	-16.154292
1592.794309	-16.371238
1593.641009	-16.615988
1594.488609	-16.859110
1595.337112	-17.128157
1596.186518	-17.391113
1597.036829	-17.672645
1597.888047	-17.942390
1598.740172	-18.225041
1599.593207	-18.490464
1600.447153	-18.759042
1601.302010	-19.002562
1602.157782	-19.240066
1603.014469	-19.448970
1603.872072	-19.643841
1604.730593	-19.806333
1605.590034	-19.945740
1606.450397	-20.052162
1607.311681	-20.131228
1608.173890	-20.180166
1609.037024	-20.195180
1609.901085	-20.184159
1610.766075	-20.135580
1611.631995	-20.068521
1612.498846	-19.963339
1613.366630	-19.846591
1614.235349	-19.691097
1615.105004	-19.532977
1615.975596	-19.339705
1616.847128	-19.151553
1617.719600	-18.933344
1618.593014	-18.725164
1619.467372	-18.494983
1620.342675	-18.279271
1621.218924	-18.050893
1622.096122	-17.836750
1622.974270	-17.619351
1623.853369	-17.414058
1624.733420	-17.215400
1625.614427	-17.024885
1626.496389	-16.847724
1627.379308	-16.671838
1628.263187	-16.513873
1629.148026	-16.352151
1630.033828	-16.209495
1630.920593	-16.058937
1631.808324	-15.924974
1632.697022	-15.782341
1633.586688	-15.651973
1634.477324	-15.516329
1635.368932	-15.385759
1636.261514	-15.254186
1637.155070	-15.120723
1638.049602	-14.992643
1638.945113	-14.858372
1639.841603	-14.734687
1640.739075	-14.603169
1641.637529	-14.484355
1642.536968	-14.360494
1643.437393	-14.248720
1644.338806	-14.137207
1645.241209	-14.033390
1646.144602	-13.935237
1647.048988	-13.839327
1647.954368	-13.754193
1648.860744	-13.666939
1649.768118	-13.591815
1650.676491	-13.512194
1651.585865	-13.441928
1652.496241	-13.368560
1653.407621	-13.299995
1654.320008	-13.233169
1655.233401	-13.166000
1656.147804	-13.105881
1657.063218	-13.041984
1657.979645	-12.987811
1658.897085	-12.929386
1659.815542	-12.879046
1660.735016	-12.827884
1661.655509	-12.780639
1662.577023	-12.738397
1663.499560	-12.695057
1664.423121	-12.660814
1665.347709	-12.622306
1666.273324	-12.592221
1667.199969	-12.559497
1668.127645	-12.530860
1669.056353	-12.504391
1669.986097	-12.475878
1670.916877	-12.454519
1671.848695	-12.428076
1672.781553	-12.409402
1673.715452	-12.387881
1674.650395	-12.369847
1675.586383	-12.354426
1676.523418	-12.336703
1677.461501	-12.326500
1678.400635	-12.311522
1679.340821	-12.303178
1680.282061	-12.292937
1681.224357	-12.284028
1682.167710	-12.278789
1683.112122	-12.269445
1684.057595	-12.266835
1685.004132	-12.259633
1685.951732	-12.256478
1686.900400	-12.253722
1687.850135	-12.249786
1688.800940	-12.251768
1689.752818	-12.249343
1690.705768	-12.252874
1691.659795	-12.254429
1692.614898	-12.256779
1693.571081	-12.262426
1694.528345	-12.263827
1695.486691	-12.271075
1696.446122	-12.274653
1697.406640	-12.280604
1698.368245	-12.288555
1699.330941	-12.293559
1700.294729	-12.304348
1701.259611	-12.310947
1702.225588	-12.320584
1703.192664	-12.330760
1704.160838	-12.338041
1705.130114	-12.350221
1706.100493	-12.357825
1707.071977	-12.368461
1708.044568	-12.379113
1709.018268	-12.386988
1709.993079	-12.399666
1710.969003	-12.408240
1711.946041	-12.419675
1712.924196	-12.431663
1713.903469	-12.440720
1714.883862	-12.454353
1715.865378	-12.464169
1716.848017	-12.475738
1717.831783	-12.488343
1718.816677	-12.497296
1719.802701	-12.510367
1720.789857	-12.520408
1721.778147	-12.531230
1722.767573	-12.544453
1723.758136	-12.554047
1724.749840	-12.567347
1725.742685	-12.578756
1726.736673	-12.589269
1727.731808	-12.602702
1728.728090	-12.612183
1729.725521	-12.624011
1730.724105	-12.635363
1731.723842	-12.644423
1732.724735	-12.657213
1733.726785	-12.667162
1734.729995	-12.678283
1735.734366	-12.691228
1736.739902	-12.700958
1737.746603	-12.714182
1738.754472	-12.726222
1739.763510	-12.737232
1740.773721	-12.751767
1741.785105	-12.763181
1742.797665	-12.776448
1743.811403	-12.791434
1744.826321	-12.803578
1745.842422	-12.819560
1746.859706	-12.834618
1747.878177	-12.848499
1748.897835	-12.866041
1749.918685	-12.880704
1750.940726	-12.896311
1751.963963	-12.913687
1752.988395	-12.927304
1754.014027	-12.943185
1755.040860	-12.958522
1756.068895	-12.971323
1757.098135	-12.987495
1758.128583	-13.001870
1759.160240	-13.015614
1760.193109	-13.031857
1761.227191	-13.044797
1762.262488	-13.058309
1763.299004	-13.072877
1764.336740	-13.084280
1765.375697	-13.097924
1766.415880	-13.111848
1767.457288	-13.123867
1768.499926	-13.138871
1769.543794	-13.152760
1770.588895	-13.165370
1771.635231	-13.180362
1772.682805	-13.193164
1773.731619	-13.206167
1774.781674	-13.221626
1775.832973	-13.234947
1776.885519	-13.249198
1777.939312	-13.264608
1778.994357	-13.277452
1780.050654	-13.291889
1781.108207	-13.306871
1782.167017	-13.319734
1783.227087	-13.334523
1784.288418	-13.349061
1785.351013	-13.361884
1786.414875	-13.376962
1787.480006	-13.391520
1788.546407	-13.404904
1789.614082	-13.420206
1790.683032	-13.433922
1791.753259	-13.446088
1792.824767	-13.459280
1793.897557	-13.470543
1794.971632	-13.481167
1796.046994	-13.493572
1797.123645	-13.504908
1798.201588	-13.516262
1799.280824	-13.528652
1800.361357	-13.539027
1801.443188	-13.548891
1802.526320	-13.559562
1803.610756	-13.568891
1804.696497	-13.578920
1805.783546	-13.590382
1806.871906	-13.600810
1807.961578	-13.611704
1809.052565	-13.623240
1810.144870	-13.633126
1811.238494	-13.643371
1812.333441	-13.654393
1813.429713	-13.664304
1814.527311	-13.675143
1815.626239	-13.687115
1816.726499	-13.697929
1817.828094	-13.709081
1818.931025	-13.720777
1820.035295	-13.731041
1821.140906	-13.741547
1822.247862	-13.753113
1823.356165	-13.763480
1824.465816	-13.773716
1825.576819	-13.784447
1826.689175	-13.793459
1827.802888	-13.801666
1828.917960	-13.810793
1830.034394	-13.819154
1831.152191	-13.827074
1832.271354	-13.835840
1833.391887	-13.843523
1834.513790	-13.849827
1835.637068	-13.856739
1836.761722	-13.863445
1837.887755	-13.869474
1839.015169	-13.876505
1840.143968	-13.883607
1841.274153	-13.889038
1842.405727	-13.893988
1843.538693	-13.898547
1844.673053	-13.901578
1845.808810	-13.904596
1846.945966	-13.908604
1848.084525	-13.911903
1849.224488	-13.914516
1850.365858	-13.917266
1851.508638	-13.918790
1852.652831	-13.919116
1853.798438	-13.919847
1854.945463	-13.920551
1856.093909	-13.920746
1857.243777	-13.921472
1858.395071	-13.922256
1859.547794	-13.922129
1860.701947	-13.921843
1861.857533	-13.921843
1863.014556	-13.921307
1864.173018	-13.920421
1865.332922	-13.919545
1866.494270	-13.918087
1867.657065	-13.916166
1868.821309	-13.914560
1869.987006	-13.913153
1871.154158	-13.911635
1872.322768	-13.910366
1873.492839	-13.908991
1874.664373	-13.906913
1875.837373	-13.904729
1877.011841	-13.902739
1878.187782	-13.900505
1879.365197	-13.898197
1880.544089	-13.895972
1881.724460	-13.893157
1882.906315	-13.889740
1884.089655	-13.886088
1885.274483	-13.881769
1886.460803	-13.876859
1887.648616	-13.872087
1888.837927	-13.867411
1890.028736	-13.862739
1891.221049	-13.858208
1892.414866	-13.853258
1893.610192	-13.847416
1894.807028	-13.841028
1896.005379	-13.834343
1897.205246	-13.827294
1898.406633	-13.820178
1899.609542	-13.812494
1900.813977	-13.803934
1902.019940	-13.795083
1903.227434	-13.785836
1904.436462	-13.775606
1905.647028	-13.765141
1906.859133	-13.755132
1908.072781	-13.744612
1909.287976	-13.733666
1910.504719	-13.723387
1911.723013	-13.712774
1912.942863	-13.700897
1914.164270	-13.689396
1915.387238	-13.678888
1916.611770	-13.667731
1917.837868	-13.656352
1919.065536	-13.646252
1920.294777	-13.635999
1921.525594	-13.624208
1922.757989	-13.612728
1923.991967	-13.602506
1925.227529	-13.592053
1926.464679	-13.581342
1927.703420	-13.571759
1928.943755	-13.562493
1930.185688	-13.552239
1931.429221	-13.542071
1932.674356	-13.533325
1933.921099	-13.525066
1935.169451	-13.516248
1936.419415	-13.507086
1937.670996	-13.497872
1938.924195	-13.488631
1940.179017	-13.479655
1941.435463	-13.471037
1942.693538	-13.461893
1943.953245	-13.451360
1945.214586	-13.439746
1946.477566	-13.428207
1947.742186	-13.417490
1949.008451	-13.407098
1950.276363	-13.395960
1951.545926	-13.383348
1952.817143	-13.369599
1954.090017	-13.355857
1955.364551	-13.343206
1956.640749	-13.331854
1957.918615	-13.320815
1959.198150	-13.308880
1960.479359	-13.295966
1961.762244	-13.282967
1963.046810	-13.270381
1964.333059	-13.257944
1965.620995	-13.245332
1966.910621	-13.232528
1968.201940	-13.219519
1969.494956	-13.206526
1970.789672	-13.194144
1972.086091	-13.182576
1973.384217	-13.171388
1974.684053	-13.160257
1975.985602	-13.149666
1977.288869	-13.139980
1978.593855	-13.131018
1979.900566	-13.122291
1981.209003	-13.113479
1982.519171	-13.104625
1983.831073	-13.096270
1985.144712	-13.088956
1986.460093	-13.082520
1987.777217	-13.075892
1989.096089	-13.068159
1990.416713	-13.059867
1991.739092	-13.052232
1993.063228	-13.045751
1994.389127	-13.039939
1995.716791	-13.034035
1997.046223	-13.027869
1998.377428	-13.021836
1999.710409	-13.016013
2001.045169	-13.009923
2002.381713	-13.003419
2003.720043	-12.996748
2005.060163	-12.989778
2006.402077	-12.981844
2007.745788	-12.972869
2009.091301	-12.963611
2010.438618	-12.954905
2011.787743	-12.946899
2013.138680	-12.939227
2014.491433	-12.931616
2015.846005	-12.923875
2017.202399	-12.915690
2018.560621	-12.906865
2019.920673	-12.897319
2021.282558	-12.887010
2022.646281	-12.876044
2024.011846	-12.865241
2025.379256	-12.855714
2026.748515	-12.847969
2028.119626	-12.842082
2029.492594	-12.838338
2030.867422	-12.837529
2032.244114	-12.839998
2033.622673	-12.844787
2035.003104	-12.850235
2036.385411	-12.855644
2037.769597	-12.861489
2039.155665	-12.867584
2040.543621	-12.872442
2041.933467	-12.874380
2043.325208	-12.872862
2044.718847	-12.868269
2046.114389	-12.860855
2047.511837	-12.850322
2048.911195	-12.836056
2050.312467	-12.818020
2051.715657	-12.797064
2053.120769	-12.775004
2054.527807	-12.753400
2055.936775	-12.732796
2057.347677	-12.714028
2058.760516	-12.698577
2060.175297	-12.688107
2061.592025	-12.683873
2063.010701	-12.686193
2064.431332	-12.695355
2065.853921	-12.711592
2067.278472	-12.734321
2068.704988	-12.762437
2070.133475	-12.794327
2071.563936	-12.828972
2072.996375	-12.866233
2074.430796	-12.905684
2075.867204	-12.945703
2077.305603	-12.983996
2078.745996	-13.019421
2080.188389	-13.052376
2081.632784	-13.082724
2083.079187	-13.109109
2084.527601	-13.129792
2085.978030	-13.143933
2087.430480	-13.152052
2088.884954	-13.154625
2090.341455	-13.151874
2091.799990	-13.143634
2093.260561	-13.129882
2094.723173	-13.111755
2096.187831	-13.090850
2097.654538	-13.068419
2099.123300	-13.045958
2100.594119	-13.025630
2102.067001	-13.008640
2103.541950	-12.995344
2105.018971	-12.986340
2106.498067	-12.982820
2107.979243	-12.985961
2109.462503	-12.995785
2110.947853	-13.010853
2112.435295	-13.029442
2113.924836	-13.050902
2115.416478	-13.075521
2116.910227	-13.102939
2118.406087	-13.131663
2119.904063	-13.159863
2121.404158	-13.186812
2122.906378	-13.213321
2124.410727	-13.239182
2125.917210	-13.262835
2127.425831	-13.283252
2128.936594	-13.300485
2130.449505	-13.315290
2131.964567	-13.328517
2133.481786	-13.340704
2135.001166	-13.352710
2136.522711	-13.365408
2138.046427	-13.379467
2139.572317	-13.394972
2141.100388	-13.412446
2142.630642	-13.433224
2144.163085	-13.457234
2145.697722	-13.482266
2147.234558	-13.506670
2148.773596	-13.531797
2150.314842	-13.558731
2151.858301	-13.585460
2153.403977	-13.609836
2154.951875	-13.632937
2156.502000	-13.656952
2158.054357	-13.681774
2159.608950	-13.705961
2161.165785	-13.730030
2162.724866	-13.755073
2164.286198	-13.780479
2165.849786	-13.805733
2167.415635	-13.830452
2168.983749	-13.854978
2170.554134	-13.880285
2172.126795	-13.906245
2173.701737	-13.932255
2175.278964	-13.958571
2176.858481	-13.985673
2178.440294	-14.012833
2180.024408	-14.039593
2181.610827	-14.067790
2183.199557	-14.098036
2184.790602	-14.127932
2186.383968	-14.156577
2187.979660	-14.186798
2189.577683	-14.220386
2191.178041	-14.255144
2192.780741	-14.289627
2194.385787	-14.325433
2195.993185	-14.363806
2197.602939	-14.403631
2199.215054	-14.443561
2200.829537	-14.484767
2202.446392	-14.527922
2204.065624	-14.571676
2205.687239	-14.615350
2207.311242	-14.659370
2208.937638	-14.703197
2210.566433	-14.746834
2212.197631	-14.792019
2213.831239	-14.839085
2215.467261	-14.885869
2217.105703	-14.931326
2218.746570	-14.976583
2220.389867	-15.022309
2222.035601	-15.068080
2223.683776	-15.112645
2225.334398	-15.155935
2226.987472	-15.199967
2228.643004	-15.245036
2230.300999	-15.288452
2231.961463	-15.330347
2233.624402	-15.373268
2235.289820	-15.416298
2236.957723	-15.457451
2238.628118	-15.498839
2240.301009	-15.541624
2241.976402	-15.584621
2243.654303	-15.628450
2245.334717	-15.673703
2247.017650	-15.719842
2248.703108	-15.767033
2250.391096	-15.816668
2252.081620	-15.870613
2253.774686	-15.928162
2255.470300	-15.986511
2257.168467	-16.046492
2258.869193	-16.110283
2260.572484	-16.176058
2262.278345	-16.242929
2263.986783	-16.310803
2265.697804	-16.378640
2267.411412	-16.447091
2269.127615	-16.516816
2270.846417	-16.585735
2272.567826	-16.652188
2274.291846	-16.718503
2276.018484	-16.786282
2277.747745	-16.852669
2279.479637	-16.916177
2281.214164	-16.979449
2282.951333	-17.044051
2284.691149	-17.107464
2286.433619	-17.168077
2288.178750	-17.228714
2289.926546	-17.289604
2291.677014	-17.348965
2293.430161	-17.407198
2295.185992	-17.465444
2296.944513	-17.524894
2298.705732	-17.585385
2300.469653	-17.646190
2302.236283	-17.707293
2304.005629	-17.770819
2305.777696	-17.838418
2307.552492	-17.907889
2309.330022	-17.978137
2311.110292	-18.051138
2312.893310	-18.130540
2314.679080	-18.215587
2316.467611	-18.301459
2318.258907	-18.388260
2320.052976	-18.479158
2321.849824	-18.574016
2323.649457	-18.667869
2325.451883	-18.759786
2327.257106	-18.854602
2329.065135	-18.949047
2330.875975	-19.038084
2332.689633	-19.127969
2334.506116	-19.220888
2336.325430	-19.308346
2338.147581	-19.390513
2339.972578	-19.475628
2341.800425	-19.561749
2343.631130	-19.643106
2345.464700	-19.724847
2347.301141	-19.806905
2349.140461	-19.884807
2350.982665	-19.962755
2352.827760	-20.040581
2354.675754	-20.114996
2356.526653	-20.191048
2358.380464	-20.269034
2360.237195	-20.343572
2362.096851	-20.420649
2363.959440	-20.506459
2365.824968	-20.590213
2367.693444	-20.672894
2369.564873	-20.766475
2371.439263	-20.862941
2373.316620	-20.960595
2375.196953	-21.067753
2377.080267	-21.179009
2378.966570	-21.290151
2380.855869	-21.408769
2382.748171	-21.531559
2384.643484	-21.650463
2386.541815	-21.771800
2388.443170	-21.893541
2390.347557	-22.009352
2392.254984	-22.126535
2394.165457	-22.240676
2396.078984	-22.349701
2397.995572	-22.461034
2399.915229	-22.567862
2401.837961	-22.672878
2403.763777	-22.778533
2405.692684	-22.879904
2407.624689	-22.979110
2409.559800	-23.074043
2411.498023	-23.168242
2413.439368	-23.261480
2415.383840	-23.352411
2417.331449	-23.440873
2419.282201	-23.529578
2421.236104	-23.622049
2423.193165	-23.708554
2425.153393	-23.797663
2427.116795	-23.892728
2429.083378	-23.988635
2431.053151	-24.092352
2433.026121	-24.203343
2435.002297	-24.321271
2436.981685	-24.444854
2438.964293	-24.579154
2440.950131	-24.722835
2442.939204	-24.866767
2444.931522	-25.016513
2446.927092	-25.170656
2448.925923	-25.324333
2450.928022	-25.473542
2452.933397	-25.621659
2454.942056	-25.762248
2456.954008	-25.898221
2458.969260	-26.036472
2460.987821	-26.168504
2463.009699	-26.295984
2465.034902	-26.424843
2467.063437	-26.555418
2469.095315	-26.675892
2471.130542	-26.789574
2473.169127	-26.901191
2475.211078	-27.005860
2477.256404	-27.109712
2479.305112	-27.205321
2481.357212	-27.292030
2483.412713	-27.382591
2485.471621	-27.474444
2487.533946	-27.565754
2489.599696	-27.652025
2491.668880	-27.746604
2493.741507	-27.854761
2495.817585	-27.967625
2497.897122	-28.085099
2499.980127	-28.219965
2502.066609	-28.368171
2504.156578	-28.528075
2506.250040	-28.703959
2508.347006	-28.881647
2510.447483	-29.066427
2512.551482	-29.266111
2514.659010	-29.458373
2516.770076	-29.634280
2518.884690	-29.818968
2521.002861	-30.003011
2523.124597	-30.164870
2525.249907	-30.327878
2527.378801	-30.500321
2529.511287	-30.652670
2531.647375	-30.811432
2533.787074	-30.970631
2535.930393	-31.106033
2538.077340	-31.237864
2540.227927	-31.367395
2542.382160	-31.480042
2544.540051	-31.562746
2546.701608	-31.670797
2548.866840	-31.754515
2551.035757	-31.807591
2553.208369	-31.902366
2555.384684	-31.965550
2557.564713	-32.016932
2559.748465	-32.126360
2561.935948	-32.198626
2564.127174	-32.284785
2566.322152	-32.433846
2568.520890	-32.583313
2570.723399	-32.739462
2572.929689	-32.929289
2575.139769	-33.145193
2577.353649	-33.355417
2579.571340	-33.600816
2581.792849	-33.826318
2584.018189	-34.032731
2586.247368	-34.292493
2588.480396	-34.477361
2590.717284	-34.687829
2592.958041	-34.965697
2595.202678	-35.155819
2597.451204	-35.377384
2599.703630	-35.631556
2601.959966	-35.867072
2604.220222	-36.076759
2606.484408	-36.277288
2608.752535	-36.473027
2611.024612	-36.599048
2613.300651	-36.706711
2615.580661	-36.801441
2617.864653	-36.909298
2620.152638	-36.942204
2622.444625	-36.925200
2624.740626	-36.972880
2627.040651	-36.980430
2629.344710	-36.981367
2631.652814	-36.992920
2633.964974	-37.072986
2636.281200	-37.137697
2638.601504	-37.224954
2640.925896	-37.389739
2643.254386	-37.547577
2645.586987	-37.749752
2647.923707	-37.942093
2650.264559	-38.154375
2652.609554	-38.369664
2654.958702	-38.607285
2657.312015	-38.849442
2659.669503	-39.044659
2662.031178	-39.323257
2664.397051	-39.615732
2666.767132	-39.900794
2669.141434	-40.264456
2671.519968	-40.657063
2673.902745	-41.043848
2676.289776	-41.397016
2678.681072	-41.778187
2681.076646	-42.159858
2683.476508	-42.415800
2685.880671	-42.650300
2688.289145	-42.961532
2690.701942	-43.121465
2693.119075	-43.160003
2695.540554	-43.187475
2697.966391	-43.183968
2700.396599	-43.061058
2702.831189	-42.946660
2705.270172	-42.884111
2707.713561	-42.866464
2710.161368	-42.850201
2712.613605	-42.825135
2715.070283	-42.948691
2717.531416	-43.048453
2719.997014	-43.076861
2722.467090	-43.149677
2724.941657	-43.349228
2727.420726	-43.372844
2729.904310	-43.427674
2732.392421	-43.529342
2734.885072	-43.725019
2737.382275	-43.833602
2739.884042	-44.051336
2742.390387	-44.374873
2744.901321	-44.691511
2747.416857	-45.143310
2749.937008	-45.541308
2752.461787	-46.010242
2754.991206	-46.568793
2757.525279	-47.035902
2760.064017	-47.719925
2762.607434	-48.445154
2765.155544	-48.923416
2767.708358	-49.613668
2770.265890	-49.981643
2772.828153	-50.265169
2775.395160	-50.378062
2777.966924	-50.331966
2780.543459	-50.287172
2783.124778	-50.347417
2785.710894	-50.285657
2788.301821	-50.349984
2790.897572	-50.371699
2793.498160	-50.423471
2796.103599	-50.552694
2798.713903	-50.394156
2801.329085	-50.316037
2803.949159	-50.154425
2806.574139	-49.803845
2809.204038	-49.746619
2811.838871	-49.435042
2814.478650	-49.311500
2817.123391	-49.351938
2819.773107	-49.321972
2822.427812	-49.587860
2825.087521	-49.533281
2827.752247	-49.769825
2830.422005	-50.065839
2833.096808	-50.247805
2835.776672	-50.848171
2838.461611	-51.340393
2841.151638	-52.044964
2843.846769	-52.819274
2846.547019	-53.459983
2849.252401	-54.350900
2851.962930	-54.528914
2854.678621	-55.259885
2857.399489	-55.378745
2860.125549	-55.696986
2862.856815	-55.986496
2865.593302	-56.312402
2868.335026	-56.990770
2871.082002	-57.419476
2873.834244	-58.582464
2876.591767	-59.176576
2879.354588	-60.325584
2882.122721	-60.941587
2884.896181	-61.158804
2887.674984	-60.994865
2890.459146	-60.207782
2893.248681	-59.875637
2896.043606	-58.909952
2898.843937	-58.603620
2901.649687	-57.867406
2904.460875	-57.338842
2907.277515	-56.638634
2910.099623	-56.151122
2912.927215	-55.948988
2915.760308	-56.029556
2918.598916	-56.295290
2921.443057	-56.577696
2924.292747	-57.081498
2927.148002	-57.832471
2930.008837	-58.300164
2932.875270	-58.752140
2935.747318	-59.181182
2938.624995	-59.740097
2941.508320	-59.616236
2944.397308	-59.611720
2947.291977	-59.557089
2950.192343	-59.615433
2953.098423	-59.944503
2956.010234	-59.917692
2958.927792	-60.526831
2961.851116	-61.217658
2964.780221	-62.243450
2967.715126	-62.731789
2970.655847	-63.893705
2973.602402	-65.351962
2976.554808	-66.227443
2979.513083	-68.444138
2982.477243	-71.090209
2985.447308	-76.364041
2988.423293	-80.692091
2991.405218	-73.201346
2994.393099	-69.523309
2997.386955	-67.949058
