# 2022-03-21_14.16.45
# shape = sech2
# FWHM_ps = 0.1
# carrier_nm = 1542
# frep_MHz = 12126
# pow_mW = 8000
# GDD = 0.0
# propa_len = 0.12111111111111113
# untap_len = 0.01
# taper_len = 0.061111111111111116
# waist_len = 0.02
# uptap_len = 0.02
# untap_scale = 1.0
# waist_scale = 0.30000000000000004
# workingDir = NL_20110305_12 (Spirou)
# axis = slow
# window_ps = 10.0
# steps = 200
# points = 13000
# 
# wavelength [nm]	 power spectral density [dB]
1000.248639	-22.648995
1000.582480	-22.559181
1000.916545	-22.472775
1001.250832	-22.386721
1001.585343	-22.300844
1001.920077	-22.214961
1002.255035	-22.128894
1002.590218	-22.042476
1002.925624	-21.955590
1003.261255	-21.868191
1003.597111	-21.780312
1003.933192	-21.692042
1004.269497	-21.603516
1004.606029	-21.514911
1004.942785	-21.426464
1005.279768	-21.338450
1005.616977	-21.251142
1005.954412	-21.164821
1006.292074	-21.079775
1006.629962	-20.996299
1006.968077	-20.914671
1007.306420	-20.835114
1007.644990	-20.757796
1007.983787	-20.682845
1008.322813	-20.610346
1008.662067	-20.540311
1009.001549	-20.472648
1009.341259	-20.407207
1009.681199	-20.343806
1010.021367	-20.282226
1010.361765	-20.222207
1010.702392	-20.163452
1011.043250	-20.105662
1011.384337	-20.048540
1011.725654	-19.991781
1012.067202	-19.935094
1012.408980	-19.878254
1012.750989	-19.821112
1013.093230	-19.763564
1013.435702	-19.705539
1013.778405	-19.647031
1014.121341	-19.588117
1014.464508	-19.528950
1014.807908	-19.469726
1015.151540	-19.410655
1015.495405	-19.351961
1015.839503	-19.293866
1016.183835	-19.236565
1016.528400	-19.180225
1016.873198	-19.124970
1017.218231	-19.070870
1017.563498	-19.017926
1017.908999	-18.966065
1018.254735	-18.915183
1018.600707	-18.865155
1018.946913	-18.815843
1019.293354	-18.767090
1019.640032	-18.718708
1019.986945	-18.670519
1020.334094	-18.622386
1020.681480	-18.574200
1021.029102	-18.525872
1021.376961	-18.477347
1021.725058	-18.428622
1022.073391	-18.379740
1022.421962	-18.330781
1022.770772	-18.281851
1023.119819	-18.233077
1023.469104	-18.184606
1023.818628	-18.136586
1024.168391	-18.089179
1024.518393	-18.042548
1024.868634	-17.996852
1025.219115	-17.952239
1025.569836	-17.908810
1025.920796	-17.866638
1026.271997	-17.825781
1026.623438	-17.786285
1026.975121	-17.748154
1027.327044	-17.711341
1027.679208	-17.675790
1028.031614	-17.641441
1028.384262	-17.608212
1028.737152	-17.575998
1029.090284	-17.544688
1029.443659	-17.514197
1029.797276	-17.484474
1030.151137	-17.455496
1030.505240	-17.427261
1030.859587	-17.399787
1031.214178	-17.373104
1031.569013	-17.347244
1031.924093	-17.322257
1032.279417	-17.298202
1032.634985	-17.275118
1032.990799	-17.253020
1033.346858	-17.231896
1033.703162	-17.211720
1034.059712	-17.192410
1034.416509	-17.173831
1034.773551	-17.155822
1035.130841	-17.138192
1035.488377	-17.120711
1035.846160	-17.103154
1036.204190	-17.085290
1036.562468	-17.066870
1036.920994	-17.047667
1037.279768	-17.027536
1037.638790	-17.006440
1037.998061	-16.984434
1038.357581	-16.961652
1038.717350	-16.938315
1039.077368	-16.914705
1039.437636	-16.891111
1039.798154	-16.867813
1040.158922	-16.845093
1040.519940	-16.823172
1040.881209	-16.802181
1041.242729	-16.782164
1041.604501	-16.763094
1041.966524	-16.744866
1042.328798	-16.727302
1042.691325	-16.710224
1043.054103	-16.693485
1043.417135	-16.676952
1043.780419	-16.660529
1044.143956	-16.644217
1044.507746	-16.628089
1044.871791	-16.612260
1045.236088	-16.596900
1045.600641	-16.582217
1045.965447	-16.568414
1046.330508	-16.555657
1046.695824	-16.544076
1047.061395	-16.533767
1047.427222	-16.524749
1047.793304	-16.516976
1048.159642	-16.510358
1048.526237	-16.504754
1048.893088	-16.499989
1049.260196	-16.495885
1049.627561	-16.492291
1049.995183	-16.489062
1050.363063	-16.486056
1050.731201	-16.483182
1051.099597	-16.480374
1051.468251	-16.477604
1051.837164	-16.474890
1052.206336	-16.472295
1052.575767	-16.469908
1052.945458	-16.467852
1053.315409	-16.466290
1053.685619	-16.465366
1054.056090	-16.465157
1054.426821	-16.465713
1054.797814	-16.467055
1055.169067	-16.469127
1055.540582	-16.471767
1055.912359	-16.474735
1056.284398	-16.477752
1056.656698	-16.480542
1057.029262	-16.482874
1057.402088	-16.484563
1057.775177	-16.485514
1058.148530	-16.485765
1058.522146	-16.485499
1058.896027	-16.484993
1059.270171	-16.484589
1059.644580	-16.484618
1060.019254	-16.485337
1060.394193	-16.486909
1060.769397	-16.489374
1061.144867	-16.492637
1061.520602	-16.496467
1061.896604	-16.500571
1062.272872	-16.504658
1062.649407	-16.508464
1063.026210	-16.511811
1063.403279	-16.514669
1063.780616	-16.517118
1064.158221	-16.519294
1064.536094	-16.521374
1064.914235	-16.523557
1065.292645	-16.526025
1065.671325	-16.528967
1066.050273	-16.532612
1066.429491	-16.537195
1066.808979	-16.542920
1067.188738	-16.549951
1067.568766	-16.558372
1067.949066	-16.568151
1068.329636	-16.579141
1068.710478	-16.591074
1069.091592	-16.603552
1069.472977	-16.616162
1069.854635	-16.628608
1070.236565	-16.640737
1070.618768	-16.652586
1071.001243	-16.664415
1071.383993	-16.676625
1071.767016	-16.689616
1072.150313	-16.703689
1072.533884	-16.719013
1072.917730	-16.735549
1073.301850	-16.753083
1073.686246	-16.771288
1074.070917	-16.789814
1074.455864	-16.808436
1074.841087	-16.827103
1075.226586	-16.845864
1075.612362	-16.864815
1075.998415	-16.884074
1076.384745	-16.903667
1076.771353	-16.923469
1077.158238	-16.943269
1077.545401	-16.962824
1077.932843	-16.981889
1078.320564	-17.000294
1078.708564	-17.017992
1079.096842	-17.034990
1079.485401	-17.051323
1079.874240	-17.066994
1080.263358	-17.081883
1080.652757	-17.095805
1081.042438	-17.108597
1081.432399	-17.120209
1081.822641	-17.130770
1082.213166	-17.140628
1082.603972	-17.150249
1082.995061	-17.160084
1083.386433	-17.170510
1083.778087	-17.181722
1084.170025	-17.193669
1084.562246	-17.206141
1084.954751	-17.218869
1085.347541	-17.231624
1085.740615	-17.244344
1086.133973	-17.257149
1086.527617	-17.270247
1086.921546	-17.283874
1087.315761	-17.298121
1087.710262	-17.312841
1088.105050	-17.327746
1088.500124	-17.342510
1088.895485	-17.356887
1089.291134	-17.370903
1089.687070	-17.384947
1090.083294	-17.399620
1090.479806	-17.415579
1090.876607	-17.433323
1091.273696	-17.453068
1091.671075	-17.474740
1092.068744	-17.498085
1092.466702	-17.522885
1092.864950	-17.549177
1093.263489	-17.577367
1093.662319	-17.608099
1094.061440	-17.642090
1094.460852	-17.679716
1094.860555	-17.720666
1095.260551	-17.763914
1095.660840	-17.807868
1096.061421	-17.850774
1096.462295	-17.891334
1096.863462	-17.929068
1097.264923	-17.964420
1097.666678	-17.998583
1098.068727	-18.032914
1098.471071	-18.068312
1098.873710	-18.104722
1099.276644	-18.140959
1099.679874	-18.175010
1100.083400	-18.204743
1100.487222	-18.228730
1100.891340	-18.246891
1101.295756	-18.260640
1101.700468	-18.272526
1102.105478	-18.285434
1102.510787	-18.301658
1102.916393	-18.322247
1103.322298	-18.346774
1103.728502	-18.373569
1104.135005	-18.400433
1104.541807	-18.425496
1104.948909	-18.447906
1105.356312	-18.468058
1105.764015	-18.487261
1106.172019	-18.507211
1106.580324	-18.529345
1106.988931	-18.554250
1107.397840	-18.581490
1107.807051	-18.609830
1108.216564	-18.637622
1108.626380	-18.663256
1109.036500	-18.685584
1109.446923	-18.704130
1109.857649	-18.718927
1110.268680	-18.730383
1110.680016	-18.739172
1111.091657	-18.746121
1111.503602	-18.752194
1111.915854	-18.758500
1112.328411	-18.766243
1112.741275	-18.776409
1113.154445	-18.789471
1113.567922	-18.805279
1113.981706	-18.823088
1114.395798	-18.841916
1114.810198	-18.861076
1115.224906	-18.880696
1115.639923	-18.901970
1116.055249	-18.926957
1116.470884	-18.958043
1116.886829	-18.996968
1117.303084	-19.043995
1117.719650	-19.097648
1118.136526	-19.154967
1118.553713	-19.212303
1118.971212	-19.266538
1119.389022	-19.316073
1119.807145	-19.361310
1120.225580	-19.404257
1120.644328	-19.447450
1121.063389	-19.492705
1121.482763	-19.539984
1121.902452	-19.587204
1122.322454	-19.630912
1122.742771	-19.667482
1123.163404	-19.694446
1123.584351	-19.711520
1124.005614	-19.720670
1124.427193	-19.725250
1124.849089	-19.728696
1125.271301	-19.733339
1125.693830	-19.739755
1126.116677	-19.746845
1126.539842	-19.752826
1126.963324	-19.756260
1127.387126	-19.756927
1127.811246	-19.756134
1128.235685	-19.756345
1128.660444	-19.760205
1129.085522	-19.769615
1129.510922	-19.785104
1129.936641	-19.805862
1130.362682	-19.830241
1130.789044	-19.856634
1131.215728	-19.884243
1131.642734	-19.913326
1132.070063	-19.944998
1132.497714	-19.980539
1132.925689	-20.020497
1133.353987	-20.064250
1133.782610	-20.109970
1134.211556	-20.155179
1134.640827	-20.197660
1135.070424	-20.236118
1135.500345	-20.270625
1135.930593	-20.302266
1136.361166	-20.332314
1136.792067	-20.361298
1137.223294	-20.388537
1137.654848	-20.412202
1138.086730	-20.429961
1138.518940	-20.440053
1138.951479	-20.442202
1139.384346	-20.437717
1139.817543	-20.429045
1140.251069	-20.418759
1140.684925	-20.408544
1141.119111	-20.398707
1141.553628	-20.388432
1141.988475	-20.376400
1142.423655	-20.361778
1142.859166	-20.345119
1143.295009	-20.328239
1143.731185	-20.313712
1144.167694	-20.303990
1144.604536	-20.300367
1145.041711	-20.302739
1145.479221	-20.309966
1145.917065	-20.320545
1146.355245	-20.333413
1146.793759	-20.348617
1147.232609	-20.367279
1147.671795	-20.390874
1148.111317	-20.420631
1148.551177	-20.456828
1148.991373	-20.498542
1149.431907	-20.544046
1149.872779	-20.591299
1150.313989	-20.638695
1150.755538	-20.685641
1151.197426	-20.732507
1151.639653	-20.780062
1152.082220	-20.828868
1152.525128	-20.878844
1152.968376	-20.928948
1153.411966	-20.977506
1153.855897	-21.022681
1154.300169	-21.063032
1154.744784	-21.098046
1155.189742	-21.128018
1155.635042	-21.153657
1156.080687	-21.175783
1156.526674	-21.194679
1156.973007	-21.209945
1157.419683	-21.220646
1157.866705	-21.225825
1158.314072	-21.224842
1158.761786	-21.217739
1159.209845	-21.205272
1159.658251	-21.188408
1160.107004	-21.168248
1160.556104	-21.145593
1161.005553	-21.120790
1161.455349	-21.093553
1161.905494	-21.063597
1162.355989	-21.030707
1162.806832	-20.995130
1163.258026	-20.957531
1163.709570	-20.918676
1164.161464	-20.879337
1164.613710	-20.840070
1165.066307	-20.801202
1165.519256	-20.762635
1165.972558	-20.724226
1166.426212	-20.685671
1166.880219	-20.646983
1167.334580	-20.608415
1167.789295	-20.570405
1168.244364	-20.533451
1168.699788	-20.498040
1169.155567	-20.464465
1169.611702	-20.432547
1170.068193	-20.402054
1170.525041	-20.372585
1170.982245	-20.343980
1171.439807	-20.316352
1171.897726	-20.290021
1172.356004	-20.265510
1172.814640	-20.243402
1173.273635	-20.223953
1173.732989	-20.206904
1174.192703	-20.191770
1174.652778	-20.178032
1175.113213	-20.165420
1175.574009	-20.154108
1176.035167	-20.144580
1176.496687	-20.137472
1176.958569	-20.133235
1177.420814	-20.131832
1177.883422	-20.132601
1178.346394	-20.134791
1178.809730	-20.137679
1179.273430	-20.141036
1179.737496	-20.145183
1180.201927	-20.150843
1180.666723	-20.158599
1181.131886	-20.168617
1181.597416	-20.180177
1182.063312	-20.192096
1182.529576	-20.203229
1182.996209	-20.213031
1183.463209	-20.221715
1183.930579	-20.230111
1184.398317	-20.238987
1184.866426	-20.248600
1185.334904	-20.258283
1185.803754	-20.266638
1186.272974	-20.272353
1186.742566	-20.274627
1187.212529	-20.273824
1187.682865	-20.271011
1188.153574	-20.267404
1188.624656	-20.263333
1189.096112	-20.258150
1189.567942	-20.250340
1190.040147	-20.238504
1190.512726	-20.222050
1190.985681	-20.201578
1191.459012	-20.178461
1191.932720	-20.154113
1192.406804	-20.128820
1192.881265	-20.101796
1193.356104	-20.071494
1193.831322	-20.036594
1194.306918	-19.996776
1194.782893	-19.953018
1195.259248	-19.906894
1195.735982	-19.859732
1196.213097	-19.811447
1196.690593	-19.760922
1197.168471	-19.706569
1197.646730	-19.647470
1198.125371	-19.583913
1198.604395	-19.517309
1199.083803	-19.449176
1199.563594	-19.380352
1200.043769	-19.310237
1200.524329	-19.237448
1201.005273	-19.160711
1201.486604	-19.079870
1201.968320	-18.996002
1202.450422	-18.910767
1202.932912	-18.825379
1203.415789	-18.739784
1203.899054	-18.652791
1204.382707	-18.563135
1204.866748	-18.470392
1205.351179	-18.375405
1205.836000	-18.279805
1206.321211	-18.184962
1206.806812	-18.091180
1207.292805	-17.997488
1207.779189	-17.902502
1208.265965	-17.805573
1208.753134	-17.707305
1209.240696	-17.609351
1209.728651	-17.513156
1210.217000	-17.419091
1210.705744	-17.326268
1211.194883	-17.233157
1211.684417	-17.138873
1212.174347	-17.043831
1212.664673	-16.949528
1213.155396	-16.857507
1213.646516	-16.768179
1214.138034	-16.680598
1214.629951	-16.593125
1215.122266	-16.504630
1215.614980	-16.415416
1216.108095	-16.326887
1216.601609	-16.240594
1217.095524	-16.156915
1217.589841	-16.074811
1218.084559	-15.992604
1218.579679	-15.909148
1219.075202	-15.824720
1219.571128	-15.740729
1220.067458	-15.658671
1220.564191	-15.578875
1221.061330	-15.500256
1221.558874	-15.421148
1222.056823	-15.340566
1222.555178	-15.258957
1223.053940	-15.177771
1223.553109	-15.098361
1224.052686	-15.020883
1224.552671	-14.944240
1225.053065	-14.866899
1225.553867	-14.788179
1226.055079	-14.708769
1226.556702	-14.630145
1227.058735	-14.553412
1227.561179	-14.478493
1228.064035	-14.404199
1228.567303	-14.329238
1229.070983	-14.253348
1229.575077	-14.177418
1230.079585	-14.102901
1230.584506	-14.030521
1231.089842	-13.959878
1231.595594	-13.889686
1232.101761	-13.818986
1232.608345	-13.747948
1233.115345	-13.677675
1233.622762	-13.609394
1234.130597	-13.543388
1234.638851	-13.478901
1235.147523	-13.414756
1235.656615	-13.350391
1236.166126	-13.286403
1236.676058	-13.223955
1237.186411	-13.163927
1237.697185	-13.106127
1238.208381	-13.049546
1238.719999	-12.993227
1239.232040	-12.937105
1239.744505	-12.882112
1240.257394	-12.829330
1240.770708	-12.779134
1241.284446	-12.730875
1241.798610	-12.683485
1242.313201	-12.636423
1242.828218	-12.590163
1243.343662	-12.545776
1243.859534	-12.503979
1244.375834	-12.464528
1244.892563	-12.426445
1245.409721	-12.388903
1245.927309	-12.351945
1246.445327	-12.316461
1246.963777	-12.283377
1247.482657	-12.252775
1248.001970	-12.223847
1248.521716	-12.195601
1249.041894	-12.167758
1249.562506	-12.140968
1250.083553	-12.116237
1250.605034	-12.093911
1251.126950	-12.073362
1251.649302	-12.053567
1252.172091	-12.033969
1252.695316	-12.015048
1253.218979	-11.997801
1253.743079	-11.982785
1254.267619	-11.969555
1254.792597	-11.957045
1255.318015	-11.944552
1255.843874	-11.932397
1256.370173	-11.921575
1256.896913	-11.912767
1257.424095	-11.905644
1257.951720	-11.899159
1258.479787	-11.892514
1259.008298	-11.885944
1259.537254	-11.880411
1260.066654	-11.876658
1260.596499	-11.874406
1261.126790	-11.872591
1261.657527	-11.870409
1262.188711	-11.868085
1262.720342	-11.866584
1263.252422	-11.866584
1263.784950	-11.867798
1264.317928	-11.869133
1264.851355	-11.869841
1265.385232	-11.870208
1265.919560	-11.871214
1266.454340	-11.873477
1266.989572	-11.876573
1267.525256	-11.879384
1268.061394	-11.881263
1268.597985	-11.882681
1269.135031	-11.884648
1269.672531	-11.887673
1270.210487	-11.891171
1270.748899	-11.894021
1271.287768	-11.895752
1271.827094	-11.897055
1272.366877	-11.898998
1272.907119	-11.901876
1273.447820	-11.904896
1273.988981	-11.907005
1274.530601	-11.908009
1275.072683	-11.908828
1275.615226	-11.910463
1276.158230	-11.912946
1276.701697	-11.915289
1277.245627	-11.916580
1277.790021	-11.916954
1278.334879	-11.917491
1278.880202	-11.919042
1279.425991	-11.921222
1279.972245	-11.922915
1280.518966	-11.923485
1281.066155	-11.923467
1281.613811	-11.923957
1282.161936	-11.925420
1282.710529	-11.927127
1283.259593	-11.927935
1283.809126	-11.927597
1284.359131	-11.927023
1284.909607	-11.927162
1285.460555	-11.927973
1286.011976	-11.928392
1286.563870	-11.927569
1287.116237	-11.925800
1287.669080	-11.924162
1288.222397	-11.923254
1288.776191	-11.922458
1289.330460	-11.920663
1289.885207	-11.917538
1290.440431	-11.913917
1290.996133	-11.910805
1291.552314	-11.908169
1292.108975	-11.904992
1292.666115	-11.900457
1293.223737	-11.894967
1293.781839	-11.889630
1294.340424	-11.885011
1294.899491	-11.880367
1295.459041	-11.874628
1296.019075	-11.867645
1296.579593	-11.860506
1297.140597	-11.854167
1297.702086	-11.848366
1298.264061	-11.841914
1298.826524	-11.834225
1299.389474	-11.826052
1299.952912	-11.818649
1300.516839	-11.812252
1301.081255	-11.805831
1301.646162	-11.798368
1302.211559	-11.790258
1302.777448	-11.782818
1303.343829	-11.776750
1303.910702	-11.771269
1304.478069	-11.765168
1305.045930	-11.758367
1305.614285	-11.752150
1306.183136	-11.747587
1306.752483	-11.744220
1307.322326	-11.740709
1307.892666	-11.736613
1308.463504	-11.733062
1309.034841	-11.731337
1309.606677	-11.731295
1310.179012	-11.731563
1310.751849	-11.731398
1311.325186	-11.731696
1311.899025	-11.733867
1312.473366	-11.738020
1313.048211	-11.742787
1313.623559	-11.747153
1314.199412	-11.751843
1314.775770	-11.758271
1315.352634	-11.766723
1315.930004	-11.775870
1316.507881	-11.784545
1317.086266	-11.793255
1317.665159	-11.803449
1318.244562	-11.815483
1318.824474	-11.827993
1319.404897	-11.839734
1319.985831	-11.851114
1320.567276	-11.863569
1321.149234	-11.877407
1321.731706	-11.891274
1322.314691	-11.903852
1322.898190	-11.915547
1323.482205	-11.927799
1324.066736	-11.940852
1324.651783	-11.953276
1325.237347	-11.963752
1325.823430	-11.972826
1326.410031	-11.981945
1326.997151	-11.991264
1327.584791	-11.999253
1328.172952	-12.004695
1328.761634	-12.008320
1329.350839	-12.011599
1329.940566	-12.014568
1330.530817	-12.015632
1331.121592	-12.013784
1331.712891	-12.009983
1332.304716	-12.005694
1332.897068	-12.000761
1333.489946	-11.993610
1334.083352	-11.983572
1334.677287	-11.971866
1335.271750	-11.959889
1335.866744	-11.947241
1336.462268	-11.932460
1337.058323	-11.915310
1337.654910	-11.897272
1338.252029	-11.879489
1338.849682	-11.861313
1339.447869	-11.841480
1340.046591	-11.820255
1340.645848	-11.799233
1341.245641	-11.779171
1341.845972	-11.759135
1342.446840	-11.738160
1343.048246	-11.716990
1343.650191	-11.697134
1344.252677	-11.678796
1344.855702	-11.660807
1345.459269	-11.642619
1346.063379	-11.625315
1346.668030	-11.610040
1347.273226	-11.596411
1347.878965	-11.583188
1348.485250	-11.570311
1349.092080	-11.558983
1349.699456	-11.549754
1350.307380	-11.541697
1350.915851	-11.533764
1351.524871	-11.526348
1352.134441	-11.520492
1352.744560	-11.516047
1353.355231	-11.511747
1353.966453	-11.506975
1354.578227	-11.502500
1355.190555	-11.498955
1355.803436	-11.495557
1356.416872	-11.491096
1357.030863	-11.485584
1357.645411	-11.479915
1358.260515	-11.474145
1358.876177	-11.467170
1359.492397	-11.458293
1360.109176	-11.448158
1360.726516	-11.437504
1361.344416	-11.425898
1361.962877	-11.412377
1362.581901	-11.397044
1363.201487	-11.380898
1363.821637	-11.364302
1364.442352	-11.346556
1365.063632	-11.327264
1365.685478	-11.307260
1366.307891	-11.287446
1366.930871	-11.267686
1367.554420	-11.247396
1368.178538	-11.226959
1368.803226	-11.207454
1369.428485	-11.189240
1370.054315	-11.171781
1370.680717	-11.154948
1371.307693	-11.139609
1371.935242	-11.126419
1372.563366	-11.114989
1373.192065	-11.104757
1373.821341	-11.096067
1374.451193	-11.089624
1375.081623	-11.085186
1375.712632	-11.081919
1376.344221	-11.079598
1376.976389	-11.078763
1377.609139	-11.079392
1378.242470	-11.080595
1378.876384	-11.081713
1379.510881	-11.083018
1380.145963	-11.084700
1380.781629	-11.085991
1381.417881	-11.085968
1382.054720	-11.084642
1382.692147	-11.082358
1383.330161	-11.078735
1383.968765	-11.072892
1384.607959	-11.064769
1385.247743	-11.054974
1385.888119	-11.043626
1386.529087	-11.030168
1387.170648	-11.014528
1387.812804	-10.997485
1388.455554	-10.979585
1389.098899	-10.960519
1389.742842	-10.940180
1390.387381	-10.919352
1391.032519	-10.898878
1391.678256	-10.878701
1392.324592	-10.858652
1392.971529	-10.839399
1393.619068	-10.821859
1394.267208	-10.806047
1394.915952	-10.791552
1395.565300	-10.778632
1396.215253	-10.767944
1396.865812	-10.759357
1397.516977	-10.752067
1398.168749	-10.745820
1398.821130	-10.740964
1399.474120	-10.737239
1400.127719	-10.733625
1400.781930	-10.729566
1401.436752	-10.725254
1402.092186	-10.720484
1402.748234	-10.714264
1403.404897	-10.706017
1404.062174	-10.696034
1404.720067	-10.684395
1405.378577	-10.670449
1406.037705	-10.653864
1406.697451	-10.635307
1407.357817	-10.615380
1408.018803	-10.593914
1408.680410	-10.570939
1409.342639	-10.547460
1410.005492	-10.524448
1410.668968	-10.502039
1411.333068	-10.480390
1411.997795	-10.460529
1412.663147	-10.443421
1413.329127	-10.429073
1413.995736	-10.417398
1414.662973	-10.408981
1415.330840	-10.404311
1415.999339	-10.402807
1416.668469	-10.403739
1417.338232	-10.407005
1418.008628	-10.412407
1418.679659	-10.418819
1419.351325	-10.425146
1420.023628	-10.431117
1420.696568	-10.436527
1421.370145	-10.440500
1422.044362	-10.442415
1422.719219	-10.442677
1423.394717	-10.441699
1424.070856	-10.439265
1424.747638	-10.435424
1425.425064	-10.431082
1426.103134	-10.426987
1426.781850	-10.423037
1427.461212	-10.419408
1428.141221	-10.417035
1428.821878	-10.416564
1429.503185	-10.417804
1430.185141	-10.421035
1430.867749	-10.427251
1431.551008	-10.436996
1432.234920	-10.450029
1432.919486	-10.466547
1433.604707	-10.487176
1434.290583	-10.511653
1434.977116	-10.538861
1435.664307	-10.568125
1436.352156	-10.598942
1437.040664	-10.629805
1437.729833	-10.658837
1438.419663	-10.685184
1439.110156	-10.708383
1439.801312	-10.727474
1440.493132	-10.742010
1441.185617	-10.753149
1441.878768	-10.762382
1442.572586	-10.770709
1443.267072	-10.779869
1443.962228	-10.792606
1444.658053	-10.810916
1445.354549	-10.835598
1446.051717	-10.867741
1446.749558	-10.908347
1447.448073	-10.956681
1448.147263	-11.010813
1448.847128	-11.069269
1449.547671	-11.130241
1450.248891	-11.190563
1450.950789	-11.247322
1451.653368	-11.299133
1452.356627	-11.344774
1453.060568	-11.382888
1453.765192	-11.413895
1454.470500	-11.439918
1455.176492	-11.462832
1455.883170	-11.484620
1456.590534	-11.508719
1457.298586	-11.538578
1458.007327	-11.575964
1458.716758	-11.622188
1459.426880	-11.678743
1460.137693	-11.745290
1460.849199	-11.819343
1461.561398	-11.898271
1462.274293	-11.979181
1462.987883	-12.057358
1463.702170	-12.127800
1464.417155	-12.187235
1465.132838	-12.232890
1465.849222	-12.262011
1466.566306	-12.274260
1467.284093	-12.271777
1468.002582	-12.256904
1468.721775	-12.232835
1469.441674	-12.204947
1470.162278	-12.178766
1470.883590	-12.158237
1471.605609	-12.147375
1472.328338	-12.150097
1473.051777	-12.167630
1473.775928	-12.198865
1474.500790	-12.242303
1475.226367	-12.294634
1475.952657	-12.349585
1476.679663	-12.400573
1477.407386	-12.441857
1478.135826	-12.466933
1478.864985	-12.470057
1479.594863	-12.449232
1480.325463	-12.404890
1481.056784	-12.338814
1481.788828	-12.256326
1482.521597	-12.165915
1483.255090	-12.075913
1483.989309	-11.994867
1484.724256	-11.932562
1485.459931	-11.897234
1486.196336	-11.894166
1486.933471	-11.927813
1487.671337	-12.001188
1488.409937	-12.113396
1489.149270	-12.261249
1489.889337	-12.441017
1490.630141	-12.646167
1491.371682	-12.867138
1492.113961	-13.094449
1492.856979	-13.317931
1493.600738	-13.524743
1494.345238	-13.702675
1495.090481	-13.842370
1495.836467	-13.935360
1496.583198	-13.976617
1497.330675	-13.968527
1498.078899	-13.917830
1498.827872	-13.833612
1499.577593	-13.729177
1500.328065	-13.618599
1501.079289	-13.512645
1501.831265	-13.421100
1502.583995	-13.353496
1503.337480	-13.316279
1504.091721	-13.315001
1504.846719	-13.357242
1505.602475	-13.450316
1506.358991	-13.600475
1507.116268	-13.815585
1507.874306	-14.103089
1508.633108	-14.466568
1509.392673	-14.907004
1510.153004	-15.421762
1510.914101	-15.998633
1511.675965	-16.614033
1512.438599	-17.231849
1513.202002	-17.796424
1513.966176	-18.234622
1514.731122	-18.473703
1515.496842	-18.462356
1516.263336	-18.193609
1517.030607	-17.712994
1517.798654	-17.092825
1518.567479	-16.404243
1519.337083	-15.705977
1520.107468	-15.037756
1520.878634	-14.420793
1521.650584	-13.864998
1522.423317	-13.371658
1523.196836	-12.934248
1523.971141	-12.543053
1524.746233	-12.188196
1525.522115	-11.859765
1526.298786	-11.549996
1527.076249	-11.255237
1527.854504	-10.973858
1528.633553	-10.704094
1529.413397	-10.443623
1530.194037	-10.187816
1530.975474	-9.928442
1531.757709	-9.656027
1532.540745	-9.363066
1533.324581	-9.045882
1534.109220	-8.706756
1534.894662	-8.354769
1535.680909	-8.003127
1536.467961	-7.665632
1537.255821	-7.354741
1538.044489	-7.079852
1538.833967	-6.846151
1539.624256	-6.655915
1540.415357	-6.510312
1541.207271	-6.410242
1542.000000	-6.357758
1542.793545	-6.357318
1543.587907	-6.415080
1544.383087	-6.537913
1545.179088	-6.733006
1545.975909	-7.006543
1546.773552	-7.362523
1547.572019	-7.803342
1548.371311	-8.330301
1549.171428	-8.944046
1549.972373	-9.646796
1550.774147	-10.444428
1551.576751	-11.346889
1552.380185	-12.369246
1553.184453	-13.531265
1553.989554	-14.852268
1554.795490	-16.341395
1555.602263	-17.973335
1556.409873	-19.626182
1557.218322	-20.986831
1558.027612	-21.584954
1558.837743	-21.214903
1559.648717	-20.204868
1560.460536	-18.990051
1561.273200	-17.807803
1562.086710	-16.744878
1562.901069	-15.822809
1563.716278	-15.040812
1564.532337	-14.392666
1565.349249	-13.868411
1566.167014	-13.454391
1566.985634	-13.135004
1567.805111	-12.892454
1568.625444	-12.708681
1569.446637	-12.569832
1570.268690	-12.467604
1571.091605	-12.399739
1571.915382	-12.370317
1572.740024	-12.385549
1573.565532	-12.449616
1574.391907	-12.563266
1575.219150	-12.721231
1576.047262	-12.912391
1576.876246	-13.124267
1577.706103	-13.345815
1578.536833	-13.570822
1579.368439	-13.801732
1580.200922	-14.046478
1581.034282	-14.314096
1581.868522	-14.611875
1582.703643	-14.939262
1583.539646	-15.286567
1584.376532	-15.639103
1585.214304	-15.979352
1586.052962	-16.294002
1586.892508	-16.581114
1587.732943	-16.847078
1588.574269	-17.103727
1589.416487	-17.363251
1590.259599	-17.627833
1591.103605	-17.889604
1591.948508	-18.132745
1592.794309	-18.334600
1593.641009	-18.478316
1594.488609	-18.558866
1595.337112	-18.581781
1596.186518	-18.565043
1597.036829	-18.527521
1597.888047	-18.480524
1598.740172	-18.428549
1599.593207	-18.363752
1600.447153	-18.272189
1601.302010	-18.143931
1602.157782	-17.974593
1603.014469	-17.773224
1603.872072	-17.559408
1604.730593	-17.351911
1605.590034	-17.166323
1606.450397	-17.006974
1607.311681	-16.865048
1608.173890	-16.727317
1609.037024	-16.579186
1609.901085	-16.413793
1610.766075	-16.238030
1611.631995	-16.065102
1612.498846	-15.910389
1613.366630	-15.783326
1614.235349	-15.680154
1615.105004	-15.588781
1615.975596	-15.492848
1616.847128	-15.379534
1617.719600	-15.249114
1618.593014	-15.111571
1619.467372	-14.981216
1620.342675	-14.869194
1621.218924	-14.774543
1622.096122	-14.686594
1622.974270	-14.590428
1623.853369	-14.474185
1624.733420	-14.338446
1625.614427	-14.194231
1626.496389	-14.056147
1627.379308	-13.935214
1628.263187	-13.831150
1629.148026	-13.734547
1630.033828	-13.633593
1630.920593	-13.520919
1631.808324	-13.400521
1632.697022	-13.284913
1633.586688	-13.187362
1634.477324	-13.115408
1635.368932	-13.065557
1636.261514	-13.026486
1637.155070	-12.986677
1638.049602	-12.940828
1638.945113	-12.894088
1639.841603	-12.857511
1640.739075	-12.839408
1641.637529	-12.839726
1642.536968	-12.848005
1643.437393	-12.849369
1644.338806	-12.834085
1645.241209	-12.802647
1646.144602	-12.765201
1647.048988	-12.733122
1647.954368	-12.709921
1648.860744	-12.689366
1649.768118	-12.659482
1650.676491	-12.612108
1651.585865	-12.550192
1652.496241	-12.485639
1653.407621	-12.431688
1654.320008	-12.393706
1655.233401	-12.365673
1656.147804	-12.335948
1657.063218	-12.296034
1657.979645	-12.247707
1658.897085	-12.201899
1659.815542	-12.169321
1660.735016	-12.152378
1661.655509	-12.142620
1662.577023	-12.126763
1663.499560	-12.097681
1664.423121	-12.059666
1665.347709	-12.025330
1666.273324	-12.005363
1667.199969	-11.999457
1668.127645	-11.997130
1669.056353	-11.985891
1669.986097	-11.962045
1670.916877	-11.934373
1671.848695	-11.916047
1672.781553	-11.913727
1673.715452	-11.921065
1674.650395	-11.923242
1675.586383	-11.909732
1676.523418	-11.882878
1677.461501	-11.856334
1678.400635	-11.842920
1679.340821	-11.843179
1680.282061	-11.845662
1681.224357	-11.836812
1682.167710	-11.814335
1683.112122	-11.790188
1684.057595	-11.779746
1685.004132	-11.788888
1685.951732	-11.807929
1686.900400	-11.820465
1687.850135	-11.818405
1688.800940	-11.808808
1689.752818	-11.807549
1690.705768	-11.822836
1691.659795	-11.847317
1692.614898	-11.864525
1693.571081	-11.864055
1694.528345	-11.852985
1695.486691	-11.848097
1696.446122	-11.860262
1697.406640	-11.883806
1698.368245	-11.901891
1699.330941	-11.904416
1700.294729	-11.897334
1701.259611	-11.897270
1702.225588	-11.913425
1703.192664	-11.937903
1704.160838	-11.954176
1705.130114	-11.953582
1706.100493	-11.945876
1707.071977	-11.947965
1708.044568	-11.966586
1709.018268	-11.991524
1709.993079	-12.006558
1710.969003	-12.008491
1711.946041	-12.009780
1712.924196	-12.025054
1713.903469	-12.053755
1714.883862	-12.080374
1715.865378	-12.092043
1716.848017	-12.092620
1717.831783	-12.098837
1718.816677	-12.119884
1719.802701	-12.147403
1720.789857	-12.165500
1721.778147	-12.170296
1722.767573	-12.175730
1723.758136	-12.196161
1724.749840	-12.229197
1725.742685	-12.257269
1726.736673	-12.268884
1727.731808	-12.272801
1728.728090	-12.286525
1729.725521	-12.314339
1730.724105	-12.340885
1731.723842	-12.351206
1732.724735	-12.350677
1733.726785	-12.359511
1734.729995	-12.387455
1735.734366	-12.420715
1736.739902	-12.439751
1737.746603	-12.444517
1738.754472	-12.455379
1739.763510	-12.485647
1740.773721	-12.523220
1741.785105	-12.545716
1742.797665	-12.550381
1743.811403	-12.559084
1744.826321	-12.588757
1745.842422	-12.628846
1746.859706	-12.654885
1747.878177	-12.662334
1748.897835	-12.673031
1749.918685	-12.704123
1750.940726	-12.743638
1751.963963	-12.766197
1752.988395	-12.769544
1754.014027	-12.777989
1755.040860	-12.807976
1756.068895	-12.844630
1757.098135	-12.863649
1758.128583	-12.867686
1759.160240	-12.882417
1760.193109	-12.918131
1761.227191	-12.953342
1762.262488	-12.966621
1763.299004	-12.969159
1764.336740	-12.988033
1765.375697	-13.024794
1766.415880	-13.053043
1767.457288	-13.059688
1768.499926	-13.066189
1769.543794	-13.095230
1770.588895	-13.134474
1771.635231	-13.154871
1772.682805	-13.156318
1773.731619	-13.167898
1774.781674	-13.201435
1775.832973	-13.232825
1776.885519	-13.241597
1777.939312	-13.245089
1778.994357	-13.270385
1780.050654	-13.309901
1781.108207	-13.333534
1782.167017	-13.338310
1783.227087	-13.352418
1784.288418	-13.387236
1785.351013	-13.418214
1786.414875	-13.427690
1787.480006	-13.435658
1788.546407	-13.465407
1789.614082	-13.502853
1790.683032	-13.520934
1791.753259	-13.526551
1792.824767	-13.547617
1793.897557	-13.582992
1794.971632	-13.604640
1796.046994	-13.608723
1797.123645	-13.623300
1798.201588	-13.658289
1799.280824	-13.687259
1800.361357	-13.694955
1801.443188	-13.703861
1802.526320	-13.732159
1803.610756	-13.760259
1804.696497	-13.768227
1805.783546	-13.773433
1806.871906	-13.798434
1807.961578	-13.828996
1809.052565	-13.841098
1810.144870	-13.845266
1811.238494	-13.864777
1812.333441	-13.890909
1813.429713	-13.901169
1814.527311	-13.904294
1815.626239	-13.923605
1816.726499	-13.951783
1817.828094	-13.964883
1818.931025	-13.968564
1820.035295	-13.985341
1821.140906	-14.009813
1822.247862	-14.020441
1823.356165	-14.024078
1824.465816	-14.042566
1825.576819	-14.068787
1826.689175	-14.080391
1827.802888	-14.084046
1828.917960	-14.100250
1830.034394	-14.121271
1831.152191	-14.128842
1832.271354	-14.134056
1833.391887	-14.154386
1834.513790	-14.175664
1835.637068	-14.180541
1836.761722	-14.184824
1837.887755	-14.203392
1839.015169	-14.218206
1840.143968	-14.218802
1841.274153	-14.227270
1842.405727	-14.249792
1843.538693	-14.260009
1844.673053	-14.255608
1845.808810	-14.264571
1846.945966	-14.284134
1848.084525	-14.287787
1849.224488	-14.286634
1850.365858	-14.304024
1851.508638	-14.319496
1852.652831	-14.313791
1853.798438	-14.314702
1854.945463	-14.333711
1856.093909	-14.339970
1857.243777	-14.334413
1858.395071	-14.347495
1859.547794	-14.363079
1860.701947	-14.355202
1861.857533	-14.353048
1863.014556	-14.371995
1864.173018	-14.375983
1865.332922	-14.366604
1866.494270	-14.378245
1867.657065	-14.388936
1868.821309	-14.374730
1869.987006	-14.374027
1871.154158	-14.391984
1872.322768	-14.385754
1873.492839	-14.374109
1874.664373	-14.388426
1875.837373	-14.388277
1877.011841	-14.367251
1878.187782	-14.374976
1879.365197	-14.387803
1880.544089	-14.367715
1881.724460	-14.361820
1882.906315	-14.376807
1884.089655	-14.361251
1885.274483	-14.346755
1886.460803	-14.364728
1887.648616	-14.359004
1888.837927	-14.336132
1890.028736	-14.346714
1891.221049	-14.347363
1892.414866	-14.324040
1893.610192	-14.332863
1894.807028	-14.340041
1896.005379	-14.312806
1897.205246	-14.312525
1898.406633	-14.324215
1899.609542	-14.301216
1900.813977	-14.297485
1902.019940	-14.309611
1903.227434	-14.285099
1904.436462	-14.275538
1905.647028	-14.289188
1906.859133	-14.268747
1908.072781	-14.257080
1909.287976	-14.267122
1910.504719	-14.244745
1911.723013	-14.232206
1912.942863	-14.242323
1914.164270	-14.220872
1915.387238	-14.208032
1916.611770	-14.212726
1917.837868	-14.187721
1919.065536	-14.178614
1920.294777	-14.183208
1921.525594	-14.154892
1922.757989	-14.145198
1923.991967	-14.145074
1925.227529	-14.115962
1926.464679	-14.111106
1927.703420	-14.106733
1928.943755	-14.075154
1930.185688	-14.071942
1931.429221	-14.062657
1932.674356	-14.034957
1933.921099	-14.035676
1935.169451	-14.018291
1936.419415	-13.992911
1937.670996	-13.996411
1938.924195	-13.975916
1940.179017	-13.957089
1941.435463	-13.957203
1942.693538	-13.931982
1943.953245	-13.921765
1945.214586	-13.919152
1946.477566	-13.893605
1947.742186	-13.887004
1949.008451	-13.876604
1950.276363	-13.856663
1951.545926	-13.853428
1952.817143	-13.835710
1954.090017	-13.820533
1955.364551	-13.814605
1956.640749	-13.795891
1957.918615	-13.787126
1959.198150	-13.774110
1960.479359	-13.756147
1961.762244	-13.750208
1963.046810	-13.734144
1964.333059	-13.719882
1965.620995	-13.709389
1966.910621	-13.692099
1968.201940	-13.682258
1969.494956	-13.668263
1970.789672	-13.650593
1972.086091	-13.639416
1973.384217	-13.624232
1974.684053	-13.608357
1975.985602	-13.595475
1977.288869	-13.577635
1978.593855	-13.562481
1979.900566	-13.550836
1981.209003	-13.530713
1982.519171	-13.517295
1983.831073	-13.503651
1985.144712	-13.485869
1986.460093	-13.476094
1987.777217	-13.456291
1989.096089	-13.445515
1990.416713	-13.433663
1991.739092	-13.416773
1993.063228	-13.410037
1994.389127	-13.390802
1995.716791	-13.386480
1997.046223	-13.372187
1998.377428	-13.358788
1999.710409	-13.355887
2001.045169	-13.336527
2002.381713	-13.337893
2003.720043	-13.319030
2005.060163	-13.314683
2006.402077	-13.309635
2007.745788	-13.292539
2009.091301	-13.296392
2010.438618	-13.275069
2011.787743	-13.280026
2013.138680	-13.264428
2014.491433	-13.258252
2015.846005	-13.254035
2017.202399	-13.238259
2018.560621	-13.241428
2019.920673	-13.217904
2021.282558	-13.226092
2022.646281	-13.204775
2024.011846	-13.202721
2025.379256	-13.189851
2026.748515	-13.179070
2028.119626	-13.181921
2029.492594	-13.157000
2030.867422	-13.161305
2032.244114	-13.142443
2033.622673	-13.145782
2035.003104	-13.125838
2036.385411	-13.128188
2037.769597	-13.113892
2039.155665	-13.109240
2040.543621	-13.103025
2041.933467	-13.093096
2043.325208	-13.093185
2044.718847	-13.077634
2046.114389	-13.084823
2047.511837	-13.067749
2048.911195	-13.075309
2050.312467	-13.060890
2051.715657	-13.069181
2053.120769	-13.058176
2054.527807	-13.064027
2055.936775	-13.057474
2057.347677	-13.062172
2058.760516	-13.058855
2060.175297	-13.060704
2061.592025	-13.062409
2063.010701	-13.060848
2064.431332	-13.064441
2065.853921	-13.062859
2067.278472	-13.066377
2068.704988	-13.064296
2070.133475	-13.067166
2071.563936	-13.065671
2072.996375	-13.066339
2074.430796	-13.065266
2075.867204	-13.066066
2077.305603	-13.064413
2078.745996	-13.064608
2080.188389	-13.063624
2081.632784	-13.063544
2083.079187	-13.063390
2084.527601	-13.064553
2085.978030	-13.064820
2087.430480	-13.066856
2088.884954	-13.068028
2090.341455	-13.072561
2091.799990	-13.073005
2093.260561	-13.080348
2094.723173	-13.081061
2096.187831	-13.090216
2097.654538	-13.091987
2099.123300	-13.103493
2100.594119	-13.105213
2102.067001	-13.120152
2103.541950	-13.121748
2105.018971	-13.139170
2106.498067	-13.141444
2107.979243	-13.161172
2109.462503	-13.164418
2110.947853	-13.184090
2112.435295	-13.188933
2113.924836	-13.206138
2115.416478	-13.216299
2116.910227	-13.228800
2118.406087	-13.243373
2119.904063	-13.250701
2121.404158	-13.269444
2122.906378	-13.272247
2124.410727	-13.292577
2125.917210	-13.293428
2127.425831	-13.311454
2128.936594	-13.315350
2130.449505	-13.327040
2131.964567	-13.335985
2133.481786	-13.341686
2135.001166	-13.356090
2136.522711	-13.357039
2138.046427	-13.375104
2139.572317	-13.377897
2141.100388	-13.394170
2142.630642	-13.401316
2144.163085	-13.412765
2145.697722	-13.429429
2147.234558	-13.440490
2148.773596	-13.459854
2150.314842	-13.470181
2151.858301	-13.490063
2153.403977	-13.509728
2154.951875	-13.529538
2156.502000	-13.553247
2158.054357	-13.574555
2159.608950	-13.600218
2161.165785	-13.625885
2162.724866	-13.651608
2164.286198	-13.679189
2165.849786	-13.707396
2167.415635	-13.735139
2168.983749	-13.765122
2170.554134	-13.794331
2172.126795	-13.822652
2173.701737	-13.854723
2175.278964	-13.879006
2176.858481	-13.909389
2178.440294	-13.937257
2180.024408	-13.960567
2181.610827	-13.992639
2183.199557	-14.012416
2184.790602	-14.037423
2186.383968	-14.066426
2187.979660	-14.082925
2189.577683	-14.114907
2191.178041	-14.138106
2192.780741	-14.157998
2194.385787	-14.192119
2195.993185	-14.210754
2197.602939	-14.236382
2199.215054	-14.265120
