# 2022-03-22_10.19.37
# shape = sech2
# FWHM_ps = 0.11
# carrier_nm = 1542
# frep_MHz = 12126
# pow_mW = 8000
# GDD = 0.0
# propa_len = 0.12555555555555556
# untap_len = 0.01
# taper_len = 0.06555555555555556
# waist_len = 0.02
# uptap_len = 0.02
# untap_scale = 1.0
# waist_scale = 0.1473684210526316
# workingDir = NL_20110305_12 (Spirou)
# axis = slow
# window_ps = 10.0
# steps = 200
# points = 21700
# 
# wavelength [nm]	 power spectral density [dB]
600.043425	-82.542304
600.163550	-89.747104
600.283723	-84.200446
600.403943	-83.037100
600.524212	-84.147392
600.644529	-80.376848
600.764895	-82.111913
600.885308	-82.334056
601.005770	-83.341273
601.126280	-99.205107
601.246839	-89.721412
601.367446	-85.823375
601.488101	-80.314499
601.608804	-81.258538
601.729557	-80.376011
601.850357	-77.797337
601.971206	-80.433790
602.092104	-81.065319
602.213050	-82.720255
602.334045	-86.996507
602.455089	-85.697809
602.576181	-82.009063
602.697322	-76.622210
602.818511	-77.321719
602.939749	-78.836029
603.061036	-77.157858
603.182372	-81.768247
603.303757	-92.207676
603.425191	-92.342822
603.546673	-79.905923
603.668204	-77.069665
603.789785	-82.129645
603.911414	-80.599653
604.033092	-81.093903
604.154820	-105.742621
604.276596	-84.655956
604.398422	-90.774016
604.520297	-79.664780
604.642220	-79.841876
604.764193	-87.304192
604.886216	-83.353937
605.008287	-96.912738
605.130408	-83.977034
605.252578	-82.845850
605.374798	-82.488845
605.497066	-79.550927
605.619385	-82.147919
605.741752	-86.421282
605.864169	-90.125467
605.986636	-93.947604
606.109152	-85.946331
606.231718	-83.184291
606.354333	-81.812257
606.476998	-81.011361
606.599712	-80.365232
606.722476	-85.840146
606.845290	-88.457043
606.968154	-91.904531
607.091067	-84.702532
607.214030	-81.285633
607.337043	-85.393301
607.460106	-79.625779
607.583219	-81.914314
607.706381	-86.676876
607.829594	-80.846692
607.952856	-93.626321
608.076169	-81.154984
608.199531	-83.966174
608.322944	-85.968930
608.446407	-82.774027
608.569920	-88.658843
608.693483	-78.363226
608.817096	-84.227623
608.940759	-82.646582
609.064473	-80.157264
609.188237	-93.829380
609.312051	-78.683471
609.435916	-83.867251
609.559831	-81.632926
609.683796	-80.000824
609.807812	-89.550346
609.931878	-81.554499
610.055995	-87.986473
610.180162	-77.960962
610.304380	-78.798963
610.428648	-86.166889
610.552967	-80.298291
610.677337	-87.288691
610.801757	-90.797588
610.926228	-96.106914
611.050750	-80.770909
611.175323	-79.017876
611.299946	-80.585839
611.424620	-77.735005
611.549345	-78.638923
611.674121	-79.738212
611.798948	-81.996751
611.923826	-89.133116
612.048755	-85.063780
612.173734	-79.634207
612.298765	-78.295392
612.423847	-76.742849
612.548980	-75.852539
612.674165	-79.101336
612.799400	-81.935744
612.924687	-84.735544
613.050025	-79.891312
613.175414	-78.942561
613.300854	-77.165951
613.426346	-73.760630
613.551889	-77.762959
613.677484	-81.569704
613.803130	-80.615820
613.928827	-79.114148
614.054576	-78.257650
614.180377	-78.018296
614.306229	-72.847066
614.432132	-75.731521
614.558087	-83.795198
614.684094	-80.268894
614.810153	-78.616828
614.936263	-76.412962
615.062425	-78.637994
615.188639	-72.501473
615.314904	-73.807185
615.441222	-83.158567
615.567591	-81.041376
615.694012	-79.664227
615.820486	-75.834326
615.947011	-78.249859
616.073588	-73.966284
616.200217	-74.401875
616.326898	-83.500995
616.453632	-80.571783
616.580417	-96.625503
616.707255	-82.127958
616.834144	-87.969495
616.961086	-80.474536
617.088081	-78.212030
617.215127	-79.461893
617.342226	-77.266254
617.469378	-80.478952
617.596581	-85.867926
617.723837	-86.305625
617.851146	-80.116154
617.978507	-75.474018
618.105920	-74.678993
618.233386	-76.602451
618.360905	-79.858116
618.488476	-86.702437
618.616100	-79.604013
618.743777	-76.898146
618.871506	-73.420050
618.999288	-71.470011
619.127123	-74.016758
619.255011	-75.737428
619.382951	-78.683184
619.510945	-78.620033
619.638991	-77.122813
619.767090	-74.359526
619.895243	-71.890701
620.023448	-76.535096
620.151706	-77.616175
620.280017	-80.953493
620.408382	-81.954772
620.536799	-77.958025
620.665270	-80.243138
620.793794	-75.378262
620.922371	-83.301460
621.051002	-76.503586
621.179686	-77.498091
621.308423	-79.671290
621.437213	-75.914088
621.566057	-86.031159
621.694954	-76.902868
621.823905	-85.440873
621.952909	-76.013142
622.081967	-76.126052
622.211079	-77.188904
622.340244	-74.516853
622.469462	-87.615030
622.598735	-77.489598
622.728061	-81.739896
622.857441	-74.406868
622.986874	-74.201491
623.116361	-79.942813
623.245903	-77.245050
623.375498	-90.653464
623.505147	-74.890775
623.634850	-77.502757
623.764606	-74.882883
623.894417	-76.785360
624.024282	-80.703854
624.154201	-75.169342
624.284174	-77.107610
624.414202	-73.042940
624.544283	-76.659170
624.674419	-80.959453
624.804609	-86.057040
624.934853	-77.158167
625.065151	-73.413497
625.195504	-73.177225
625.325911	-71.900672
625.456373	-74.536079
625.586889	-80.227757
625.717460	-89.926165
625.848085	-77.906972
625.978764	-72.443087
626.109498	-71.702596
626.240287	-72.897635
626.371131	-74.954604
626.502029	-91.961221
626.632982	-78.646621
626.763989	-74.737188
626.895052	-69.420388
627.026169	-69.930368
627.157341	-72.488107
627.288568	-73.250231
627.419850	-81.785218
627.551187	-76.816756
627.682579	-73.165876
627.814026	-67.727694
627.945528	-70.203612
628.077085	-70.269328
628.208697	-71.678871
628.340364	-82.184979
628.472087	-79.018844
628.603865	-72.457145
628.735698	-68.721738
628.867586	-75.918249
628.999530	-71.943732
629.131529	-80.523263
629.263584	-73.637273
629.395694	-75.568318
629.527859	-72.583568
629.660080	-71.364108
629.792357	-80.506277
629.924689	-72.853820
630.057077	-82.595847
630.189520	-72.111885
630.322019	-80.204941
630.454574	-72.388403
630.587184	-75.184374
630.719851	-73.976763
630.852573	-73.549655
630.985351	-74.700537
631.118185	-70.766023
631.251075	-75.573679
631.384021	-73.440474
631.517023	-81.670600
631.650081	-76.713883
631.783195	-75.895395
631.916365	-71.428769
632.049592	-70.132943
632.182874	-72.174238
632.316213	-72.705910
632.449608	-78.276424
632.583059	-77.337261
632.716567	-76.924436
632.850131	-73.404336
632.983751	-71.243594
633.117428	-73.005528
633.251161	-71.848485
633.384951	-77.807119
633.518797	-74.312042
633.652700	-75.138202
633.786660	-71.345834
633.920676	-71.174448
634.054749	-75.130520
634.188879	-74.161385
634.323065	-80.098508
634.457308	-71.783211
634.591608	-74.423498
634.725965	-70.117536
634.860379	-74.643492
634.994850	-72.628407
635.129377	-73.128176
635.263962	-71.960339
635.398604	-70.772522
635.533303	-82.602262
635.668058	-76.843029
635.802872	-73.897441
635.937742	-67.377096
636.072669	-70.068569
636.207654	-69.097676
636.342696	-73.737106
636.477796	-78.151659
636.612953	-75.373371
636.748167	-69.107699
636.883439	-67.757153
637.018768	-74.608273
637.154155	-73.104437
637.289599	-79.897400
637.425101	-68.744565
637.560660	-72.958268
637.696277	-69.008811
637.831952	-75.243987
637.967685	-74.345330
638.103475	-76.111805
638.239324	-68.095558
638.375230	-67.375148
638.511194	-72.208122
638.647215	-71.989797
638.783295	-78.842014
638.919433	-70.598010
639.055629	-70.574424
639.191883	-66.125084
639.328195	-71.248133
639.464565	-71.934025
639.600994	-84.687131
639.737481	-71.228984
639.874025	-71.817331
640.010629	-69.365141
640.147290	-71.352296
640.284010	-75.437002
640.420789	-73.029608
640.557625	-72.572675
640.694521	-70.075074
640.831474	-73.568387
640.968487	-72.515267
641.105558	-75.580613
641.242687	-70.767485
641.379876	-70.322722
641.517123	-71.597531
641.654429	-74.355285
641.791793	-78.338280
641.929216	-71.108592
642.066699	-70.814103
642.204240	-67.963613
642.341840	-72.613110
642.479499	-72.598718
642.617217	-81.734834
642.754994	-70.845296
642.892830	-72.429378
643.030726	-68.659337
643.168680	-70.439598
643.306694	-72.603705
643.444767	-72.357273
643.582899	-73.284307
643.721091	-70.754971
643.859342	-73.723117
643.997652	-69.461270
644.136022	-74.173091
644.274451	-68.441811
644.412940	-77.656535
644.551488	-69.700429
644.690096	-81.720208
644.828763	-69.329478
644.967490	-77.904739
645.106277	-68.841294
645.245124	-76.536444
645.384030	-69.172580
645.522997	-73.586683
645.662023	-68.472209
645.801109	-70.733979
645.940255	-73.329413
646.079460	-77.008609
646.218726	-72.153758
646.358052	-70.808939
646.497438	-68.668064
646.636884	-67.638744
646.776391	-73.575096
646.915957	-72.871217
647.055584	-79.164751
647.195271	-71.293765
647.335019	-74.011845
647.474826	-68.863756
647.614695	-71.745788
647.754623	-69.080360
647.894612	-74.144315
648.034662	-74.901334
648.174772	-76.730955
648.314943	-69.858027
648.455174	-69.991699
648.595466	-69.380959
648.735819	-70.070769
648.876233	-76.959904
649.016707	-75.635593
649.157242	-72.889799
649.297838	-69.191320
649.438495	-71.483079
649.579213	-69.261306
649.719992	-80.558738
649.860832	-72.868816
650.001733	-72.840700
650.142695	-66.831199
650.283718	-72.568193
650.424803	-71.559335
650.565949	-85.289142
650.707156	-69.094527
650.848424	-73.476530
650.989754	-69.096151
651.131145	-76.254518
651.272597	-71.301357
651.414111	-77.183428
651.555687	-69.723905
651.697324	-72.716665
651.839022	-69.973783
651.980782	-73.133231
652.122604	-72.101357
652.264488	-73.498496
652.406433	-71.457772
652.548441	-72.206033
652.690510	-72.952190
652.832640	-72.345378
652.974833	-71.834761
653.117088	-70.306226
653.259405	-75.074638
653.401784	-72.414644
653.544224	-73.258643
653.686727	-69.522235
653.829293	-74.943848
653.971920	-70.595715
654.114609	-74.717112
654.257361	-69.271577
654.400175	-77.564000
654.543052	-71.759788
654.685991	-77.386143
654.828992	-69.165780
654.972056	-73.205058
655.115183	-68.151687
655.258372	-80.638981
655.401623	-72.062407
655.544937	-76.132498
655.688314	-68.468709
655.831754	-76.546044
655.975256	-71.755955
656.118822	-79.590083
656.262450	-68.456537
656.406141	-71.480621
656.549894	-67.924066
656.693711	-77.860491
656.837591	-79.253093
656.981534	-72.217494
657.125540	-65.979375
657.269610	-68.428353
657.413742	-67.782663
657.557938	-75.557899
657.702196	-77.581706
657.846519	-72.790551
657.990904	-66.645690
658.135353	-70.351606
658.279866	-71.452101
658.424441	-85.935638
658.569081	-71.512266
658.713784	-72.525195
658.858550	-67.578001
659.003381	-72.215011
659.148274	-74.642329
659.293232	-101.559021
659.438253	-70.237871
659.583339	-72.784946
659.728488	-66.577674
659.873701	-71.312442
660.018978	-75.162170
660.164318	-81.413330
660.309723	-68.244245
660.455192	-72.791206
660.600725	-69.240515
660.746323	-84.915167
660.891984	-70.772487
661.037710	-76.669230
661.183500	-69.971157
661.329354	-85.304723
661.475272	-72.618789
661.621255	-76.841778
661.767303	-69.442814
661.913415	-79.141264
662.059591	-72.366541
662.205833	-76.013455
662.352138	-69.931526
662.498509	-81.693956
662.644944	-76.913283
662.791443	-73.963938
662.938008	-68.513021
663.084638	-72.786248
663.231332	-70.937733
663.378091	-90.096972
663.524915	-75.645513
663.671804	-72.491670
663.818759	-67.732728
663.965778	-76.199199
664.112863	-77.529655
664.260012	-73.523630
664.407227	-68.507095
664.554507	-72.693238
664.701853	-71.052658
664.849264	-79.008270
664.996740	-75.278107
665.144282	-70.065736
665.291889	-69.883858
665.439561	-75.728406
665.587300	-77.372614
665.735103	-73.562600
665.882973	-75.389023
666.030908	-71.317757
666.178909	-75.229045
666.326976	-74.279779
666.475109	-81.613220
666.623307	-73.276721
666.771571	-80.505352
666.919902	-71.414239
667.068298	-74.086533
667.216761	-71.328245
667.365289	-78.051654
667.513884	-78.280276
667.662545	-74.109891
667.811272	-67.730059
667.960065	-71.814267
668.108925	-71.538938
668.257851	-77.665304
668.406843	-76.906635
668.555902	-71.193010
668.705027	-67.322192
668.854219	-73.146283
669.003478	-71.796668
669.152803	-75.294823
669.302195	-74.201504
669.451653	-70.067799
669.601179	-70.850317
669.750771	-82.969865
669.900430	-84.510681
670.050156	-69.325071
670.199949	-74.353523
670.349808	-74.251191
670.499735	-89.100693
670.649729	-74.933827
670.799790	-85.185791
670.949918	-74.532510
671.100114	-80.408634
671.250377	-73.765639
671.400707	-75.131003
671.551104	-72.633916
671.701569	-86.887153
671.852101	-93.089680
672.002700	-75.095663
672.153368	-73.853815
672.304102	-72.967596
672.454905	-72.327426
672.605775	-81.053074
672.756713	-81.937675
672.907718	-74.064136
673.058791	-75.840991
673.209933	-70.256614
673.361142	-74.476697
673.512419	-78.678098
673.663764	-78.230172
673.815177	-71.958869
673.966658	-76.277616
674.118207	-72.328537
674.269825	-85.198686
674.421510	-83.511337
674.573264	-73.651324
674.725086	-77.237411
674.876977	-71.628014
675.028936	-75.970523
675.180963	-80.443339
675.333059	-81.335060
675.485224	-73.870525
675.637457	-76.332158
675.789758	-73.154386
675.942129	-80.779607
676.094568	-77.166395
676.247075	-90.445794
676.399652	-85.787182
676.552298	-70.971620
676.705012	-70.081067
676.857795	-71.559433
677.010648	-75.110303
677.163569	-74.144666
677.316560	-71.702657
677.469619	-68.809695
677.622748	-73.268541
677.775946	-76.618618
677.929214	-76.673666
678.082551	-71.807641
678.235957	-69.808332
678.389432	-70.051882
678.542977	-86.801285
678.696592	-76.426940
678.850276	-67.710352
679.004030	-71.276249
679.157853	-77.393298
679.311746	-73.410937
679.465709	-68.647170
679.619742	-68.988084
679.773844	-70.453407
679.928017	-86.738951
680.082259	-74.655470
680.236571	-67.651201
680.390954	-69.311398
680.545406	-74.669917
680.699929	-76.015885
680.854522	-67.645908
681.009185	-66.660150
681.163918	-68.291960
681.318722	-82.416882
681.473596	-75.999468
681.628540	-71.034575
681.783555	-70.897279
681.938641	-72.156494
682.093797	-72.854992
682.249023	-71.175219
682.404321	-73.478654
682.559689	-71.927481
682.715128	-76.744520
682.870637	-69.237287
683.026218	-69.470185
683.181869	-70.107239
683.337591	-72.979721
683.493385	-73.261152
683.649249	-69.140577
683.805185	-73.312220
683.961191	-69.528632
684.117269	-70.012849
684.273418	-68.281876
684.429639	-69.411553
684.585930	-73.681813
684.742294	-72.338644
684.898728	-67.809014
685.055234	-65.478075
685.211812	-67.432163
685.368461	-70.603658
685.525182	-73.383851
685.681975	-69.355524
685.838839	-66.763179
685.995775	-66.431987
686.152783	-69.479384
686.309863	-70.892268
686.467014	-68.183990
686.624238	-65.646452
686.781534	-65.433070
686.938902	-70.290973
687.096342	-70.818860
687.253854	-66.213606
687.411438	-63.819800
687.569095	-66.525790
687.726824	-70.919968
687.884626	-66.813073
688.042499	-66.012186
688.200446	-65.952890
688.358465	-68.482460
688.516556	-64.798699
688.674720	-63.817259
688.832957	-68.381392
688.991266	-70.571201
689.149649	-64.039295
689.308104	-61.779771
689.466632	-63.596511
689.625233	-67.380952
689.783906	-69.338525
689.942653	-66.703800
690.101473	-63.494239
690.260367	-62.344269
690.419333	-63.905660
690.578372	-67.483507
690.737485	-66.278486
690.896672	-64.291147
691.055931	-64.063822
691.215264	-64.118138
691.374671	-63.220871
691.534151	-64.230032
691.693704	-65.775705
691.853332	-64.366167
692.013033	-63.250412
692.172807	-64.042089
692.332656	-65.159437
692.492578	-61.528686
692.652575	-60.975167
692.812645	-65.244871
692.972789	-66.983307
693.133007	-62.834048
693.293300	-61.577894
693.453666	-60.994231
693.614107	-61.417926
693.774622	-64.796795
693.935211	-66.738730
694.095875	-61.182086
694.256613	-59.841239
694.417426	-61.671734
694.578313	-64.128262
694.739274	-63.512596
694.900311	-62.134629
695.061421	-61.330087
695.222607	-61.787815
695.383868	-62.256018
695.545203	-61.894990
695.706613	-61.512914
695.868098	-60.405304
696.029658	-61.854802
696.191293	-64.515935
696.353003	-61.815587
696.514789	-59.389831
696.676649	-59.268682
696.838585	-62.339277
697.000596	-63.276840
697.162682	-61.232037
697.324844	-60.320664
697.487081	-59.416779
697.649394	-60.169080
697.811782	-61.928551
697.974246	-61.601657
698.136786	-60.779951
698.299401	-61.067856
698.462092	-59.601806
698.624859	-58.535691
698.787702	-60.598465
698.950621	-62.270184
699.113616	-60.305098
699.276686	-59.839503
699.439833	-59.815758
699.603056	-59.512576
699.766355	-59.025548
699.929731	-60.143111
700.093183	-61.712243
700.256711	-60.188472
700.420315	-58.812341
700.583996	-58.572785
700.747754	-59.043010
700.911588	-59.058102
701.075499	-61.253829
701.239486	-61.192762
701.403550	-58.323085
701.567691	-57.504549
701.731909	-57.268092
701.896203	-60.455696
702.060575	-63.365534
702.225024	-57.839137
702.389549	-57.007751
702.554152	-58.221901
702.718832	-59.369593
702.883589	-60.002825
703.048424	-59.096401
703.213335	-58.181535
703.378324	-58.690774
703.543391	-58.367522
703.708535	-57.171004
703.873757	-59.213738
704.039056	-60.540629
704.204433	-57.604541
704.369887	-58.097757
704.535420	-57.842395
704.701030	-57.702156
704.866718	-59.584660
705.032484	-58.006230
705.198328	-57.511613
705.364250	-58.871985
705.530250	-58.455171
705.696328	-57.332657
705.862485	-56.924054
706.028720	-58.149288
706.195033	-58.900343
706.361424	-58.964118
706.527894	-57.089225
706.694442	-56.010457
706.861069	-58.117224
707.027775	-58.423609
707.194559	-58.318323
707.361422	-58.214162
707.528363	-56.592526
707.695384	-56.927271
707.862483	-56.966496
708.029661	-58.283164
708.196918	-59.489480
708.364254	-56.557293
708.531670	-56.189472
708.699164	-56.726880
708.866738	-57.707039
709.034391	-59.106514
709.202123	-57.250649
709.369935	-56.305531
709.537826	-56.362709
709.705796	-57.487337
709.873847	-58.626434
710.041976	-56.617201
710.210186	-56.542902
710.378475	-57.759160
710.546844	-56.809411
710.715292	-56.294175
710.883821	-57.156196
711.052429	-58.527997
711.221118	-56.428499
711.389887	-55.569748
711.558735	-57.367899
711.727664	-56.967742
711.896673	-57.451739
712.065763	-57.766158
712.234932	-55.909178
712.404183	-56.203950
712.573513	-56.630166
712.742924	-57.529245
712.912416	-57.777742
713.081988	-55.749666
713.251641	-56.500288
713.421375	-57.260072
713.591190	-56.103941
713.761085	-56.503769
713.931061	-57.224397
714.101119	-57.544479
714.271257	-56.007811
714.441476	-55.281678
714.611777	-57.242575
714.782159	-56.924757
714.952622	-56.955434
715.123166	-57.388580
715.293792	-55.530407
715.464499	-56.107191
715.635288	-56.659164
715.806158	-56.442622
715.977110	-57.963345
716.148143	-56.371396
716.319259	-55.432117
716.490456	-56.602713
716.661735	-56.464651
716.833096	-56.983729
717.004538	-57.050822
717.176063	-55.975481
717.347670	-56.038036
717.519359	-55.818196
717.691130	-57.093008
717.862984	-57.693702
718.034920	-55.745822
718.206938	-55.910170
718.379039	-56.441089
718.551222	-56.342420
718.723488	-56.888987
718.895836	-56.951377
719.068267	-56.524992
719.240781	-55.236410
719.413377	-54.983244
719.586057	-58.320349
719.758819	-58.340993
719.931664	-55.382641
720.104593	-54.999459
720.277604	-55.245266
720.450699	-57.781536
720.623876	-58.615618
720.797137	-55.196716
720.970482	-55.129324
721.143910	-56.489276
721.317421	-56.798355
721.491016	-57.129043
721.664694	-56.282284
721.838456	-55.816852
722.012302	-56.517432
722.186231	-56.051814
722.360244	-56.727088
722.534342	-57.350903
722.708523	-55.666382
722.882788	-55.464598
723.057137	-56.498699
723.231570	-57.605442
723.406088	-56.396644
723.580689	-54.955207
723.755375	-56.472904
723.930146	-58.073177
724.105000	-55.471688
724.279940	-55.374560
724.454963	-57.042163
724.630072	-57.080170
724.805265	-56.583741
724.980543	-55.511459
725.155905	-55.219771
725.331353	-57.226351
725.506885	-57.517711
725.682503	-55.967350
725.858205	-55.942329
726.033993	-55.699182
726.209865	-55.840159
726.385823	-56.790868
726.561866	-57.672392
726.737995	-55.983124
726.914209	-54.343032
727.090508	-55.416184
727.266893	-59.094157
727.443364	-56.730207
727.619920	-54.639260
727.796562	-55.352492
727.973290	-56.168990
728.150103	-57.376739
728.327003	-56.967686
728.503988	-55.031126
728.681060	-55.287570
728.858218	-56.418049
729.035461	-56.165082
729.212791	-56.595217
729.390208	-56.550159
729.567710	-55.016396
729.745299	-55.162257
729.922975	-56.487868
730.100737	-57.105108
730.278586	-55.594549
730.456521	-54.395823
730.634543	-55.450210
730.812652	-57.746166
730.990848	-55.959347
731.169130	-54.696590
731.347500	-55.688389
731.525957	-55.651527
731.704500	-55.821923
731.883131	-56.314642
732.061850	-55.045483
732.240655	-55.097535
732.419548	-56.107187
732.598528	-55.250568
732.777596	-55.272054
732.956751	-55.883739
733.135994	-54.953244
733.315325	-54.876347
733.494744	-55.673441
733.674250	-55.653179
733.853844	-55.089329
734.033526	-54.686420
734.213296	-54.747701
734.393154	-55.485989
734.573101	-55.324234
734.753135	-54.802883
734.933258	-54.941877
735.113469	-54.734777
735.293769	-54.440856
735.474157	-55.050177
735.654633	-55.029206
735.835198	-54.397186
736.015852	-54.610639
736.196594	-54.511832
736.377426	-54.354691
736.558346	-55.196463
736.739355	-54.677930
736.920453	-53.354175
737.101640	-54.134585
737.282916	-55.145586
737.464282	-54.226141
737.645736	-53.858423
737.827280	-53.983268
738.008914	-53.854743
738.190637	-54.399016
738.372449	-54.182515
738.554351	-53.185174
738.736342	-53.833082
738.918424	-54.478494
739.100595	-53.539210
739.282855	-53.230544
739.465206	-53.589537
739.647647	-53.837193
739.830178	-53.285448
740.012799	-52.786666
740.195510	-53.880927
740.378311	-54.051829
740.561203	-52.330599
740.744185	-52.484674
740.927258	-54.186658
741.110421	-53.751953
741.293674	-52.301552
741.477018	-52.023354
741.660453	-53.490538
741.843979	-53.775841
742.027596	-52.050030
742.211303	-52.584945
742.395102	-52.974377
742.578991	-52.137265
742.762972	-53.321125
742.947044	-52.821946
743.131207	-51.100515
743.315461	-52.604058
743.499807	-53.629216
743.684244	-51.490964
743.868773	-51.679163
744.053394	-52.958214
744.238106	-52.211762
744.422910	-51.302964
744.607805	-51.950482
744.792793	-53.053436
744.977872	-51.446035
745.163044	-50.670573
745.348307	-52.221430
745.533663	-52.711994
745.719111	-51.410752
745.904651	-51.069727
746.090283	-51.288213
746.276008	-52.000348
746.461826	-52.054521
746.647735	-50.922444
746.833738	-50.964049
747.019833	-51.599327
747.206021	-51.713255
747.392302	-51.122589
747.578676	-50.660048
747.765143	-51.565992
747.951703	-51.347821
748.138356	-50.055179
748.325102	-51.186877
748.511941	-52.393759
748.698874	-50.204493
748.885900	-49.378120
749.073019	-51.300130
749.260232	-53.200900
749.447539	-49.892651
749.634939	-48.462438
749.822433	-51.273977
750.010021	-52.995277
750.197703	-49.559234
750.385479	-49.217034
750.573348	-50.781623
750.761312	-51.470372
750.949370	-50.176485
751.137523	-49.777599
751.325769	-50.601951
751.514110	-50.018239
751.702545	-50.148798
751.891075	-51.330184
752.079700	-49.437584
752.268419	-49.283022
752.457233	-51.281628
752.646142	-50.117511
752.835145	-49.469704
753.024244	-50.146435
753.213437	-49.874037
753.402726	-50.443476
753.592110	-49.954194
753.781589	-49.057007
753.971163	-50.275541
754.160833	-50.407462
754.350598	-49.467305
754.540459	-49.556147
754.730415	-49.660594
754.920467	-50.228223
755.110615	-49.837191
755.300858	-48.877056
755.491198	-49.958402
755.681633	-50.601377
755.872164	-48.817259
756.062792	-48.686102
756.253515	-50.886365
756.444335	-50.296251
756.635252	-47.715770
756.826264	-48.811696
757.017373	-51.947183
757.208579	-49.215639
757.399881	-47.963176
757.591280	-49.276949
757.782776	-50.484973
757.974368	-49.747547
758.166058	-48.486131
758.357844	-48.920699
758.549728	-50.129828
758.741708	-49.480929
758.933786	-49.096946
759.125961	-48.901945
759.318233	-49.199946
759.510603	-50.295691
759.703071	-49.095205
759.895635	-48.235490
760.088298	-49.704085
760.281058	-50.156710
760.473916	-48.730748
760.666872	-48.723877
760.859926	-49.687080
761.053078	-49.380502
761.246328	-48.966650
761.439676	-49.506687
761.633122	-49.156142
761.826667	-48.843280
762.020310	-49.612344
762.214052	-49.208747
762.407892	-48.913416
762.601831	-49.749496
762.795868	-49.018052
762.990004	-48.498027
763.184239	-49.904427
763.378573	-49.933181
763.573006	-48.098638
763.767538	-48.509252
763.962169	-51.067627
764.156900	-49.191486
764.351729	-47.469986
764.546658	-49.564516
764.741687	-51.141883
764.936815	-48.256704
765.132042	-48.026619
765.327370	-50.007020
765.522797	-50.221200
765.718324	-48.896496
765.913950	-48.729875
766.109677	-49.234186
766.305504	-49.877784
766.501431	-49.822972
766.697458	-48.659727
766.893586	-48.795648
767.089814	-50.362234
767.286142	-49.792910
767.482571	-48.479216
767.679100	-49.162835
767.875730	-50.709661
768.072461	-49.326638
768.269293	-48.444071
768.466225	-50.164933
768.663259	-50.235739
768.860393	-48.515771
769.057629	-49.562585
769.254966	-50.964246
769.452404	-48.828139
769.649944	-48.702060
769.847585	-50.932465
770.045328	-50.152274
770.243172	-48.740075
770.441118	-49.517488
770.639166	-50.713261
770.837315	-49.834106
771.035567	-49.145416
771.233920	-50.135335
771.432376	-50.158679
771.630934	-49.724718
771.829594	-50.448033
772.028356	-49.446787
772.227220	-49.452870
772.426188	-51.392166
772.625257	-49.986827
772.824430	-48.852149
773.023705	-50.415965
773.223083	-51.426560
773.422563	-49.328927
773.622147	-49.377352
773.821834	-51.535676
774.021624	-50.151882
774.221517	-49.465091
774.421513	-50.883813
774.621613	-50.170444
774.821816	-50.140157
775.022122	-51.164914
775.222532	-50.047890
775.423046	-49.691637
775.623664	-50.925820
775.824385	-51.207579
776.025211	-49.866051
776.226140	-49.855465
776.427173	-51.215425
776.628311	-51.027930
776.829553	-50.052361
777.030899	-49.772922
777.232350	-51.088017
777.433905	-51.721915
777.635564	-49.718461
777.837328	-49.741478
778.039197	-51.390620
778.241171	-51.563423
778.443250	-49.751308
778.645433	-49.568364
778.847722	-52.361470
779.050116	-50.584438
779.252615	-49.300883
779.455219	-51.213109
779.657929	-51.013696
779.860744	-50.443675
780.063665	-50.344064
780.266691	-50.599126
780.469823	-50.759544
780.673061	-50.255277
780.876405	-50.992474
781.079855	-50.087194
781.283410	-50.191248
781.487072	-51.198429
781.690840	-50.157486
781.894715	-50.069349
782.098695	-49.937986
782.302783	-51.057548
782.506976	-50.393995
782.711277	-49.176899
782.915684	-50.617970
783.120198	-50.230690
783.324818	-50.485344
783.529546	-49.461704
783.734381	-48.714215
783.939322	-52.314203
784.144372	-49.275426
784.349528	-47.861153
784.554792	-50.947973
784.760163	-50.494897
784.965642	-48.499159
785.171228	-48.533867
785.376922	-50.677937
785.582724	-50.030957
785.788634	-47.655681
785.994651	-48.997990
786.200777	-50.471711
786.407011	-48.492736
786.613353	-48.133349
786.819804	-49.477810
787.026363	-48.788622
787.233030	-48.136615
787.439806	-49.202641
787.646691	-47.917585
787.853684	-47.956193
788.060786	-49.328699
788.267997	-47.640123
788.475317	-47.539151
788.682746	-48.493932
788.890285	-48.006020
789.097932	-47.356156
789.305689	-47.367733
789.513555	-48.010648
789.721531	-47.519640
789.929617	-46.977119
790.137812	-47.133587
790.346117	-47.323461
790.554531	-47.325168
790.763056	-46.315475
790.971691	-46.463233
791.180436	-47.855209
791.389291	-46.002865
791.598256	-45.469488
791.807332	-47.762830
792.016518	-46.172186
792.225815	-44.964721
792.435222	-46.704168
792.644740	-46.436385
792.854369	-45.114922
793.064109	-45.580319
793.273960	-46.147153
793.483922	-45.421205
793.693995	-45.046351
793.904180	-45.486982
794.114475	-45.285229
794.324882	-44.926195
794.535401	-45.164920
794.746031	-44.767696
794.956774	-44.483420
795.167627	-45.201273
795.378593	-44.619219
795.589671	-43.994825
795.800861	-44.527820
796.012162	-44.520582
796.223577	-44.328525
796.435103	-43.601398
796.646742	-43.861732
796.858493	-44.884632
797.070357	-43.166140
797.282334	-43.038081
797.494423	-44.744192
797.706626	-43.368165
797.918941	-42.490490
798.131369	-43.875202
798.343911	-43.650385
798.556566	-42.544686
798.769334	-42.997670
798.982215	-43.259864
799.195210	-42.879974
799.408319	-42.414977
799.621541	-42.728003
799.834877	-42.975287
800.048327	-42.099347
800.261890	-42.371020
800.475568	-42.464932
800.689360	-42.199723
800.903266	-42.305540
801.117287	-41.640746
801.331422	-42.013632
801.545671	-42.428058
801.760036	-41.377204
801.974514	-41.474332
802.189108	-42.094534
802.403816	-41.427677
802.618640	-41.322311
802.833578	-41.442222
803.048632	-41.341389
803.263800	-41.359732
803.479085	-40.778339
803.694484	-41.194996
803.909999	-41.331197
804.125630	-40.567464
804.341376	-40.729735
804.557239	-40.968190
804.773217	-40.862939
804.989311	-40.114506
805.205521	-40.591381
805.421847	-41.067296
805.638290	-39.767323
805.854849	-40.217301
806.071524	-40.626508
806.288316	-40.107154
806.505225	-39.935367
806.722250	-39.809943
806.939393	-40.397150
807.156652	-39.666626
807.374028	-39.439890
807.591521	-40.271615
807.809132	-39.421154
808.026859	-39.386491
808.244705	-39.766877
808.462667	-39.228976
808.680748	-39.549732
808.898946	-39.236409
809.117261	-38.884519
809.335695	-39.721602
809.554246	-38.897865
809.772916	-38.536584
809.991704	-39.577854
810.210610	-38.829924
810.429634	-38.430311
810.648777	-39.022780
810.868039	-38.867133
811.087419	-38.395152
811.306918	-38.571115
811.526535	-38.788446
811.746272	-38.324165
811.966127	-38.351137
812.186102	-38.361792
812.406196	-38.474165
812.626409	-38.153649
812.846742	-38.018167
813.067194	-38.450612
813.287766	-37.821021
813.508457	-38.186255
813.729269	-37.915013
813.950200	-37.754612
814.171251	-38.338036
814.392422	-37.243875
814.613714	-37.988436
814.835126	-38.027704
815.056658	-37.016659
815.278311	-37.990004
815.500084	-37.664119
815.721978	-37.246272
815.943993	-37.458208
816.166128	-37.462872
816.388385	-37.520565
816.610762	-36.892223
816.833261	-37.497163
817.055881	-37.433864
817.278623	-36.612478
817.501486	-37.406496
817.724471	-37.146521
817.947577	-36.862554
818.170805	-36.926925
818.394155	-36.943537
818.617627	-37.109826
818.841221	-36.434275
819.064937	-36.994956
819.288775	-36.863280
819.512736	-36.437542
819.736819	-36.853300
819.961025	-36.465199
820.185354	-36.833973
820.409805	-36.267308
820.634379	-36.418451
820.859076	-36.952417
821.083897	-35.836276
821.308840	-36.640295
821.533907	-36.464997
821.759097	-35.959478
821.984411	-36.486197
822.209848	-36.064398
822.435409	-36.404955
822.661093	-35.850968
822.886902	-36.122955
823.112834	-36.392061
823.338891	-35.492315
823.565072	-36.297649
823.791377	-35.972219
824.017807	-35.675375
824.244361	-36.018021
824.471039	-35.749481
824.697843	-35.903459
824.924771	-35.627144
825.151824	-35.766595
825.379002	-35.770551
825.606306	-35.543387
825.833734	-35.665126
826.061288	-35.617135
826.288967	-35.662015
826.516772	-35.316434
826.744703	-35.665455
826.972759	-35.568552
827.200941	-35.113583
827.429249	-35.764941
827.657683	-35.314122
827.886243	-35.253195
828.114930	-35.397614
828.343743	-35.415564
828.572682	-35.225816
828.801748	-35.042524
829.030941	-35.687813
829.260260	-34.834559
829.489706	-35.238471
829.719280	-35.408682
829.948980	-34.821905
830.178808	-35.257327
830.408763	-35.098794
830.638845	-35.007542
830.869055	-34.966370
831.099393	-35.149844
831.329858	-34.897363
831.560451	-34.941006
831.791173	-34.964034
832.022022	-34.893081
832.252999	-34.906553
832.484105	-34.746124
832.715339	-35.011369
832.946702	-34.742788
833.178193	-34.680124
833.409813	-35.028750
833.641561	-34.593001
833.873439	-34.690414
834.105445	-34.899575
834.337581	-34.593754
834.569846	-34.696165
834.802241	-34.654493
835.034764	-34.818156
835.267418	-34.443987
835.500201	-34.677648
835.733114	-34.784257
835.966157	-34.365487
836.199329	-34.687530
836.432632	-34.639330
836.666065	-34.471249
836.899629	-34.491235
837.133323	-34.674430
837.367147	-34.452529
837.601102	-34.420082
837.835188	-34.577166
838.069405	-34.454326
838.303752	-34.451603
838.538231	-34.334522
838.772841	-34.633809
839.007582	-34.300022
839.242455	-34.196477
839.477459	-34.839050
839.712595	-33.929249
839.947863	-34.510009
840.183263	-34.481338
840.418794	-34.043354
840.654458	-34.520099
840.890254	-34.224673
841.126182	-34.293697
841.362242	-34.254644
841.598435	-34.346090
841.834761	-34.183187
842.071220	-34.294068
842.307811	-34.221130
842.544536	-34.306121
842.781393	-34.108210
843.018384	-34.305796
843.255508	-34.308372
843.492765	-33.974715
843.730156	-34.451766
843.967681	-34.198465
844.205339	-33.949376
844.443132	-34.564821
844.681058	-33.992596
844.919118	-34.199686
845.157313	-34.301889
845.395642	-34.071395
845.634105	-34.353216
845.872703	-33.910621
846.111436	-34.616528
846.350303	-33.769589
846.589306	-34.385609
846.828443	-34.259458
847.067716	-33.805016
847.307124	-34.647959
847.546667	-33.817455
847.786345	-34.288342
848.026160	-34.176405
848.266110	-34.122098
848.506195	-34.098891
848.746417	-34.199416
848.986775	-34.161657
849.227269	-34.004675
849.467899	-34.275148
849.708666	-34.023056
849.949569	-34.203317
850.190609	-33.958305
850.431785	-34.360452
850.673099	-33.868051
850.914549	-34.246361
851.156137	-34.106023
851.397861	-34.031792
851.639723	-34.149212
851.881723	-34.172083
852.123860	-33.974455
852.366135	-34.166788
852.608547	-34.250235
852.851098	-33.784487
853.093786	-34.466689
853.336613	-33.949761
853.579578	-34.085877
853.822681	-34.225623
854.065923	-34.148561
854.309304	-33.918856
854.552823	-34.490489
854.796481	-33.797641
855.040278	-34.407156
855.284215	-33.989073
855.528290	-34.306283
855.772505	-33.924379
856.016859	-34.435748
856.261353	-33.958487
856.505987	-34.156151
856.750760	-34.347957
856.995673	-33.912735
857.240727	-34.392743
857.485920	-34.067737
857.731254	-34.219503
857.976729	-34.152584
858.222343	-34.289029
858.468099	-34.037191
858.713995	-34.323074
858.960032	-34.156859
859.206211	-34.200159
859.452530	-34.123573
859.698991	-34.430526
859.945593	-33.896770
860.192336	-34.521970
860.439222	-34.044695
860.686248	-34.232725
860.933417	-34.323386
861.180728	-34.165897
861.428181	-34.177045
861.675776	-34.420991
861.923514	-34.074547
862.171394	-34.337026
862.419417	-34.224840
862.667582	-34.328202
862.915890	-34.085997
863.164342	-34.551151
863.412936	-34.004203
863.661674	-34.372376
863.910555	-34.420183
864.159579	-33.944545
864.408747	-34.689633
864.658059	-34.024850
864.907515	-34.417997
865.157114	-34.274139
865.406858	-34.348558
865.656746	-34.230765
865.906778	-34.412598
866.156955	-34.330028
866.407277	-34.157709
866.657743	-34.596251
866.908354	-34.136868
867.159110	-34.399699
867.410011	-34.437608
867.661057	-34.239011
867.912249	-34.364760
868.163586	-34.525421
868.415069	-34.144333
868.666697	-34.508514
868.918472	-34.462827
869.170392	-34.118768
869.422458	-34.740187
869.674671	-34.146755
869.927030	-34.443160
870.179536	-34.536351
870.432188	-34.222318
870.684987	-34.516314
870.937933	-34.451220
871.191026	-34.309705
871.444266	-34.507789
871.697653	-34.432686
871.951188	-34.308788
872.204870	-34.518590
872.458700	-34.483642
872.712677	-34.177002
872.966803	-34.760500
873.221076	-34.160413
873.475498	-34.467357
873.730068	-34.549725
873.984787	-34.180335
874.239654	-34.586503
874.494669	-34.393755
874.749834	-34.265160
875.005147	-34.633978
875.260610	-34.179818
875.516222	-34.541648
875.771983	-34.311949
876.027894	-34.449555
876.283954	-34.264899
876.540164	-34.561613
876.796524	-34.151231
877.053033	-34.536183
877.309693	-34.263776
877.566503	-34.351084
877.823464	-34.356005
878.080575	-34.329787
878.337837	-34.257804
878.595249	-34.408144
878.852813	-34.182417
879.110528	-34.382748
879.368393	-34.193999
879.626410	-34.324027
879.884579	-34.179003
880.142899	-34.326148
880.401371	-34.095482
880.659994	-34.343608
880.918770	-34.037045
881.177698	-34.348532
881.436778	-33.933728
881.696010	-34.403716
881.955395	-33.838682
882.214933	-34.363543
882.474623	-33.863055
882.734467	-34.224219
882.994463	-33.894971
883.254613	-34.122807
883.514916	-33.873247
883.775372	-34.049755
884.035982	-33.865103
884.296746	-33.880170
884.557664	-33.989532
884.818735	-33.607270
885.079961	-34.134310
885.341341	-33.449070
885.602876	-34.070757
885.864565	-33.480756
886.126409	-33.838043
886.388407	-33.602440
886.650561	-33.619597
886.912870	-33.620246
887.175334	-33.523144
887.437953	-33.578060
887.700728	-33.378395
887.963658	-33.658227
888.226745	-33.123590
888.489987	-33.769801
888.753385	-32.968138
889.016940	-33.658359
889.280651	-33.049021
889.544518	-33.370515
889.808543	-33.169034
890.072723	-33.188383
890.337061	-33.103312
890.601556	-33.198849
890.866208	-32.922730
891.131017	-33.232390
891.395984	-32.853939
891.661109	-33.050250
891.926391	-32.999365
892.191831	-32.730039
892.457429	-33.194293
892.723186	-32.507959
892.989100	-33.161967
893.255173	-32.526206
893.521405	-32.949776
893.787796	-32.601856
894.054345	-32.817614
894.321053	-32.524922
894.587921	-32.833462
894.854948	-32.367454
895.122134	-32.829237
895.389480	-32.326518
895.656986	-32.636366
895.924651	-32.442977
896.192477	-32.364863
896.460463	-32.552032
896.728609	-32.193531
896.996915	-32.469988
897.265382	-32.225179
897.534010	-32.219496
897.802799	-32.341758
898.071749	-31.998639
898.340860	-32.340094
898.610132	-31.963315
898.879566	-32.159548
899.149162	-31.997769
899.418919	-32.004853
899.688838	-31.920167
899.958919	-31.996113
900.229162	-31.730884
900.499568	-32.017289
900.770136	-31.583280
901.040867	-31.956300
901.311761	-31.541675
901.582817	-31.757190
901.854037	-31.587156
902.125420	-31.540663
902.396966	-31.587365
902.668676	-31.455838
902.940550	-31.409820
903.212587	-31.483160
903.484788	-31.238712
903.757153	-31.418018
904.029683	-31.184115
904.302377	-31.253137
904.575236	-31.177226
904.848259	-31.102542
905.121447	-31.149424
905.394800	-30.976011
905.668319	-31.066825
905.942002	-30.928034
906.215852	-30.917616
906.489866	-30.893132
906.764047	-30.818449
907.038393	-30.769719
907.312906	-30.810865
907.587584	-30.594846
907.862429	-30.796483
908.137441	-30.454731
908.412619	-30.731351
908.687964	-30.383935
908.963476	-30.571991
909.239155	-30.379758
909.515002	-30.394927
909.791015	-30.333227
910.067197	-30.287923
910.343546	-30.222296
910.620063	-30.202933
910.896748	-30.125589
911.173601	-30.087559
911.450623	-30.063956
911.727813	-29.940273
912.005171	-30.018705
912.282699	-29.796356
912.560395	-29.941034
912.838261	-29.704095
913.116296	-29.816476
913.394500	-29.646648
913.672874	-29.655418
913.951418	-29.626643
914.230131	-29.472757
914.509015	-29.603258
914.788068	-29.323203
915.067292	-29.535547
915.346687	-29.213591
915.626252	-29.437124
915.905988	-29.140156
916.185895	-29.306864
916.465973	-29.078395
916.746223	-29.168219
917.026644	-29.036379
917.307236	-29.003174
917.588000	-29.024981
917.868937	-28.827967
918.150045	-28.996968
918.431325	-28.691851
918.712778	-28.939486
918.994404	-28.587788
919.276202	-28.834623
919.558173	-28.539695
919.840317	-28.691215
920.122634	-28.521473
920.405125	-28.531901
920.687789	-28.511867
920.970627	-28.394538
921.253639	-28.464004
921.536824	-28.318147
921.820184	-28.358816
922.103718	-28.292363
922.387427	-28.217704
922.671310	-28.288095
922.955368	-28.086868
923.239601	-28.258859
923.524009	-27.991366
923.808592	-28.188146
924.093351	-27.946904
924.378285	-28.071988
924.663396	-27.931840
924.948682	-27.939372
925.234144	-27.927207
925.519782	-27.813590
925.805597	-27.888497
926.091589	-27.727806
926.377757	-27.825777
926.664102	-27.661546
926.950624	-27.732935
927.237323	-27.613155
927.524200	-27.640890
927.811255	-27.565708
928.098487	-27.537906
928.385897	-27.515607
928.673485	-27.459033
928.961251	-27.451609
929.249196	-27.388516
929.537319	-27.360226
929.825621	-27.352073
930.114102	-27.260503
930.402762	-27.312678
930.691601	-27.152774
930.980620	-27.273756
931.269818	-27.071133
931.559196	-27.201358
931.848753	-27.010659
932.138491	-27.105089
932.428409	-26.983427
932.718508	-26.980314
933.008787	-26.957453
933.299246	-26.871417
933.589887	-26.913635
933.880709	-26.793522
934.171712	-26.813364
934.462896	-26.760891
934.754262	-26.699663
935.045810	-26.720914
935.337539	-26.596212
935.629451	-26.651121
935.921545	-26.549023
936.213822	-26.530187
936.506281	-26.528480
936.798922	-26.396027
937.091747	-26.515031
937.384755	-26.290570
937.677946	-26.443897
937.971321	-26.251785
938.264879	-26.321460
938.558621	-26.255790
938.852547	-26.175291
939.146657	-26.260816
939.440952	-26.060559
939.735431	-26.224893
940.030095	-25.997549
940.324943	-26.131387
940.619977	-25.992449
940.915196	-25.994733
941.210600	-26.008165
941.506189	-25.862241
941.801965	-25.992241
942.097926	-25.784001
942.394074	-25.905545
942.690407	-25.770519
942.986927	-25.754874
943.283634	-25.791175
943.580527	-25.614621
943.877608	-25.754289
944.174875	-25.545879
944.472330	-25.630640
944.769972	-25.551116
945.067802	-25.461424
945.365820	-25.545362
945.664026	-25.348703
945.962420	-25.454791
946.261002	-25.323683
946.559773	-25.281932
946.858733	-25.344647
947.157881	-25.127588
947.457219	-25.301228
947.756746	-25.065790
948.056462	-25.161038
948.356368	-25.089227
948.656464	-24.980743
948.956749	-25.108713
949.257225	-24.864760
949.557891	-25.042365
949.858748	-24.849321
950.159796	-24.898511
950.461034	-24.882297
950.762463	-24.768022
951.064084	-24.866644
951.365896	-24.728534
951.667900	-24.759072
951.970095	-24.758065
952.272483	-24.649427
952.575063	-24.744650
952.877835	-24.619906
953.180799	-24.641301
953.483956	-24.668662
953.787307	-24.524647
954.090850	-24.655282
954.394586	-24.517204
954.698516	-24.540459
955.002640	-24.569074
955.306957	-24.423174
955.611469	-24.551892
955.916174	-24.429456
956.221074	-24.406841
956.526169	-24.491612
956.831458	-24.297939
957.136942	-24.448219
957.442622	-24.313628
957.748496	-24.288326
958.054567	-24.386378
958.360833	-24.162309
958.667294	-24.343693
958.973952	-24.174167
959.280806	-24.189626
959.587857	-24.231248
959.895104	-24.060882
960.202548	-24.209716
960.510189	-24.040963
960.818027	-24.083159
961.126062	-24.080969
961.434295	-23.963109
961.742726	-24.063231
962.051355	-23.932847
962.360182	-23.957380
962.669207	-23.964267
962.978431	-23.843512
963.287854	-23.952395
963.597475	-23.818015
963.907296	-23.844808
964.217315	-23.855224
964.527535	-23.743209
964.837954	-23.831932
965.148573	-23.725607
965.459392	-23.747158
965.770411	-23.729333
966.081630	-23.682105
966.393051	-23.685478
966.704672	-23.667871
967.016494	-23.622659
967.328517	-23.624449
967.640742	-23.604989
967.953169	-23.564401
968.265797	-23.558687
968.578627	-23.541184
968.891660	-23.494740
969.204895	-23.503169
969.518332	-23.457974
969.831972	-23.430342
970.145816	-23.439353
970.459862	-23.366307
970.774112	-23.376205
971.088565	-23.339712
971.403223	-23.311735
971.718084	-23.273812
972.033149	-23.281835
972.348419	-23.210015
972.663893	-23.209457
972.979572	-23.191528
973.295456	-23.126864
973.611546	-23.134668
973.927840	-23.107986
974.244340	-23.037073
974.561046	-23.076151
974.877958	-23.006055
975.195076	-22.972454
975.512401	-23.010191
975.829932	-22.900950
976.147670	-22.939720
976.465615	-22.909027
976.783767	-22.844030
977.102126	-22.885349
977.420693	-22.813161
977.739468	-22.824369
978.058451	-22.788659
978.377642	-22.768875
978.697041	-22.781088
979.016649	-22.700713
979.336466	-22.756228
979.656492	-22.699119
979.976727	-22.663764
980.297171	-22.715101
980.617825	-22.637988
980.938689	-22.624511
981.259763	-22.683947
981.581048	-22.570487
981.902542	-22.598992
982.224248	-22.647867
982.546164	-22.505837
982.868291	-22.584629
983.190630	-22.599326
983.513180	-22.450851
983.835942	-22.577195
984.158916	-22.533405
984.482101	-22.419276
984.805500	-22.553187
985.129110	-22.472518
985.452934	-22.388264
985.776970	-22.528552
986.101220	-22.401508
986.425683	-22.374846
986.750359	-22.478878
987.075250	-22.347489
987.400354	-22.356404
987.725673	-22.414487
988.051206	-22.309578
988.376954	-22.324428
988.702916	-22.343284
989.029094	-22.283921
989.355487	-22.273140
989.682095	-22.283308
990.008919	-22.248619
990.335959	-22.222395
990.663216	-22.219764
990.990688	-22.210835
991.318377	-22.168276
991.646283	-22.156429
991.974406	-22.167567
992.302746	-22.114949
992.631304	-22.087791
992.960079	-22.127492
993.289072	-22.052297
993.618283	-22.024630
993.947713	-22.077915
994.277361	-21.990290
994.607227	-21.962242
994.937313	-22.022002
995.267618	-21.925830
995.598142	-21.908866
995.928886	-21.947541
996.259849	-21.874205
996.591033	-21.846471
996.922437	-21.874311
997.254061	-21.817383
997.585906	-21.790122
997.917972	-21.794523
998.250260	-21.763006
998.582768	-21.733844
998.915498	-21.717608
999.248450	-21.703843
999.581624	-21.685602
999.915020	-21.633907
1000.248639	-21.655267
1000.582480	-21.626708
1000.916545	-21.568188
1001.250832	-21.596484
1001.585343	-21.573545
1001.920077	-21.510235
1002.255035	-21.533473
1002.590218	-21.522321
1002.925624	-21.462962
1003.261255	-21.465297
1003.597111	-21.480547
1003.933192	-21.413623
1004.269497	-21.409703
1004.606029	-21.429333
1004.942785	-21.373245
1005.279768	-21.360266
1005.616977	-21.372548
1005.954412	-21.339584
1006.292074	-21.317662
1006.629962	-21.315899
1006.968077	-21.307854
1007.306420	-21.281338
1007.644990	-21.267876
1007.983787	-21.266667
1008.322813	-21.260801
1008.662067	-21.217498
1009.001549	-21.229956
1009.341259	-21.239003
1009.681199	-21.179334
1010.021367	-21.187850
1010.361765	-21.221559
1010.702392	-21.142981
1011.043250	-21.155596
1011.384337	-21.192408
1011.725654	-21.119159
1012.067202	-21.122411
1012.408980	-21.160491
1012.750989	-21.096539
1013.093230	-21.089935
1013.435702	-21.124291
1013.778405	-21.072087
1014.121341	-21.055902
1014.464508	-21.085778
1014.807908	-21.043935
1015.151540	-21.016379
1015.495405	-21.048614
1015.839503	-21.010465
1016.183835	-20.971691
1016.528400	-21.012299
1016.873198	-20.969529
1017.218231	-20.927564
1017.563498	-20.972770
1017.908999	-20.920188
1018.254735	-20.886087
1018.600707	-20.925419
1018.946913	-20.868681
1019.293354	-20.835840
1019.640032	-20.880741
1019.986945	-20.811279
1020.334094	-20.779479
1020.681480	-20.828664
1021.029102	-20.764036
1021.376961	-20.707480
1021.725058	-20.771180
1022.073391	-20.724045
1022.421962	-20.635640
1022.770772	-20.697164
1023.119819	-20.685982
1023.469104	-20.577979
1023.818628	-20.608630
1024.168391	-20.636723
1024.518393	-20.538198
1024.868634	-20.525074
1025.219115	-20.566407
1025.569836	-20.503996
1025.920796	-20.460793
1026.271997	-20.491090
1026.623438	-20.452605
1026.975121	-20.415150
1027.327044	-20.429133
1027.679208	-20.392891
1028.031614	-20.354880
1028.384262	-20.395936
1028.737152	-20.343204
1029.090284	-20.277192
1029.443659	-20.356994
1029.797276	-20.332156
1030.151137	-20.205488
1030.505240	-20.282747
1030.859587	-20.339154
1031.214178	-20.178481
1031.569013	-20.189207
1031.924093	-20.311165
1032.279417	-20.200899
1032.634985	-20.123219
1032.990799	-20.237750
1033.346858	-20.218321
1033.703162	-20.115184
1034.059712	-20.158590
1034.416509	-20.197803
1034.773551	-20.122675
1035.130841	-20.122732
1035.488377	-20.158610
1035.846160	-20.109659
1036.204190	-20.099992
1036.562468	-20.145059
1036.920994	-20.093400
1037.279768	-20.049925
1037.638790	-20.133007
1037.998061	-20.113885
1038.357581	-20.000570
1038.717350	-20.071008
1039.077368	-20.138202
1039.437636	-20.008201
1039.798154	-19.988912
1040.158922	-20.097708
1040.519940	-20.046620
1040.881209	-19.956763
1041.242729	-20.015597
1041.604501	-20.032600
1041.966524	-19.961234
1042.328798	-19.962283
1042.691325	-19.982594
1043.054103	-19.931071
1043.417135	-19.920537
1043.780419	-19.955658
1044.143956	-19.896172
1044.507746	-19.832624
1044.871791	-19.906645
1045.236088	-19.911997
1045.600641	-19.763198
1045.965447	-19.775591
1046.330508	-19.896098
1046.695824	-19.781188
1047.061395	-19.662568
1047.427222	-19.765504
1047.793304	-19.786837
1048.159642	-19.651645
1048.526237	-19.633421
1048.893088	-19.682526
1049.260196	-19.646783
1049.627561	-19.580673
1049.995183	-19.573145
1050.363063	-19.572059
1050.731201	-19.519822
1051.099597	-19.508021
1051.468251	-19.517383
1051.837164	-19.430488
1052.206336	-19.406713
1052.575767	-19.464508
1052.945458	-19.409110
1053.315409	-19.310421
1053.685619	-19.329377
1054.056090	-19.380301
1054.426821	-19.314098
1054.797814	-19.211221
1055.169067	-19.254382
1055.540582	-19.303924
1055.912359	-19.199658
1056.284398	-19.151076
1056.656698	-19.207273
1057.029262	-19.183683
1057.402088	-19.120930
1057.775177	-19.126572
1058.148530	-19.137593
1058.522146	-19.084362
1058.896027	-19.059060
1059.270171	-19.107876
1059.644580	-19.078171
1060.019254	-18.991341
1060.394193	-19.027674
1060.769397	-19.080104
1061.144867	-19.008812
1061.520602	-18.950399
1061.896604	-18.991058
1062.272872	-19.027891
1062.649407	-18.967114
1063.026210	-18.916727
1063.403279	-18.959507
1063.780616	-18.968580
1064.158221	-18.910683
1064.536094	-18.905623
1064.914235	-18.921140
1065.292645	-18.891954
1065.671325	-18.857535
1066.050273	-18.872003
1066.429491	-18.881195
1066.808979	-18.811679
1067.188738	-18.776604
1067.568766	-18.831248
1067.949066	-18.810989
1068.329636	-18.720560
1068.710478	-18.707864
1069.091592	-18.738338
1069.472977	-18.718165
1069.854635	-18.640176
1070.236565	-18.609451
1070.618768	-18.642821
1071.001243	-18.600740
1071.383993	-18.534962
1071.767016	-18.531432
1072.150313	-18.523927
1072.533884	-18.480792
1072.917730	-18.431308
1073.301850	-18.427253
1073.686246	-18.430676
1074.070917	-18.361357
1074.455864	-18.322324
1074.841087	-18.336891
1075.226586	-18.317686
1075.612362	-18.275959
1075.998415	-18.230195
1076.384745	-18.231143
1076.771353	-18.234143
1077.158238	-18.184776
1077.545401	-18.160601
1077.932843	-18.155987
1078.320564	-18.145595
1078.708564	-18.118663
1079.096842	-18.089988
1079.485401	-18.109645
1079.874240	-18.095182
1080.263358	-18.047122
1080.652757	-18.042450
1081.042438	-18.069283
1081.432399	-18.069416
1081.822641	-18.011724
1082.213166	-17.995203
1082.603972	-18.042213
1082.995061	-18.041062
1083.386433	-18.000877
1083.778087	-17.978046
1084.170025	-18.004203
1084.562246	-18.015671
1084.954751	-17.978075
1085.347541	-17.973123
1085.740615	-17.983414
1086.133973	-17.968441
1086.527617	-17.945930
1086.921546	-17.945349
1087.315761	-17.957573
1087.710262	-17.928591
1088.105050	-17.893637
1088.500124	-17.893717
1088.895485	-17.902587
1089.291134	-17.886049
1089.687070	-17.839296
1090.083294	-17.822370
1090.479806	-17.834528
1090.876607	-17.818653
1091.273696	-17.779727
1091.671075	-17.751794
1092.068744	-17.757422
1092.466702	-17.751858
1092.864950	-17.704348
1093.263489	-17.677632
1093.662319	-17.684184
1094.061440	-17.682735
1094.460852	-17.641858
1094.860555	-17.597305
1095.260551	-17.603289
1095.660840	-17.610120
1096.061421	-17.581979
1096.462295	-17.535905
1096.863462	-17.515633
1097.264923	-17.524420
1097.666678	-17.506729
1098.068727	-17.472432
1098.471071	-17.442585
1098.873710	-17.434335
1099.276644	-17.420450
1099.679874	-17.379022
1100.083400	-17.360783
1100.487222	-17.350910
1100.891340	-17.334684
1101.295756	-17.288800
1101.700468	-17.246468
1102.105478	-17.253606
1102.510787	-17.248507
1102.916393	-17.214365
1103.322298	-17.151761
1103.728502	-17.127963
1104.135005	-17.150343
1104.541807	-17.135590
1104.948909	-17.088558
1105.356312	-17.031414
1105.764015	-17.032986
1106.172019	-17.047308
1106.580324	-17.015573
1106.988931	-16.971883
1107.397840	-16.940434
1107.807051	-16.951295
1108.216564	-16.937085
1108.626380	-16.899221
1109.036500	-16.871093
1109.446923	-16.862030
1109.857649	-16.864784
1110.268680	-16.825481
1110.680016	-16.791409
1111.091657	-16.780027
1111.503602	-16.779568
1111.915854	-16.763342
1112.328411	-16.717213
1112.741275	-16.699899
1113.154445	-16.696337
1113.567922	-16.690330
1113.981706	-16.659366
1114.395798	-16.623221
1114.810198	-16.622841
1115.224906	-16.625587
1115.639923	-16.613632
1116.055249	-16.571792
1116.470884	-16.550967
1116.886829	-16.567713
1117.303084	-16.579528
1117.719650	-16.562222
1118.136526	-16.516749
1118.553713	-16.510254
1118.971212	-16.531468
1119.389022	-16.550971
1119.807145	-16.532756
1120.225580	-16.502221
1120.644328	-16.501461
1121.063389	-16.509947
1121.482763	-16.515053
1121.902452	-16.495091
1122.322454	-16.495835
1122.742771	-16.500355
1123.163404	-16.497691
1123.584351	-16.466876
1124.005614	-16.439528
1124.427193	-16.447771
1124.849089	-16.456265
1125.271301	-16.450287
1125.693830	-16.398957
1126.116677	-16.370864
1126.539842	-16.362643
1126.963324	-16.369285
1127.387126	-16.341137
1127.811246	-16.286307
1128.235685	-16.254608
1128.660444	-16.246931
1129.085522	-16.253977
1129.510922	-16.209762
1129.936641	-16.158376
1130.362682	-16.114385
1130.789044	-16.113247
1131.215728	-16.104629
1131.642734	-16.067222
1132.070063	-16.021349
1132.497714	-15.992688
1132.925689	-15.997838
1133.353987	-15.976420
1133.782610	-15.940863
1134.211556	-15.893692
1134.640827	-15.888723
1135.070424	-15.893603
1135.500345	-15.879654
1135.930593	-15.837931
1136.361166	-15.802769
1136.792067	-15.812851
1137.223294	-15.824426
1137.654848	-15.815774
1138.086730	-15.763229
1138.518940	-15.735996
1138.951479	-15.739151
1139.384346	-15.763173
1139.817543	-15.749020
1140.251069	-15.708026
1140.684925	-15.680252
1141.119111	-15.684611
1141.553628	-15.700535
1141.988475	-15.672236
1142.423655	-15.628935
1142.859166	-15.589706
1143.295009	-15.604443
1143.731185	-15.606756
1144.167694	-15.589199
1144.604536	-15.527712
1145.041711	-15.494057
1145.479221	-15.482133
1145.917065	-15.479558
1146.355245	-15.442388
1146.793759	-15.386536
1147.232609	-15.355466
1147.671795	-15.346287
1148.111317	-15.341554
1148.551177	-15.285498
1148.991373	-15.226081
1149.431907	-15.176664
1149.872779	-15.182527
1150.313989	-15.169107
1150.755538	-15.137347
1151.197426	-15.064031
1151.639653	-15.027777
1152.082220	-15.011612
1152.525128	-15.012224
1152.968376	-14.973159
1153.411966	-14.923209
1153.855897	-14.884773
1154.300169	-14.878114
1154.744784	-14.875220
1155.189742	-14.846108
1155.635042	-14.806220
1156.080687	-14.774602
1156.526674	-14.776093
1156.973007	-14.768522
1157.419683	-14.752808
1157.866705	-14.713550
1158.314072	-14.703170
1158.761786	-14.700428
1159.209845	-14.709407
1159.658251	-14.684183
1160.107004	-14.660405
1160.556104	-14.638501
1161.005553	-14.649897
1161.455349	-14.654392
1161.905494	-14.652112
1162.355989	-14.626807
1162.806832	-14.610558
1163.258026	-14.600486
1163.709570	-14.603237
1164.161464	-14.602884
1164.613710	-14.600193
1165.066307	-14.592606
1165.519256	-14.576748
1165.972558	-14.559734
1166.426212	-14.544007
1166.880219	-14.548801
1167.334580	-14.552856
1167.789295	-14.555448
1168.244364	-14.527627
1168.699788	-14.503778
1169.155567	-14.481607
1169.611702	-14.492980
1170.068193	-14.494633
1170.525041	-14.495637
1170.982245	-14.463230
1171.439807	-14.443795
1171.897726	-14.419074
1172.356004	-14.425376
1172.814640	-14.418915
1173.273635	-14.421594
1173.732989	-14.395745
1174.192703	-14.380174
1174.652778	-14.350321
1175.113213	-14.347895
1175.574009	-14.338321
1176.035167	-14.344685
1176.496687	-14.323811
1176.958569	-14.307971
1177.420814	-14.275274
1177.883422	-14.268956
1178.346394	-14.259784
1178.809730	-14.265778
1179.273430	-14.246201
1179.737496	-14.228448
1180.201927	-14.196608
1180.666723	-14.188745
1181.131886	-14.180954
1181.597416	-14.184979
1182.063312	-14.165421
1182.529576	-14.145219
1182.996209	-14.114558
1183.463209	-14.106052
1183.930579	-14.099409
1184.398317	-14.101921
1184.866426	-14.081705
1185.334904	-14.060473
1185.803754	-14.031022
1186.272974	-14.023368
1186.742566	-14.016843
1187.212529	-14.016417
1187.682865	-13.996546
1188.153574	-13.974877
1188.624656	-13.951167
1189.096112	-13.942839
1189.567942	-13.938005
1190.040147	-13.929826
1190.512726	-13.913082
1190.985681	-13.889040
1191.459012	-13.877012
1191.932720	-13.864450
1192.406804	-13.864816
1192.881265	-13.844040
1193.356104	-13.834310
1193.831322	-13.805546
1194.306918	-13.806251
1194.782893	-13.787416
1195.259248	-13.791970
1195.735982	-13.762783
1196.213097	-13.758529
1196.690593	-13.730370
1197.168471	-13.734597
1197.646730	-13.714571
1198.125371	-13.713698
1198.604395	-13.688425
1199.083803	-13.680667
1199.563594	-13.664160
1200.043769	-13.658943
1200.524329	-13.647591
1201.005273	-13.632060
1201.486604	-13.620147
1201.968320	-13.602318
1202.450422	-13.600706
1202.932912	-13.583294
1203.415789	-13.580821
1203.899054	-13.555201
1204.382707	-13.552252
1204.866748	-13.531279
1205.351179	-13.534301
1205.836000	-13.514403
1206.321211	-13.510490
1206.806812	-13.486963
1207.292805	-13.482189
1207.779189	-13.468270
1208.265965	-13.465527
1208.753134	-13.452758
1209.240696	-13.438954
1209.728651	-13.425724
1210.217000	-13.410727
1210.705744	-13.409450
1211.194883	-13.394757
1211.684417	-13.393468
1212.174347	-13.367823
1212.664673	-13.364679
1213.155396	-13.341962
1213.646516	-13.345939
1214.138034	-13.327800
1214.629951	-13.323633
1215.122266	-13.302602
1215.614980	-13.290025
1216.108095	-13.280690
1216.601609	-13.267783
1217.095524	-13.265879
1217.589841	-13.240775
1218.084559	-13.235975
1218.579679	-13.207704
1219.075202	-13.209138
1219.571128	-13.189158
1220.067458	-13.185557
1220.564191	-13.164257
1221.061330	-13.146694
1221.558874	-13.133442
1222.056823	-13.115311
1222.555178	-13.113966
1223.053940	-13.089921
1223.553109	-13.083772
1224.052686	-13.053526
1224.552671	-13.046444
1225.053065	-13.026458
1225.553867	-13.019342
1226.055079	-13.003620
1226.556702	-12.984260
1227.058735	-12.969339
1227.561179	-12.946692
1228.064035	-12.941090
1228.567303	-12.920239
1229.070983	-12.913824
1229.575077	-12.888158
1230.079585	-12.876202
1230.584506	-12.855979
1231.089842	-12.844849
1231.595594	-12.833244
1232.101761	-12.814206
1232.608345	-12.803103
1233.115345	-12.776703
1233.622762	-12.771079
1234.130597	-12.749557
1234.638851	-12.744564
1235.147523	-12.725764
1235.656615	-12.708749
1236.166126	-12.696187
1236.676058	-12.673588
1237.186411	-12.672539
1237.697185	-12.649227
1238.208381	-12.645590
1238.719999	-12.623068
1239.232040	-12.609647
1239.744505	-12.600008
1240.257394	-12.581046
1240.770708	-12.581670
1241.284446	-12.556935
1241.798610	-12.554050
1242.313201	-12.533946
1242.828218	-12.525251
1243.343662	-12.519930
1243.859534	-12.503043
1244.375834	-12.503917
1244.892563	-12.481368
1245.409721	-12.481492
1245.927309	-12.467615
1246.445327	-12.463596
1246.963777	-12.460788
1247.482657	-12.446904
1248.001970	-12.448879
1248.521716	-12.433100
1249.041894	-12.437799
1249.562506	-12.430300
1250.083553	-12.429335
1250.605034	-12.428699
1251.126950	-12.419025
1251.649302	-12.425319
1252.172091	-12.417128
1252.695316	-12.425001
1253.218979	-12.423328
1253.743079	-12.421400
1254.267619	-12.427936
1254.792597	-12.419759
1255.318015	-12.433583
1255.843874	-12.429442
1256.370173	-12.436966
1256.896913	-12.441453
1257.424095	-12.436631
1257.951720	-12.451509
1258.479787	-12.445623
1259.008298	-12.459915
1259.537254	-12.461925
1260.066654	-12.462459
1260.596499	-12.474879
1261.126790	-12.469173
1261.657527	-12.485252
1262.188711	-12.486055
1262.720342	-12.490988
1263.252422	-12.500676
1263.784950	-12.496011
1264.317928	-12.510311
1264.851355	-12.510451
1265.385232	-12.517689
1265.919560	-12.525960
1266.454340	-12.522153
1266.989572	-12.534257
1267.525256	-12.532143
1268.061394	-12.540721
1268.597985	-12.547063
1269.135031	-12.545035
1269.672531	-12.555334
1270.210487	-12.550536
1270.748899	-12.559020
1271.287768	-12.562614
1271.827094	-12.561833
1272.366877	-12.571038
1272.907119	-12.564377
1273.447820	-12.571036
1273.988981	-12.572473
1274.530601	-12.569852
1275.072683	-12.579021
1275.615226	-12.570430
1276.158230	-12.574189
1276.701697	-12.574455
1277.245627	-12.567410
1277.790021	-12.575925
1278.334879	-12.566052
1278.880202	-12.565224
1279.425991	-12.565393
1279.972245	-12.552988
1280.518966	-12.558596
1281.066155	-12.548929
1281.613811	-12.541733
1282.161936	-12.542209
1282.710529	-12.525046
1283.259593	-12.525715
1283.809126	-12.516311
1284.359131	-12.503796
1284.909607	-12.502416
1285.460555	-12.483616
1286.011976	-12.477769
1286.563870	-12.467923
1287.116237	-12.452017
1287.669080	-12.447087
1288.222397	-12.428386
1288.776191	-12.417173
1289.330460	-12.405763
1289.885207	-12.387718
1290.440431	-12.379733
1290.996133	-12.360787
1291.552314	-12.346329
1292.108975	-12.333381
1292.666115	-12.313129
1293.223737	-12.302980
1293.781839	-12.284395
1294.340424	-12.266282
1294.899491	-12.253841
1295.459041	-12.231242
1296.019075	-12.217836
1296.579593	-12.202238
1297.140597	-12.179287
1297.702086	-12.167522
1298.264061	-12.145673
1298.826524	-12.125890
1299.389474	-12.114561
1299.952912	-12.089202
1300.516839	-12.074018
1301.081255	-12.057568
1301.646162	-12.031386
1302.211559	-12.020187
1302.777448	-11.999453
1303.343829	-11.976592
1303.910702	-11.965633
1304.478069	-11.939938
1305.045930	-11.921727
1305.614285	-11.909805
1306.183136	-11.883059
1306.752483	-11.870078
1307.322326	-11.853662
1307.892666	-11.827807
1308.463504	-11.818816
1309.034841	-11.798829
1309.606677	-11.777883
1310.179012	-11.769501
1310.751849	-11.746309
1311.325186	-11.730557
1311.899025	-11.721238
1312.473366	-11.698715
1313.048211	-11.687693
1313.623559	-11.675735
1314.199412	-11.654670
1314.775770	-11.647155
1315.352634	-11.633618
1315.930004	-11.616021
1316.507881	-11.610673
1317.086266	-11.594703
1317.665159	-11.581091
1318.244562	-11.577021
1318.824474	-11.560158
1319.404897	-11.551493
1319.985831	-11.546571
1320.567276	-11.529512
1321.149234	-11.525468
1321.731706	-11.519599
1322.314691	-11.504106
1322.898190	-11.503571
1323.482205	-11.496263
1324.066736	-11.482647
1324.651783	-11.485606
1325.237347	-11.477413
1325.823430	-11.466225
1326.410031	-11.471611
1326.997151	-11.462210
1327.584791	-11.454293
1328.172952	-11.461800
1328.761634	-11.451823
1329.350839	-11.447129
1329.940566	-11.455329
1330.530817	-11.445582
1331.121592	-11.444302
1331.712891	-11.452894
1332.304716	-11.443874
1332.897068	-11.445171
1333.489946	-11.453734
1334.083352	-11.445980
1334.677287	-11.449825
1335.271750	-11.458163
1335.866744	-11.451264
1336.462268	-11.457488
1337.058323	-11.465569
1337.654910	-11.459737
1338.252029	-11.468279
1338.849682	-11.475693
1339.447869	-11.470526
1340.046591	-11.481427
1340.645848	-11.488784
1341.245641	-11.484053
1341.845972	-11.496616
1342.446840	-11.504226
1343.048246	-11.499665
1343.650191	-11.513760
1344.252677	-11.522505
1344.855702	-11.517461
1345.459269	-11.532146
1346.063379	-11.542782
1346.668030	-11.537355
1347.273226	-11.552236
1347.878965	-11.564944
1348.485250	-11.558914
1349.092080	-11.573204
1349.699456	-11.588198
1350.307380	-11.582583
1350.915851	-11.595378
1351.524871	-11.612002
1352.134441	-11.607064
1352.744560	-11.618516
1353.355231	-11.636641
1353.966453	-11.632675
1354.578227	-11.642484
1355.190555	-11.661458
1355.803436	-11.658729
1356.416872	-11.667464
1357.030863	-11.687217
1357.645411	-11.685510
1358.260515	-11.692409
1358.876177	-11.713501
1359.492397	-11.713431
1360.109176	-11.717926
1360.726516	-11.740274
1361.344416	-11.742331
1361.962877	-11.743818
1362.581901	-11.767091
1363.201487	-11.772808
1363.821637	-11.770846
1364.442352	-11.793125
1365.063632	-11.803735
1365.685478	-11.799705
1366.307891	-11.818907
1366.930871	-11.834499
1367.554420	-11.830206
1368.178538	-11.844788
1368.803226	-11.864413
1369.428485	-11.862253
1370.054315	-11.871729
1370.680717	-11.893106
1371.307693	-11.894646
1371.935242	-11.900358
1372.563366	-11.921679
1373.192065	-11.927256
1373.821341	-11.930175
1374.451193	-11.950420
1375.081623	-11.960546
1375.712632	-11.961780
1376.344221	-11.979869
1376.976389	-11.994595
1377.609139	-11.995676
1378.242470	-12.010361
1378.876384	-12.029315
1379.510881	-12.032677
1380.145963	-12.042677
1380.781629	-12.063740
1381.417881	-12.072344
1382.054720	-12.078559
1382.692147	-12.098126
1383.330161	-12.112700
1383.968765	-12.118623
1384.607959	-12.134146
1385.247743	-12.152127
1385.888119	-12.161362
1386.529087	-12.173487
1387.170648	-12.191284
1387.812804	-12.204562
1388.455554	-12.216119
1389.098899	-12.231968
1389.742842	-12.247147
1390.387381	-12.260377
1391.032519	-12.275178
1391.678256	-12.289780
1392.324592	-12.304304
1392.971529	-12.320024
1393.619068	-12.334089
1394.267208	-12.348138
1394.915952	-12.364881
1395.565300	-12.379923
1396.215253	-12.393134
1396.865812	-12.409874
1397.516977	-12.426732
1398.168749	-12.439419
1398.821130	-12.454756
1399.474120	-12.473642
1400.127719	-12.487598
1400.781930	-12.500103
1401.436752	-12.519056
1402.092186	-12.536662
1402.748234	-12.547795
1403.404897	-12.563498
1404.062174	-12.584520
1404.720067	-12.598423
1405.378577	-12.609510
1406.037705	-12.629563
1406.697451	-12.649646
1407.357817	-12.660119
1408.018803	-12.673729
1408.680410	-12.696672
1409.342639	-12.713460
1410.005492	-12.722463
1410.668968	-12.739863
1411.333068	-12.762991
1411.997795	-12.776365
1412.663147	-12.786152
1413.329127	-12.806878
1413.995736	-12.828770
1414.662973	-12.839143
1415.330840	-12.851318
1415.999339	-12.874760
1416.668469	-12.893684
1417.338232	-12.902008
1418.008628	-12.916972
1418.679659	-12.941590
1419.351325	-12.957321
1420.023628	-12.964326
1420.696568	-12.982224
1421.370145	-13.007413
1422.044362	-13.020152
1422.719219	-13.027443
1423.394717	-13.048413
1424.070856	-13.073372
1424.747638	-13.083797
1425.425064	-13.092300
1426.103134	-13.115865
1426.781850	-13.138955
1427.461212	-13.146778
1428.141221	-13.157287
1428.821878	-13.182138
1429.503185	-13.201857
1430.185141	-13.208003
1430.867749	-13.221233
1431.551008	-13.247048
1432.234920	-13.264371
1432.919486	-13.270697
1433.604707	-13.287495
1434.290583	-13.314723
1434.977116	-13.331066
1435.664307	-13.338724
1436.352156	-13.358293
1437.040664	-13.385594
1437.729833	-13.400699
1438.419663	-13.408806
1439.110156	-13.428504
1439.801312	-13.453223
1440.493132	-13.466249
1441.185617	-13.474922
1441.878768	-13.493808
1442.572586	-13.515722
1443.267072	-13.528606
1443.962228	-13.540383
1444.658053	-13.561285
1445.354549	-13.583548
1446.051717	-13.599160
1446.749558	-13.616311
1447.448073	-13.641353
1448.147263	-13.665309
1448.847128	-13.682913
1449.547671	-13.702558
1450.248891	-13.727832
1450.950789	-13.749957
1451.653368	-13.765058
1452.356627	-13.780740
1453.060568	-13.800069
1453.765192	-13.815956
1454.470500	-13.826172
1455.176492	-13.836956
1455.883170	-13.850201
1456.590534	-13.861603
1457.298586	-13.871294
1458.007327	-13.883839
1458.716758	-13.898684
1459.426880	-13.912266
1460.137693	-13.927231
1460.849199	-13.947426
1461.561398	-13.968737
1462.274293	-13.986659
1462.987883	-14.005004
1463.702170	-14.027032
1464.417155	-14.047185
1465.132838	-14.060041
1465.849222	-14.069077
1466.566306	-14.077574
1467.284093	-14.080410
1468.002582	-14.073326
1468.721775	-14.060579
1469.441674	-14.045535
1470.162278	-14.024095
1470.883590	-13.994163
1471.605609	-13.961650
1472.328338	-13.930469
1473.051777	-13.896554
1473.775928	-13.858091
1474.500790	-13.821613
1475.226367	-13.791452
1475.952657	-13.762587
1476.679663	-13.731051
1477.407386	-13.702178
1478.135826	-13.680319
1478.864985	-13.659302
1479.594863	-13.632306
1480.325463	-13.602671
1481.056784	-13.574513
1481.788828	-13.541689
1482.521597	-13.495873
1483.255090	-13.438635
1483.989309	-13.375278
1484.724256	-13.301884
1485.459931	-13.210417
1486.196336	-13.103185
1486.933471	-12.987915
1487.671337	-12.863906
1488.409937	-12.725926
1489.149270	-12.576954
1489.889337	-12.426329
1490.630141	-12.276780
1491.371682	-12.124119
1492.113961	-11.970077
1492.856979	-11.823711
1493.600738	-11.688753
1494.345238	-11.560721
1495.090481	-11.438220
1495.836467	-11.327375
1496.583198	-11.232131
1497.330675	-11.148130
1498.078899	-11.070542
1498.827872	-11.001955
1499.577593	-10.946490
1500.328065	-10.900891
1501.079289	-10.858564
1501.831265	-10.819193
1502.583995	-10.786540
1503.337480	-10.758463
1504.091721	-10.727596
1504.846719	-10.691181
1505.602475	-10.651918
1506.358991	-10.608317
1507.116268	-10.552789
1507.874306	-10.481012
1508.633108	-10.395547
1509.392673	-10.297698
1510.153004	-10.183073
1510.914101	-10.049090
1511.675965	-9.900855
1512.438599	-9.745513
1513.202002	-9.585357
1513.966176	-9.421428
1514.731122	-9.260521
1515.496842	-9.112890
1516.263336	-8.984708
1517.030607	-8.878348
1517.798654	-8.798922
1518.567479	-8.755343
1519.337083	-8.754668
1520.107468	-8.799895
1520.878634	-8.894774
1521.650584	-9.047561
1522.423317	-9.268120
1523.196836	-9.563813
1523.971141	-9.942052
1524.746233	-10.416532
1525.522115	-11.008336
1526.298786	-11.742273
1527.076249	-12.648484
1527.854504	-13.773945
1528.633553	-15.199026
1529.413397	-17.061219
1530.194037	-19.618167
1530.975474	-23.480970
1531.757709	-30.875505
1532.540745	-35.875240
1533.324581	-25.164934
1534.109220	-20.346813
1534.894662	-17.286971
1535.680909	-15.077558
1536.467961	-13.380102
1537.255821	-12.035225
1538.044489	-10.955307
1538.833967	-10.084389
1539.624256	-9.383768
1540.415357	-8.827472
1541.207271	-8.398306
1542.000000	-8.082796
1542.793545	-7.868132
1543.587907	-7.742616
1544.383087	-7.696993
1545.179088	-7.723382
1545.975909	-7.812635
1546.773552	-7.953691
1547.572019	-8.135138
1548.371311	-8.346011
1549.171428	-8.574748
1549.972373	-8.808400
1550.774147	-9.033791
1551.576751	-9.239868
1552.380185	-9.419051
1553.184453	-9.566632
1553.989554	-9.680121
1554.795490	-9.759846
1555.602263	-9.809876
1556.409873	-9.837213
1557.218322	-9.849295
1558.027612	-9.851884
1558.837743	-9.849610
1559.648717	-9.847474
1560.460536	-9.850674
1561.273200	-9.863041
1562.086710	-9.886290
1562.901069	-9.921352
1563.716278	-9.970153
1564.532337	-10.035219
1565.349249	-10.117965
1566.167014	-10.218581
1566.985634	-10.337411
1567.805111	-10.475909
1568.625444	-10.635494
1569.446637	-10.816008
1570.268690	-11.016347
1571.091605	-11.236000
1571.915382	-11.475046
1572.740024	-11.732819
1573.565532	-12.006709
1574.391907	-12.293476
1575.219150	-12.590768
1576.047262	-12.896105
1576.876246	-13.205204
1577.706103	-13.512188
1578.536833	-13.811166
1579.368439	-14.096929
1580.200922	-14.363412
1581.034282	-14.603183
1581.868522	-14.809802
1582.703643	-14.979038
1583.539646	-15.107932
1584.376532	-15.193973
1585.214304	-15.236464
1586.052962	-15.238237
1586.892508	-15.204327
1587.732943	-15.139133
1588.574269	-15.046735
1589.416487	-14.932538
1590.259599	-14.802812
1591.103605	-14.662428
1591.948508	-14.514010
1592.794309	-14.359916
1593.641009	-14.203192
1594.488609	-14.046135
1595.337112	-13.889120
1596.186518	-13.731949
1597.036829	-13.575260
1597.888047	-13.420438
1598.740172	-13.267704
1599.593207	-13.116137
1600.447153	-12.965479
1601.302010	-12.816788
1602.157782	-12.671425
1603.014469	-12.529413
1603.872072	-12.390225
1604.730593	-12.254580
1605.590034	-12.123910
1606.450397	-11.999169
1607.311681	-11.880131
1608.173890	-11.766671
1609.037024	-11.659870
1609.901085	-11.560754
1610.766075	-11.469381
1611.631995	-11.385130
1612.498846	-11.308163
1613.366630	-11.239442
1614.235349	-11.179134
1615.105004	-11.126491
1615.975596	-11.080794
1616.847128	-11.042184
1617.719600	-11.010929
1618.593014	-10.986219
1619.467372	-10.966866
1620.342675	-10.952127
1621.218924	-10.941926
1622.096122	-10.935814
1622.974270	-10.932546
1623.853369	-10.931188
1624.733420	-10.931437
1625.614427	-10.933139
1626.496389	-10.935633
1627.379308	-10.938194
1628.263187	-10.940779
1629.148026	-10.943594
1630.033828	-10.946606
1630.920593	-10.949472
1631.808324	-10.952297
1632.697022	-10.955705
1633.586688	-10.960083
1634.477324	-10.965422
1635.368932	-10.971698
1636.261514	-10.979443
1637.155070	-10.989142
1638.049602	-11.000776
1638.945113	-11.014199
1639.841603	-11.029556
1640.739075	-11.047202
1641.637529	-11.066830
1642.536968	-11.087880
1643.437393	-11.109991
1644.338806	-11.133268
1645.241209	-11.157603
1646.144602	-11.182294
1647.048988	-11.206806
1647.954368	-11.230985
1648.860744	-11.255076
1649.768118	-11.278791
1650.676491	-11.301781
1651.585865	-11.324004
1652.496241	-11.345791
1653.407621	-11.367402
1654.320008	-11.388758
1655.233401	-11.410000
1656.147804	-11.431545
1657.063218	-11.453867
1657.979645	-11.476828
1658.897085	-11.500340
1659.815542	-11.524596
1660.735016	-11.549871
1661.655509	-11.576003
1662.577023	-11.602608
1663.499560	-11.629534
1664.423121	-11.656988
1665.347709	-11.684986
1666.273324	-11.713112
1667.199969	-11.741227
1668.127645	-11.769387
1669.056353	-11.797898
1669.986097	-11.826638
1670.916877	-11.855379
1671.848695	-11.884336
1672.781553	-11.913658
1673.715452	-11.943409
1674.650395	-11.973489
1675.586383	-12.004090
1676.523418	-12.035243
1677.461501	-12.066925
1678.400635	-12.098936
1679.340821	-12.131385
1680.282061	-12.164289
1681.224357	-12.197717
1682.167710	-12.231378
1683.112122	-12.265351
1684.057595	-12.299726
1685.004132	-12.334467
1685.951732	-12.369450
1686.900400	-12.404616
1687.850135	-12.440197
1688.800940	-12.476079
1689.752818	-12.512114
1690.705768	-12.548205
1691.659795	-12.584684
1692.614898	-12.621510
1693.571081	-12.658528
1694.528345	-12.695608
1695.486691	-12.733124
1696.446122	-12.771184
1697.406640	-12.809484
1698.368245	-12.847867
1699.330941	-12.886562
1700.294729	-12.925577
1701.259611	-12.964869
1702.225588	-13.004132
1703.192664	-13.043619
1704.160838	-13.083793
1705.130114	-13.124429
1706.100493	-13.165281
1707.071977	-13.206686
1708.044568	-13.248869
1709.018268	-13.291731
1709.993079	-13.335035
1710.969003	-13.378803
1711.946041	-13.423289
1712.924196	-13.468495
1713.903469	-13.514004
1714.883862	-13.559978
1715.865378	-13.606704
1716.848017	-13.653959
1717.831783	-13.701571
1718.816677	-13.749693
1719.802701	-13.798491
1720.789857	-13.847907
1721.778147	-13.897754
1722.767573	-13.948070
1723.758136	-13.998911
1724.749840	-14.050027
1725.742685	-14.101156
1726.736673	-14.152373
1727.731808	-14.203658
1728.728090	-14.254790
1729.725521	-14.305738
1730.724105	-14.356633
1731.723842	-14.407420
1732.724735	-14.458075
1733.726785	-14.508507
1734.729995	-14.558776
1735.734366	-14.608688
1736.739902	-14.658259
1737.746603	-14.707424
1738.754472	-14.756147
1739.763510	-14.804132
1740.773721	-14.851584
1741.785105	-14.898674
1742.797665	-14.945506
1743.811403	-14.991837
1744.826321	-15.037893
1745.842422	-15.083946
1746.859706	-15.129819
1747.878177	-15.175069
1748.897835	-15.219827
1749.918685	-15.264248
1750.940726	-15.308153
1751.963963	-15.351239
1752.988395	-15.393700
1754.014027	-15.435695
1755.040860	-15.476991
1756.068895	-15.517392
1757.098135	-15.557023
1758.128583	-15.595867
1759.160240	-15.633532
1760.193109	-15.670053
1761.227191	-15.705390
1762.262488	-15.739464
1763.299004	-15.771925
1764.336740	-15.803011
1765.375697	-15.832658
1766.415880	-15.860724
1767.457288	-15.887108
1768.499926	-15.911971
1769.543794	-15.935256
1770.588895	-15.956803
1771.635231	-15.976807
1772.682805	-15.995464
1773.731619	-16.012828
1774.781674	-16.028719
1775.832973	-16.043246
1776.885519	-16.056400
1777.939312	-16.068162
1778.994357	-16.078459
1780.050654	-16.087522
1781.108207	-16.095535
1782.167017	-16.102729
1783.227087	-16.109146
1784.288418	-16.114769
1785.351013	-16.119554
1786.414875	-16.123330
1787.480006	-16.126008
1788.546407	-16.127634
1789.614082	-16.128442
1790.683032	-16.128424
1791.753259	-16.127521
1792.824767	-16.125673
1793.897557	-16.122671
1794.971632	-16.118218
1796.046994	-16.112016
1797.123645	-16.104157
1798.201588	-16.094605
1799.280824	-16.083520
1800.361357	-16.071101
1801.443188	-16.057562
1802.526320	-16.042905
1803.610756	-16.026893
1804.696497	-16.009499
1805.783546	-15.990383
1806.871906	-15.969593
1807.961578	-15.947275
1809.052565	-15.923727
1810.144870	-15.899133
1811.238494	-15.873632
1812.333441	-15.847271
1813.429713	-15.819888
1814.527311	-15.791549
1815.626239	-15.762244
1816.726499	-15.732046
1817.828094	-15.701055
1818.931025	-15.669426
1820.035295	-15.637139
1821.140906	-15.603981
1822.247862	-15.570189
1823.356165	-15.535743
1824.465816	-15.500709
1825.576819	-15.465250
1826.689175	-15.429483
1827.802888	-15.393512
1828.917960	-15.357190
1830.034394	-15.320627
1831.152191	-15.283729
1832.271354	-15.246373
1833.391887	-15.208642
1834.513790	-15.170620
1835.637068	-15.132665
1836.761722	-15.094807
1837.887755	-15.057191
1839.015169	-15.019838
1840.143968	-14.982574
1841.274153	-14.945464
1842.405727	-14.908542
1843.538693	-14.871975
1844.673053	-14.835797
1845.808810	-14.799982
1846.945966	-14.764528
1848.084525	-14.729197
1849.224488	-14.694154
1850.365858	-14.659453
1851.508638	-14.625039
1852.652831	-14.590948
1853.798438	-14.556989
1854.945463	-14.523050
1856.093909	-14.488908
1857.243777	-14.454500
1858.395071	-14.419840
1859.547794	-14.384883
1860.701947	-14.349885
1861.857533	-14.314911
1863.014556	-14.280061
1864.173018	-14.245316
1865.332922	-14.210383
1866.494270	-14.175241
1867.657065	-14.139717
1868.821309	-14.103998
1869.987006	-14.068564
1871.154158	-14.033690
1872.322768	-13.999635
1873.492839	-13.966226
1874.664373	-13.933135
1875.837373	-13.900021
1877.011841	-13.866520
1878.187782	-13.832859
1879.365197	-13.799245
1880.544089	-13.765930
1881.724460	-13.733255
1882.906315	-13.700972
1884.089655	-13.668925
1885.274483	-13.636898
1886.460803	-13.604530
1887.648616	-13.571972
1888.837927	-13.539227
1890.028736	-13.506636
1891.221049	-13.474573
1892.414866	-13.443004
1893.610192	-13.412008
1894.807028	-13.381352
1896.005379	-13.350851
1897.205246	-13.320610
1898.406633	-13.290652
1899.609542	-13.261231
1900.813977	-13.232475
1902.019940	-13.204283
1903.227434	-13.176745
1904.436462	-13.149606
1905.647028	-13.122711
1906.859133	-13.096055
1908.072781	-13.069549
1909.287976	-13.043393
1910.504719	-13.017692
1911.723013	-12.992510
1912.942863	-12.968088
1914.164270	-12.944355
1915.387238	-12.921236
1916.611770	-12.898636
1917.837868	-12.876294
1919.065536	-12.854290
1920.294777	-12.832818
1921.525594	-12.811981
1922.757989	-12.791882
1923.991967	-12.772296
1925.227529	-12.752902
1926.464679	-12.733574
1927.703420	-12.714216
1928.943755	-12.694873
1930.185688	-12.675644
1931.429221	-12.656506
1932.674356	-12.637439
1933.921099	-12.618394
1935.169451	-12.599347
1936.419415	-12.580455
1937.670996	-12.561827
1938.924195	-12.543622
1940.179017	-12.525900
1941.435463	-12.508533
1942.693538	-12.491403
1943.953245	-12.474491
1945.214586	-12.457855
1946.477566	-12.441609
1947.742186	-12.425736
1949.008451	-12.409944
1950.276363	-12.393994
1951.545926	-12.377914
1952.817143	-12.361903
1954.090017	-12.346150
1955.364551	-12.330582
1956.640749	-12.314905
1957.918615	-12.299043
1959.198150	-12.283267
1960.479359	-12.268097
1961.762244	-12.253928
1963.046810	-12.240792
1964.333059	-12.228413
1965.620995	-12.216446
1966.910621	-12.204785
1968.201940	-12.193598
1969.494956	-12.183233
1970.789672	-12.173933
1972.086091	-12.165519
1973.384217	-12.157524
1974.684053	-12.149558
1975.985602	-12.141685
1977.288869	-12.134329
1978.593855	-12.127771
1979.900566	-12.121873
1981.209003	-12.116255
1982.519171	-12.110656
1983.831073	-12.105127
1985.144712	-12.099889
1986.460093	-12.095028
1987.777217	-12.090355
1989.096089	-12.085651
1990.416713	-12.080828
1991.739092	-12.075979
1993.063228	-12.071236
1994.389127	-12.066591
1995.716791	-12.061925
1997.046223	-12.057205
1998.377428	-12.052589
1999.710409	-12.048248
2001.045169	-12.044245
2002.381713	-12.040387
2003.720043	-12.036358
2005.060163	-12.032045
2006.402077	-12.027642
2007.745788	-12.023459
2009.091301	-12.019542
2010.438618	-12.015575
2011.787743	-12.011177
2013.138680	-12.006356
2014.491433	-12.001626
2015.846005	-11.997487
2017.202399	-11.993980
2018.560621	-11.990779
2019.920673	-11.987644
2021.282558	-11.984720
2022.646281	-11.982483
2024.011846	-11.981356
2025.379256	-11.981331
2026.748515	-11.982010
2028.119626	-11.983150
2029.492594	-11.984829
2030.867422	-11.987321
2032.244114	-11.990848
2033.622673	-11.995349
2035.003104	-12.000623
2036.385411	-12.006644
2037.769597	-12.013515
2039.155665	-12.021074
2040.543621	-12.029001
2041.933467	-12.037274
2043.325208	-12.046156
2044.718847	-12.055887
2046.114389	-12.066399
2047.511837	-12.077361
2048.911195	-12.088390
2050.312467	-12.099467
2051.715657	-12.110936
2053.120769	-12.123079
2054.527807	-12.135759
2055.936775	-12.148555
2057.347677	-12.161202
2058.760516	-12.173845
2060.175297	-12.186686
2061.592025	-12.199571
2063.010701	-12.212004
2064.431332	-12.223714
2065.853921	-12.234945
2067.278472	-12.246164
2068.704988	-12.257633
2070.133475	-12.269234
2071.563936	-12.280717
2072.996375	-12.292083
2074.430796	-12.303693
2075.867204	-12.315843
2077.305603	-12.328378
2078.745996	-12.340872
2080.188389	-12.353100
2081.632784	-12.365408
2083.079187	-12.378333
2084.527601	-12.392059
2085.978030	-12.406453
2087.430480	-12.421433
2088.884954	-12.437034
2090.341455	-12.453387
2091.799990	-12.470725
2093.260561	-12.489406
2094.723173	-12.509612
2096.187831	-12.530980
2097.654538	-12.552740
2099.123300	-12.574668
2100.594119	-12.597505
2102.067001	-12.622222
2103.541950	-12.648886
2105.018971	-12.676485
2106.498067	-12.704042
2107.979243	-12.731736
2109.462503	-12.760644
2110.947853	-12.791369
2112.435295	-12.823181
2113.924836	-12.854820
2115.416478	-12.885942
2116.910227	-12.917398
2118.406087	-12.950105
2119.904063	-12.983897
2121.404158	-13.017683
2122.906378	-13.050580
2124.410727	-13.082663
2125.917210	-13.114741
2127.425831	-13.147502
2128.936594	-13.180848
2130.449505	-13.214086
2131.964567	-13.246603
2133.481786	-13.278478
2135.001166	-13.310527
2136.522711	-13.343714
2138.046427	-13.378178
2139.572317	-13.412904
2141.100388	-13.446896
2142.630642	-13.480507
2144.163085	-13.514982
2145.697722	-13.550848
2147.234558	-13.587332
2148.773596	-13.623416
2150.314842	-13.659238
2151.858301	-13.695982
2153.403977	-13.734405
2154.951875	-13.773950
2156.502000	-13.813633
2158.054357	-13.853531
2159.608950	-13.894802
2161.165785	-13.938110
2162.724866	-13.983087
2164.286198	-14.029258
2165.849786	-14.076616
2167.415635	-14.125344
2168.983749	-14.175732
2170.554134	-14.228105
2172.126795	-14.282333
2173.701737	-14.337707
2175.278964	-14.393817
2176.858481	-14.451258
2178.440294	-14.510979
2180.024408	-14.572814
2181.610827	-14.635270
2183.199557	-14.697095
2184.790602	-14.758783
2186.383968	-14.821518
2187.979660	-14.884997
2189.577683	-14.947832
2191.178041	-15.009877
2192.780741	-15.072352
2194.385787	-15.135677
2195.993185	-15.199073
2197.602939	-15.262153
2199.215054	-15.325121
2200.829537	-15.388166
2202.446392	-15.451710
2204.065624	-15.516210
2205.687239	-15.581648
2207.311242	-15.647774
2208.937638	-15.714352
2210.566433	-15.781237
2212.197631	-15.848909
2213.831239	-15.917820
2215.467261	-15.986905
2217.105703	-16.054943
2218.746570	-16.122978
2220.389867	-16.192451
2222.035601	-16.262617
2223.683776	-16.332498
2225.334398	-16.402883
2226.987472	-16.474606
2228.643004	-16.547453
2230.300999	-16.621704
2231.961463	-16.697956
2233.624402	-16.776244
2235.289820	-16.856633
2236.957723	-16.939270
2238.628118	-17.024024
2240.301009	-17.110871
2241.976402	-17.199986
2243.654303	-17.291502
2245.334717	-17.385254
2247.017650	-17.480093
2248.703108	-17.574784
2250.391096	-17.669651
2252.081620	-17.764996
2253.774686	-17.859234
2255.470300	-17.951582
2257.168467	-18.043873
2258.869193	-18.137426
2260.572484	-18.230705
2262.278345	-18.322122
2263.986783	-18.412712
2265.697804	-18.504134
2267.411412	-18.597078
2269.127615	-18.691819
2270.846417	-18.787597
2272.567826	-18.882871
2274.291846	-18.978233
2276.018484	-19.076554
2277.747745	-19.178310
2279.479637	-19.280538
2281.214164	-19.382978
2282.951333	-19.489167
2284.691149	-19.598456
2286.433619	-19.704934
2288.178750	-19.808000
2289.926546	-19.914475
2291.677014	-20.026481
2293.430161	-20.138741
2295.185992	-20.248895
2296.944513	-20.360117
2298.705732	-20.475004
2300.469653	-20.594508
2302.236283	-20.717880
2304.005629	-20.841765
2305.777696	-20.965925
2307.552492	-21.096304
2309.330022	-21.234525
2311.110292	-21.372317
2312.893310	-21.506804
2314.679080	-21.646007
2316.467611	-21.790002
2318.258907	-21.926883
2320.052976	-22.054424
2321.849824	-22.184012
2323.649457	-22.317728
2325.451883	-22.445089
2327.257106	-22.563941
2329.065135	-22.682437
2330.875975	-22.802576
2332.689633	-22.918797
2334.506116	-23.028598
2336.325430	-23.135528
2338.147581	-23.245303
2339.972578	-23.358640
2341.800425	-23.468747
2343.631130	-23.573521
2345.464700	-23.683759
2347.301141	-23.804686
2349.140461	-23.924261
2350.982665	-24.037782
2352.827760	-24.158348
2354.675754	-24.289896
2356.526653	-24.420947
2358.380464	-24.550813
2360.237195	-24.689228
2362.096851	-24.833216
2363.959440	-24.974305
2365.824968	-25.114916
2367.693444	-25.260585
2369.564873	-25.412232
2371.439263	-25.568073
2373.316620	-25.725563
2375.196953	-25.886863
2377.080267	-26.057802
2378.966570	-26.235705
2380.855869	-26.411432
2382.748171	-26.587269
2384.643484	-26.771815
2386.541815	-26.958363
2388.443170	-27.137128
2390.347557	-27.314712
2392.254984	-27.493430
2394.165457	-27.663544
2396.078984	-27.825733
2397.995572	-27.986703
2399.915229	-28.143812
2401.837961	-28.289273
2403.763777	-28.422357
2405.692684	-28.550244
2407.624689	-28.674986
2409.559800	-28.788790
2411.498023	-28.890581
2413.439368	-28.993518
2415.383840	-29.102065
2417.331449	-29.205370
2419.282201	-29.307013
2421.236104	-29.424023
2423.193165	-29.553486
2425.153393	-29.681882
2427.116795	-29.816556
2429.083378	-29.968889
2431.053151	-30.131125
2433.026121	-30.298711
2435.002297	-30.472301
2436.981685	-30.645493
2438.964293	-30.819039
2440.950131	-31.000150
2442.939204	-31.187088
2444.931522	-31.375374
2446.927092	-31.571071
2448.925923	-31.779196
2450.928022	-31.996845
2452.933397	-32.226270
2454.942056	-32.463373
2456.954008	-32.702931
2458.969260	-32.951291
2460.987821	-33.198668
2463.009699	-33.436577
2465.034902	-33.668191
2467.063437	-33.877122
2469.095315	-34.057335
2471.130542	-34.225565
2473.169127	-34.382239
2475.211078	-34.504846
2477.256404	-34.593380
2479.305112	-34.680174
2481.357212	-34.762980
2483.412713	-34.820570
2485.471621	-34.873484
2487.533946	-34.943596
2489.599696	-35.003346
2491.668880	-35.045864
2493.741507	-35.132202
2495.817585	-35.255871
2497.897122	-35.353978
2499.980127	-35.457828
2502.066609	-35.606511
2504.156578	-35.765461
2506.250040	-35.919605
2508.347006	-36.103953
2510.447483	-36.320399
2512.551482	-36.522403
2514.659010	-36.717492
2516.770076	-36.961729
2518.884690	-37.232562
2521.002861	-37.464678
2523.124597	-37.723777
2525.249907	-38.049064
2527.378801	-38.343035
2529.511287	-38.652829
2531.647375	-39.056627
2533.787074	-39.436555
2535.930393	-39.755832
2538.077340	-40.145440
2540.227927	-40.551058
2542.382160	-40.831206
2544.540051	-41.085781
2546.701608	-41.343304
2548.866840	-41.460940
2551.035757	-41.503412
2553.208369	-41.579952
2555.384684	-41.553548
2557.564713	-41.447856
2559.748465	-41.421468
2561.935948	-41.378057
2564.127174	-41.282961
2566.322152	-41.252846
2568.520890	-41.259606
2570.723399	-41.222579
2572.929689	-41.237930
2575.139769	-41.332138
2577.353649	-41.355206
2579.571340	-41.385989
2581.792849	-41.516616
2584.018189	-41.602614
2586.247368	-41.718439
2588.480396	-41.949905
2590.717284	-42.137032
2592.958041	-42.331548
2595.202678	-42.638624
2597.451204	-42.895922
2599.703630	-43.174513
2601.959966	-43.538348
2604.220222	-43.822626
2606.484408	-44.233911
2608.752535	-44.816216
2611.024612	-45.310373
2613.300651	-45.965493
2615.580661	-46.769669
2617.864653	-47.311679
2620.152638	-48.179531
2622.444625	-49.082224
2624.740626	-49.307059
2627.040651	-49.933778
2629.344710	-50.121482
2631.652814	-49.853590
2633.964974	-50.221377
2636.281200	-49.788081
2638.601504	-49.387011
2640.925896	-49.509079
2643.254386	-48.922527
2645.586987	-48.763834
2647.923707	-48.797546
2650.264559	-47.988366
2652.609554	-48.448165
2654.958702	-47.897258
2657.312015	-47.923196
2659.669503	-47.763546
2662.031178	-47.766276
2664.397051	-47.447823
2666.767132	-47.879910
2669.141434	-47.508578
2671.519968	-47.710068
2673.902745	-47.756255
2676.289776	-47.668429
2678.681072	-48.096432
2681.076646	-48.074169
2683.476508	-48.314688
2685.880671	-48.627772
2688.289145	-48.908634
2690.701942	-49.602316
2693.119075	-50.250098
2695.540554	-50.424539
2697.966391	-51.925800
2700.396599	-52.782857
2702.831189	-53.977263
2705.270172	-55.110417
2707.713561	-56.251522
2710.161368	-58.140653
2712.613605	-58.623266
2715.070283	-59.257821
2717.531416	-59.919946
2719.997014	-59.797720
2722.467090	-59.903719
2724.941657	-59.555386
2727.420726	-60.435039
2729.904310	-58.905278
2732.392421	-58.900353
2734.885072	-58.673492
2737.382275	-57.569677
2739.884042	-57.347473
2742.390387	-57.205379
2744.901321	-56.193734
2747.416857	-56.520970
2749.937008	-55.251188
2752.461787	-54.731920
2754.991206	-55.446350
2757.525279	-54.016696
2760.064017	-53.480499
2762.607434	-54.256445
2765.155544	-53.627002
2767.708358	-53.050713
2770.265890	-53.940792
2772.828153	-53.744174
2775.395160	-54.003014
2777.966924	-54.978479
2780.543459	-54.674554
2783.124778	-56.472231
2785.710894	-58.090061
2788.301821	-57.434414
2790.897572	-59.486472
2793.498160	-61.326578
2796.103599	-60.741238
2798.713903	-63.301407
2801.329085	-62.922791
2803.949159	-62.838714
2806.574139	-65.530458
2809.204038	-63.495071
2811.838871	-65.490705
2814.478650	-68.584262
2817.123391	-66.843313
2819.773107	-68.544016
2822.427812	-75.818879
2825.087521	-70.559319
2827.752247	-91.536338
2830.422005	-76.095817
2833.096808	-77.435477
2835.776672	-70.962363
2838.461611	-66.565849
2841.151638	-67.861112
2843.846769	-62.837138
2846.547019	-62.192875
2849.252401	-62.378113
2851.962930	-60.626605
2854.678621	-60.351242
2857.399489	-61.206413
2860.125549	-59.530421
2862.856815	-60.589381
2865.593302	-61.321784
2868.335026	-61.506837
2871.082002	-61.593777
2873.834244	-64.696490
2876.591767	-64.416054
2879.354588	-67.727790
2882.122721	-67.442055
2884.896181	-67.143279
2887.674984	-71.597687
2890.459146	-68.042005
2893.248681	-66.894587
2896.043606	-69.385407
2898.843937	-71.168288
2901.649687	-67.289966
2904.460875	-67.446195
2907.277515	-71.286450
2910.099623	-68.639049
2912.927215	-68.290441
2915.760308	-68.839288
2918.598916	-70.135259
2921.443057	-72.436668
2924.292747	-70.484955
2927.148002	-72.342442
2930.008837	-71.912243
2932.875270	-70.077094
2935.747318	-72.843398
2938.624995	-71.886255
2941.508320	-68.711843
2944.397308	-67.903171
2947.291977	-68.376718
2950.192343	-68.863213
2953.098423	-67.299058
2956.010234	-67.446339
2958.927792	-68.423048
2961.851116	-69.060492
2964.780221	-71.868553
2967.715126	-72.270797
2970.655847	-75.851472
2973.602402	-76.884664
2976.554808	-78.966669
2979.513083	-78.281488
2982.477243	-77.319016
2985.447308	-81.150746
2988.423293	-80.560837
2991.405218	-82.304597
2994.393099	-79.772577
2997.386955	-76.168450
