# 2022-03-21_14.16.01
# shape = sech2
# FWHM_ps = 0.1
# carrier_nm = 1542
# frep_MHz = 12126
# pow_mW = 8000
# GDD = 0.0
# propa_len = 0.12111111111111113
# untap_len = 0.01
# taper_len = 0.061111111111111116
# waist_len = 0.02
# uptap_len = 0.02
# untap_scale = 1.0
# waist_scale = 0.2666666666666667
# workingDir = NL_20110305_12 (Spirou)
# axis = slow
# window_ps = 10.0
# steps = 200
# points = 13000
# 
# wavelength [nm]	 power spectral density [dB]
1000.248639	-24.704666
1000.582480	-24.680200
1000.916545	-24.635629
1001.250832	-24.578645
1001.585343	-24.525115
1001.920077	-24.488874
1002.255035	-24.475873
1002.590218	-24.482176
1002.925624	-24.495590
1003.261255	-24.500382
1003.597111	-24.484366
1003.933192	-24.444447
1004.269497	-24.388137
1004.606029	-24.330346
1004.942785	-24.286349
1005.279768	-24.264903
1005.616977	-24.264932
1005.954412	-24.276118
1006.292074	-24.283311
1006.629962	-24.273077
1006.968077	-24.239936
1007.306420	-24.189471
1007.644990	-24.135407
1007.983787	-24.093045
1008.322813	-24.072343
1008.662067	-24.073218
1009.001549	-24.086059
1009.341259	-24.096068
1009.681199	-24.089685
1010.021367	-24.061153
1010.361765	-24.015724
1010.702392	-23.967022
1011.043250	-23.930237
1011.384337	-23.915132
1011.725654	-23.921183
1012.067202	-23.938082
1012.408980	-23.950326
1012.750989	-23.944569
1013.093230	-23.916573
1013.435702	-23.873330
1013.778405	-23.829625
1014.121341	-23.800569
1014.464508	-23.794175
1014.807908	-23.807545
1015.151540	-23.827953
1015.495405	-23.838712
1015.839503	-23.827735
1016.183835	-23.794169
1016.528400	-23.748731
1016.873198	-23.708078
1017.218231	-23.686450
1017.563498	-23.688541
1017.908999	-23.707085
1018.254735	-23.725724
1018.600707	-23.727340
1018.946913	-23.703331
1019.293354	-23.658273
1019.640032	-23.607733
1019.986945	-23.569804
1020.334094	-23.555807
1020.681480	-23.564575
1021.029102	-23.582700
1021.376961	-23.590977
1021.725058	-23.574636
1022.073391	-23.531534
1022.421962	-23.473715
1022.770772	-23.420908
1023.119819	-23.389641
1023.469104	-23.384734
1023.818628	-23.396819
1024.168391	-23.406843
1024.518393	-23.396034
1024.868634	-23.356456
1025.219115	-23.295805
1025.569836	-23.232998
1025.920796	-23.187417
1026.271997	-23.168598
1026.623438	-23.171492
1026.975121	-23.178840
1027.327044	-23.170392
1027.679208	-23.134689
1028.031614	-23.075841
1028.384262	-23.010944
1028.737152	-22.960203
1029.090284	-22.935479
1029.443659	-22.933940
1029.797276	-22.939576
1030.151137	-22.932051
1030.505240	-22.898996
1030.859587	-22.843306
1031.214178	-22.781641
1031.569013	-22.734358
1031.924093	-22.713437
1032.279417	-22.715858
1032.634985	-22.725093
1032.990799	-22.720535
1033.346858	-22.689923
1033.703162	-22.637098
1034.059712	-22.580188
1034.416509	-22.540316
1034.773551	-22.528752
1035.130841	-22.540469
1035.488377	-22.556557
1035.846160	-22.554949
1036.204190	-22.524253
1036.562468	-22.471420
1036.920994	-22.417667
1037.279768	-22.385246
1037.638790	-22.384023
1037.998061	-22.405533
1038.357581	-22.427047
1038.717350	-22.424841
1039.077368	-22.389550
1039.437636	-22.332638
1039.798154	-22.279112
1040.158922	-22.251792
1040.519940	-22.257572
1040.881209	-22.283055
1041.242729	-22.301621
1041.604501	-22.289906
1041.966524	-22.243177
1042.328798	-22.178952
1042.691325	-22.125246
1043.054103	-22.102753
1043.417135	-22.112315
1043.780419	-22.134115
1044.143956	-22.139171
1044.507746	-22.108179
1044.871791	-22.044754
1045.236088	-21.973137
1045.600641	-21.921690
1045.965447	-21.904831
1046.330508	-21.914398
1046.695824	-21.924531
1047.061395	-21.907763
1047.427222	-21.853919
1047.793304	-21.777351
1048.159642	-21.706856
1048.526237	-21.666356
1048.893088	-21.659593
1049.260196	-21.668225
1049.627561	-21.663200
1049.995183	-21.624161
1050.363063	-21.554219
1050.731201	-21.477591
1051.099597	-21.422661
1051.468251	-21.403006
1051.837164	-21.408963
1052.206336	-21.413899
1052.575767	-21.391651
1052.945458	-21.335300
1053.315409	-21.262212
1053.685619	-21.201479
1054.056090	-21.173666
1054.426821	-21.177334
1054.797814	-21.190062
1055.169067	-21.183359
1055.540582	-21.142833
1055.912359	-21.079142
1056.284398	-21.019850
1056.656698	-20.989651
1057.029262	-20.993689
1057.402088	-21.013902
1057.775177	-21.020987
1058.148530	-20.995189
1058.522146	-20.941135
1058.896027	-20.884541
1059.270171	-20.852906
1059.644580	-20.856223
1060.019254	-20.880164
1060.394193	-20.895537
1060.769397	-20.878854
1061.144867	-20.830099
1061.520602	-20.772838
1061.896604	-20.736381
1062.272872	-20.734803
1062.649407	-20.756919
1063.026210	-20.774008
1063.403279	-20.760415
1063.780616	-20.712891
1064.158221	-20.653228
1064.536094	-20.611274
1064.914235	-20.603173
1065.292645	-20.620147
1065.671325	-20.634637
1066.050273	-20.620267
1066.429491	-20.571999
1066.808979	-20.509931
1067.188738	-20.463211
1067.568766	-20.448128
1067.949066	-20.456847
1068.329636	-20.463187
1068.710478	-20.442267
1069.091592	-20.389762
1069.472977	-20.325362
1069.854635	-20.276705
1070.236565	-20.258205
1070.618768	-20.260972
1071.001243	-20.259712
1071.383993	-20.232447
1071.767016	-20.178010
1072.150313	-20.116966
1072.533884	-20.074951
1072.917730	-20.062756
1073.301850	-20.068508
1073.686246	-20.066910
1074.070917	-20.039252
1074.455864	-19.988835
1074.841087	-19.938008
1075.226586	-19.909666
1075.612362	-19.909276
1075.998415	-19.920812
1076.384745	-19.919110
1076.771353	-19.890355
1077.158238	-19.843563
1077.545401	-19.802914
1077.932843	-19.787521
1078.320564	-19.796518
1078.708564	-19.809737
1079.096842	-19.803732
1079.485401	-19.771438
1079.874240	-19.728106
1080.263358	-19.698412
1080.652757	-19.695947
1081.042438	-19.712454
1081.432399	-19.724668
1081.822641	-19.713407
1082.213166	-19.679784
1082.603972	-19.644129
1082.995061	-19.628366
1083.386433	-19.637661
1083.778087	-19.656222
1084.170025	-19.660292
1084.562246	-19.638209
1084.954751	-19.600431
1085.347541	-19.569488
1085.740615	-19.560447
1086.133973	-19.568204
1086.527617	-19.572127
1086.921546	-19.553681
1087.315761	-19.512709
1087.710262	-19.466890
1088.105050	-19.435414
1088.500124	-19.422729
1088.895485	-19.415615
1089.291134	-19.395463
1089.687070	-19.354672
1090.083294	-19.303238
1090.479806	-19.259106
1090.876607	-19.232585
1091.273696	-19.218296
1091.671075	-19.200739
1092.068744	-19.168149
1092.466702	-19.122650
1092.864950	-19.078035
1093.263489	-19.047597
1093.662319	-19.032717
1094.061440	-19.021793
1094.460852	-19.000253
1094.860555	-18.963370
1095.260551	-18.920745
1095.660840	-18.887834
1096.061421	-18.871987
1096.462295	-18.865030
1096.863462	-18.849982
1097.264923	-18.816576
1097.666678	-18.771710
1098.068727	-18.733878
1098.471071	-18.715550
1098.873710	-18.710987
1099.276644	-18.700743
1099.679874	-18.670357
1100.083400	-18.625427
1100.487222	-18.587055
1100.891340	-18.571439
1101.295756	-18.573926
1101.700468	-18.573233
1102.105478	-18.552514
1102.510787	-18.516625
1102.916393	-18.487239
1103.322298	-18.481137
1103.728502	-18.493941
1104.135005	-18.504740
1104.541807	-18.496490
1104.948909	-18.472777
1105.356312	-18.453010
1105.764015	-18.452258
1106.172019	-18.466833
1106.580324	-18.478436
1106.988931	-18.471834
1107.397840	-18.448856
1107.807051	-18.425098
1108.216564	-18.413793
1108.626380	-18.413430
1109.036500	-18.409531
1109.446923	-18.388409
1109.857649	-18.349894
1110.268680	-18.307047
1110.680016	-18.273618
1111.091657	-18.251189
1111.503602	-18.227740
1111.915854	-18.189311
1112.328411	-18.134185
1112.741275	-18.075473
1113.154445	-18.028810
1113.567922	-17.997099
1113.981706	-17.967737
1114.395798	-17.925700
1114.810198	-17.869807
1115.224906	-17.814759
1115.639923	-17.776038
1116.055249	-17.753912
1116.470884	-17.733742
1116.886829	-17.702015
1117.303084	-17.660689
1117.719650	-17.624441
1118.136526	-17.604587
1118.553713	-17.597562
1118.971212	-17.589655
1119.389022	-17.571446
1119.807145	-17.546312
1120.225580	-17.525378
1120.644328	-17.515667
1121.063389	-17.513771
1121.482763	-17.509560
1121.902452	-17.495320
1122.322454	-17.472311
1122.742771	-17.449497
1123.163404	-17.434931
1123.584351	-17.426989
1124.005614	-17.414655
1124.427193	-17.388449
1124.849089	-17.351960
1125.271301	-17.319126
1125.693830	-17.297853
1126.116677	-17.279527
1126.539842	-17.248779
1126.963324	-17.203695
1127.387126	-17.159754
1127.811246	-17.130374
1128.235685	-17.108923
1128.660444	-17.077066
1129.085522	-17.030247
1129.510922	-16.985586
1129.936641	-16.959187
1130.362682	-16.943306
1130.789044	-16.915911
1131.215728	-16.871886
1131.642734	-16.832602
1132.070063	-16.817310
1132.497714	-16.815107
1132.925689	-16.797546
1133.353987	-16.758313
1133.782610	-16.724409
1134.211556	-16.720078
1134.640827	-16.732188
1135.070424	-16.725135
1135.500345	-16.689262
1135.930593	-16.655880
1136.361166	-16.655137
1136.792067	-16.674424
1137.223294	-16.673612
1137.654848	-16.639035
1138.086730	-16.602460
1138.518940	-16.597253
1138.951479	-16.613569
1139.384346	-16.611696
1139.817543	-16.575744
1140.251069	-16.534144
1140.684925	-16.519079
1141.119111	-16.523973
1141.553628	-16.514537
1141.988475	-16.475711
1142.423655	-16.430155
1142.859166	-16.405076
1143.295009	-16.397132
1143.731185	-16.380440
1144.167694	-16.341724
1144.604536	-16.295520
1145.041711	-16.262699
1145.479221	-16.244831
1145.917065	-16.225531
1146.355245	-16.191912
1146.793759	-16.148749
1147.232609	-16.111134
1147.671795	-16.087468
1148.111317	-16.071061
1148.551177	-16.047356
1148.991373	-16.010400
1149.431907	-15.971393
1149.872779	-15.947003
1150.313989	-15.938239
1150.755538	-15.926553
1151.197426	-15.896514
1151.639653	-15.858464
1152.082220	-15.837205
1152.525128	-15.837897
1152.968376	-15.836422
1153.411966	-15.811235
1153.855897	-15.775132
1154.300169	-15.758838
1154.744784	-15.767242
1155.189742	-15.770746
1155.635042	-15.746719
1156.080687	-15.712896
1156.526674	-15.701818
1156.973007	-15.713497
1157.419683	-15.715143
1157.866705	-15.688850
1158.314072	-15.657711
1158.761786	-15.650707
1159.209845	-15.660144
1159.658251	-15.653932
1160.107004	-15.623559
1160.556104	-15.595553
1161.005553	-15.590119
1161.455349	-15.591741
1161.905494	-15.574062
1162.355989	-15.539928
1162.806832	-15.515107
1163.258026	-15.507838
1163.709570	-15.497760
1164.161464	-15.468656
1164.613710	-15.433228
1165.066307	-15.411524
1165.519256	-15.399522
1165.972558	-15.377049
1166.426212	-15.340452
1166.880219	-15.307553
1167.334580	-15.288482
1167.789295	-15.269786
1168.244364	-15.237004
1168.699788	-15.198319
1169.155567	-15.171039
1169.611702	-15.153310
1170.068193	-15.127201
1170.525041	-15.088012
1170.982245	-15.052195
1171.439807	-15.031310
1171.897726	-15.013155
1172.356004	-14.980795
1172.814640	-14.939904
1173.273635	-14.910196
1173.732989	-14.894476
1174.192703	-14.874034
1174.652778	-14.837636
1175.113213	-14.799342
1175.574009	-14.776551
1176.035167	-14.763182
1176.496687	-14.739309
1176.958569	-14.701713
1177.420814	-14.668641
1177.883422	-14.651398
1178.346394	-14.637455
1178.809730	-14.610227
1179.273430	-14.574313
1179.737496	-14.547584
1180.201927	-14.533508
1180.666723	-14.516770
1181.131886	-14.487306
1181.597416	-14.455297
1182.063312	-14.434476
1182.529576	-14.421140
1182.996209	-14.400807
1183.463209	-14.370992
1183.930579	-14.344306
1184.398317	-14.328276
1184.866426	-14.314018
1185.334904	-14.290929
1185.803754	-14.263153
1186.272974	-14.242438
1186.742566	-14.229710
1187.212529	-14.214011
1187.682865	-14.190157
1188.153574	-14.166556
1188.624656	-14.151590
1189.096112	-14.140751
1189.567942	-14.124116
1190.040147	-14.101958
1190.512726	-14.083858
1190.985681	-14.073621
1191.459012	-14.063682
1191.932720	-14.047237
1192.406804	-14.028630
1192.881265	-14.015988
1193.356104	-14.008778
1193.831322	-13.999053
1194.306918	-13.983763
1194.782893	-13.969145
1195.259248	-13.960519
1195.735982	-13.954400
1196.213097	-13.944293
1196.690593	-13.930381
1197.168471	-13.918788
1197.646730	-13.911964
1198.125371	-13.905223
1198.604395	-13.894054
1199.083803	-13.880765
1199.563594	-13.870542
1200.043769	-13.863510
1200.524329	-13.854702
1201.005273	-13.841562
1201.486604	-13.827954
1201.968320	-13.817912
1202.450422	-13.809422
1202.932912	-13.797422
1203.415789	-13.781805
1203.899054	-13.767948
1204.382707	-13.757934
1204.866748	-13.747068
1205.351179	-13.731252
1205.836000	-13.714018
1206.321211	-13.701255
1206.806812	-13.691205
1207.292805	-13.676964
1207.779189	-13.658013
1208.265965	-13.641741
1208.753134	-13.631319
1209.240696	-13.619830
1209.728651	-13.601592
1210.217000	-13.582282
1210.705744	-13.569795
1211.194883	-13.560600
1211.684417	-13.545108
1212.174347	-13.524365
1212.664673	-13.508736
1213.155396	-13.500194
1213.646516	-13.488297
1214.138034	-13.468097
1214.629951	-13.449398
1215.122266	-13.439824
1215.614980	-13.431233
1216.108095	-13.413499
1216.601609	-13.392729
1217.095524	-13.381004
1217.589841	-13.374936
1218.084559	-13.361172
1218.579679	-13.340181
1219.075202	-13.326044
1219.571128	-13.321407
1220.067458	-13.312465
1220.564191	-13.293477
1221.061330	-13.277469
1221.558874	-13.273098
1222.056823	-13.268858
1222.555178	-13.253632
1223.053940	-13.236899
1223.553109	-13.231789
1224.052686	-13.231163
1224.552671	-13.220348
1225.053065	-13.203867
1225.553867	-13.197095
1226.055079	-13.198143
1226.556702	-13.191197
1227.058735	-13.175483
1227.561179	-13.166497
1228.064035	-13.167194
1228.567303	-13.162731
1229.070983	-13.148055
1229.575077	-13.137007
1230.079585	-13.136183
1230.584506	-13.132866
1231.089842	-13.119219
1231.595594	-13.106880
1232.101761	-13.104601
1232.608345	-13.101840
1233.115345	-13.089264
1233.622762	-13.076497
1234.130597	-13.073454
1234.638851	-13.071328
1235.147523	-13.059994
1235.656615	-13.047472
1236.166126	-13.044127
1236.676058	-13.042624
1237.186411	-13.032361
1237.697185	-13.020249
1238.208381	-13.016596
1238.719999	-13.014896
1239.232040	-13.004798
1239.744505	-12.992374
1240.257394	-12.987803
1240.770708	-12.984742
1241.284446	-12.973170
1241.798610	-12.959350
1242.313201	-12.953066
1242.828218	-12.947714
1243.343662	-12.933513
1243.859534	-12.917437
1244.375834	-12.909190
1244.892563	-12.901360
1245.409721	-12.884390
1245.927309	-12.866168
1246.445327	-12.856331
1246.963777	-12.846551
1247.482657	-12.827398
1248.001970	-12.807760
1248.521716	-12.797044
1249.041894	-12.785801
1249.562506	-12.764976
1250.083553	-12.744509
1250.605034	-12.733278
1251.126950	-12.720678
1251.649302	-12.698162
1252.172091	-12.676939
1252.695316	-12.665071
1253.218979	-12.650767
1253.743079	-12.626452
1254.267619	-12.604539
1254.792597	-12.591998
1255.318015	-12.575876
1255.843874	-12.550127
1256.370173	-12.528275
1256.896913	-12.515577
1257.424095	-12.498229
1257.951720	-12.472160
1258.479787	-12.451720
1259.008298	-12.439943
1259.537254	-12.422362
1260.066654	-12.397352
1260.596499	-12.379573
1261.126790	-12.369282
1261.657527	-12.351952
1262.188711	-12.328758
1262.720342	-12.313894
1263.252422	-12.304584
1263.784950	-12.287170
1264.317928	-12.265922
1264.851355	-12.253611
1265.385232	-12.244405
1265.919560	-12.226579
1266.454340	-12.207560
1266.989572	-12.197665
1267.525256	-12.188143
1268.061394	-12.170425
1268.597985	-12.154757
1269.135031	-12.147758
1269.672531	-12.138280
1270.210487	-12.122079
1270.748899	-12.111113
1271.287768	-12.107232
1271.827094	-12.097991
1272.366877	-12.084282
1272.907119	-12.078286
1273.447820	-12.076423
1273.988981	-12.066917
1274.530601	-12.055986
1275.072683	-12.054176
1275.615226	-12.052670
1276.158230	-12.042582
1276.701697	-12.034934
1277.245627	-12.036433
1277.790021	-12.034248
1278.334879	-12.024514
1278.880202	-12.021419
1279.425991	-12.025811
1279.972245	-12.023020
1280.518966	-12.015660
1281.066155	-12.018216
1281.613811	-12.024580
1282.161936	-12.021357
1282.710529	-12.017866
1283.259593	-12.025332
1283.809126	-12.031384
1284.359131	-12.027451
1284.909607	-12.028117
1285.460555	-12.038071
1286.011976	-12.041359
1286.563870	-12.037248
1287.116237	-12.042022
1287.669080	-12.052050
1288.222397	-12.052075
1288.776191	-12.050006
1289.330460	-12.059037
1289.885207	-12.067709
1290.440431	-12.066119
1290.996133	-12.068652
1291.552314	-12.080856
1292.108975	-12.086799
1292.666115	-12.085535
1293.223737	-12.092916
1293.781839	-12.104819
1294.340424	-12.106765
1294.899491	-12.107054
1295.459041	-12.117044
1296.019075	-12.124875
1296.579593	-12.123364
1297.140597	-12.126291
1297.702086	-12.136010
1298.264061	-12.138535
1298.826524	-12.136545
1299.389474	-12.142524
1299.952912	-12.149380
1300.516839	-12.147827
1301.081255	-12.147940
1301.646162	-12.154496
1302.211559	-12.155871
1302.777448	-12.151916
1303.343829	-12.153492
1303.910702	-12.156122
1304.478069	-12.151177
1305.045930	-12.146610
1305.614285	-12.147129
1306.183136	-12.143356
1306.752483	-12.135122
1307.322326	-12.131709
1307.892666	-12.129209
1308.463504	-12.120935
1309.034841	-12.113880
1309.606677	-12.111154
1310.179012	-12.104500
1310.751849	-12.095073
1311.325186	-12.089986
1311.899025	-12.084285
1312.473366	-12.073427
1313.048211	-12.064599
1313.623559	-12.058295
1314.199412	-12.047119
1314.775770	-12.034749
1315.352634	-12.026836
1315.930004	-12.016818
1316.507881	-12.002902
1317.086266	-11.992933
1317.665159	-11.984633
1318.244562	-11.971468
1318.824474	-11.959342
1319.404897	-11.951540
1319.985831	-11.940191
1320.567276	-11.926311
1321.149234	-11.917039
1321.731706	-11.907197
1322.314691	-11.892556
1322.898190	-11.880847
1323.482205	-11.871954
1324.066736	-11.858327
1324.651783	-11.844792
1325.237347	-11.836282
1325.823430	-11.825022
1326.410031	-11.810697
1326.997151	-11.801362
1327.584791	-11.792288
1328.172952	-11.777955
1328.761634	-11.766280
1329.350839	-11.757884
1329.940566	-11.744188
1330.530817	-11.729868
1331.121592	-11.720846
1331.712891	-11.708899
1332.304716	-11.693461
1332.897068	-11.683522
1333.489946	-11.674262
1334.083352	-11.659799
1334.677287	-11.648957
1335.271750	-11.642104
1335.866744	-11.629989
1336.462268	-11.618135
1337.058323	-11.612316
1337.654910	-11.603133
1338.252029	-11.590847
1338.849682	-11.584916
1339.447869	-11.579061
1340.046591	-11.567938
1340.645848	-11.561526
1341.245641	-11.558706
1341.845972	-11.550162
1342.446840	-11.543004
1343.048246	-11.541591
1343.650191	-11.535704
1344.252677	-11.527553
1344.855702	-11.525530
1345.459269	-11.521620
1346.063379	-11.513064
1346.668030	-11.509632
1347.273226	-11.507415
1347.878965	-11.499700
1348.485250	-11.495091
1349.092080	-11.494077
1349.699456	-11.487853
1350.307380	-11.482182
1350.915851	-11.481299
1351.524871	-11.476346
1352.134441	-11.469660
1352.744560	-11.468082
1353.355231	-11.464322
1353.966453	-11.457371
1354.578227	-11.455244
1355.190555	-11.452955
1355.803436	-11.446628
1356.416872	-11.444083
1357.030863	-11.442867
1357.645411	-11.437101
1358.260515	-11.433668
1358.876177	-11.432723
1359.492397	-11.427399
1360.109176	-11.423237
1360.726516	-11.422625
1361.344416	-11.418336
1361.962877	-11.414162
1362.581901	-11.414064
1363.201487	-11.410910
1363.821637	-11.406451
1364.442352	-11.405867
1365.063632	-11.402672
1365.685478	-11.396928
1366.307891	-11.394849
1366.930871	-11.391086
1367.554420	-11.384257
1368.178538	-11.381048
1368.803226	-11.377299
1369.428485	-11.370201
1370.054315	-11.366262
1370.680717	-11.362421
1371.307693	-11.354891
1371.935242	-11.349874
1372.563366	-11.345537
1373.192065	-11.337698
1373.821341	-11.332257
1374.451193	-11.328408
1375.081623	-11.321564
1375.712632	-11.316971
1376.344221	-11.314277
1376.976389	-11.308477
1377.609139	-11.304128
1378.242470	-11.301284
1378.876384	-11.295037
1379.510881	-11.289737
1380.145963	-11.286014
1380.781629	-11.279244
1381.417881	-11.273601
1382.054720	-11.269820
1382.692147	-11.263199
1383.330161	-11.257523
1383.968765	-11.253365
1384.607959	-11.246079
1385.247743	-11.239452
1385.888119	-11.234246
1386.529087	-11.226178
1387.170648	-11.219195
1387.812804	-11.214119
1388.455554	-11.206686
1389.098899	-11.200650
1389.742842	-11.196469
1390.387381	-11.189739
1391.032519	-11.184175
1391.678256	-11.180074
1392.324592	-11.173448
1392.971529	-11.168292
1393.619068	-11.164692
1394.267208	-11.158982
1394.915952	-11.155007
1395.565300	-11.152159
1396.215253	-11.146925
1396.865812	-11.143072
1397.516977	-11.139550
1398.168749	-11.133587
1398.821130	-11.129294
1399.474120	-11.125372
1400.127719	-11.119735
1400.781930	-11.116436
1401.436752	-11.113333
1402.092186	-11.108650
1402.748234	-11.106236
1403.404897	-11.103327
1404.062174	-11.099045
1404.720067	-11.097273
1405.378577	-11.094927
1406.037705	-11.092014
1406.697451	-11.091794
1407.357817	-11.090431
1408.018803	-11.088471
1408.680410	-11.088408
1409.342639	-11.086217
1410.005492	-11.083728
1410.668968	-11.083113
1411.333068	-11.080719
1411.997795	-11.079347
1412.663147	-11.080038
1413.329127	-11.079000
1413.995736	-11.079263
1414.662973	-11.080527
1415.330840	-11.079620
1415.999339	-11.080287
1416.668469	-11.081482
1417.338232	-11.081365
1418.008628	-11.083739
1418.679659	-11.086359
1419.351325	-11.088238
1420.023628	-11.092390
1420.696568	-11.095706
1421.370145	-11.098620
1422.044362	-11.103573
1422.719219	-11.107403
1423.394717	-11.111837
1424.070856	-11.117899
1424.747638	-11.122364
1425.425064	-11.127572
1426.103134	-11.133224
1426.781850	-11.137177
1427.461212	-11.142740
1428.141221	-11.148820
1428.821878	-11.154716
1429.503185	-11.163355
1430.185141	-11.172223
1430.867749	-11.181481
1431.551008	-11.192832
1432.234920	-11.203407
1432.919486	-11.214770
1433.604707	-11.227504
1434.290583	-11.239091
1434.977116	-11.251617
1435.664307	-11.263897
1436.352156	-11.274277
1437.040664	-11.285162
1437.729833	-11.294925
1438.419663	-11.304186
1439.110156	-11.315358
1439.801312	-11.326593
1440.493132	-11.339596
1441.185617	-11.354826
1441.878768	-11.370182
1442.572586	-11.387831
1443.267072	-11.406598
1443.962228	-11.425427
1444.658053	-11.446116
1445.354549	-11.465719
1446.051717	-11.484020
1446.749558	-11.501290
1447.448073	-11.514598
1448.147263	-11.526088
1448.847128	-11.535834
1449.547671	-11.543187
1450.248891	-11.551617
1450.950789	-11.559700
1451.653368	-11.568308
1452.356627	-11.579684
1453.060568	-11.591655
1453.765192	-11.606910
1454.470500	-11.625539
1455.176492	-11.645446
1455.883170	-11.668641
1456.590534	-11.691565
1457.298586	-11.712952
1458.007327	-11.733363
1458.716758	-11.748827
1459.426880	-11.760965
1460.137693	-11.768735
1460.849199	-11.769919
1461.561398	-11.767394
1462.274293	-11.759015
1462.987883	-11.746935
1463.702170	-11.734546
1464.417155	-11.721139
1465.132838	-11.711576
1465.849222	-11.706109
1466.566306	-11.704900
1467.284093	-11.711521
1468.002582	-11.723704
1468.721775	-11.743669
1469.441674	-11.771242
1470.162278	-11.802521
1470.883590	-11.837806
1471.605609	-11.871272
1472.328338	-11.900200
1473.051777	-11.923344
1473.775928	-11.935982
1474.500790	-11.939703
1475.226367	-11.932370
1475.952657	-11.913975
1476.679663	-11.888166
1477.407386	-11.855318
1478.135826	-11.821966
1478.864985	-11.791924
1479.594863	-11.768428
1480.325463	-11.756947
1481.056784	-11.757258
1481.788828	-11.773041
1482.521597	-11.805291
1483.255090	-11.853354
1483.989309	-11.918837
1484.724256	-11.997128
1485.459931	-12.086645
1486.196336	-12.183837
1486.933471	-12.284111
1487.671337	-12.386973
1488.409937	-12.487045
1489.149270	-12.582577
1489.889337	-12.670408
1490.630141	-12.746722
1491.371682	-12.813102
1492.113961	-12.867342
1492.856979	-12.911826
1493.600738	-12.946817
1494.345238	-12.971067
1495.090481	-12.987193
1495.836467	-12.993565
1496.583198	-12.993440
1497.330675	-12.987567
1498.078899	-12.975457
1498.827872	-12.959195
1499.577593	-12.936669
1500.328065	-12.911411
1501.079289	-12.885265
1501.831265	-12.860723
1502.583995	-12.842234
1503.337480	-12.829808
1504.091721	-12.828237
1504.846719	-12.839345
1505.602475	-12.866183
1506.358991	-12.911467
1507.116268	-12.972025
1507.874306	-13.046701
1508.633108	-13.128140
1509.392673	-13.210292
1510.153004	-13.284422
1510.914101	-13.337193
1511.675965	-13.357121
1512.438599	-13.328337
1513.202002	-13.243002
1513.966176	-13.095995
1514.731122	-12.888964
1515.496842	-12.630013
1516.263336	-12.327616
1517.030607	-11.997542
1517.798654	-11.653238
1518.567479	-11.310908
1519.337083	-10.983351
1520.107468	-10.678912
1520.878634	-10.405947
1521.650584	-10.168047
1522.423317	-9.971279
1523.196836	-9.817621
1523.971141	-9.706850
1524.746233	-9.637831
1525.522115	-9.606019
1526.298786	-9.609994
1527.076249	-9.644027
1527.854504	-9.701230
1528.633553	-9.772575
1529.413397	-9.846370
1530.194037	-9.914182
1530.975474	-9.963493
1531.757709	-9.983395
1532.540745	-9.964523
1533.324581	-9.901797
1534.109220	-9.798779
1534.894662	-9.659272
1535.680909	-9.492456
1536.467961	-9.309625
1537.255821	-9.124584
1538.044489	-8.952860
1538.833967	-8.804546
1539.624256	-8.690835
1540.415357	-8.621048
1541.207271	-8.605304
1542.000000	-8.652189
1542.793545	-8.765830
1543.587907	-8.952590
1544.383087	-9.217969
1545.179088	-9.570905
1545.975909	-10.018439
1546.773552	-10.567405
1547.572019	-11.229649
1548.371311	-12.020458
1549.171428	-12.964521
1549.972373	-14.088550
1550.774147	-15.434960
1551.576751	-17.072466
1552.380185	-19.122943
1553.184453	-21.821055
1553.989554	-25.682847
1554.795490	-32.351535
1555.602263	-39.275235
1556.409873	-29.313801
1557.218322	-24.482849
1558.027612	-21.504180
1558.837743	-19.402535
1559.648717	-17.811989
1560.460536	-16.556367
1561.273200	-15.547032
1562.086710	-14.723251
1562.901069	-14.044489
1563.716278	-13.480202
1564.532337	-13.013906
1565.349249	-12.634394
1566.167014	-12.328313
1566.985634	-12.084392
1567.805111	-11.894113
1568.625444	-11.756584
1569.446637	-11.667261
1570.268690	-11.620744
1571.091605	-11.611461
1571.915382	-11.639307
1572.740024	-11.704538
1573.565532	-11.802767
1574.391907	-11.929756
1575.219150	-12.083599
1576.047262	-12.267506
1576.876246	-12.478864
1577.706103	-12.713662
1578.536833	-12.968014
1579.368439	-13.243839
1580.200922	-13.540007
1581.034282	-13.850632
1581.868522	-14.170637
1582.703643	-14.499166
1583.539646	-14.837130
1584.376532	-15.176531
1585.214304	-15.510124
1586.052962	-15.832802
1586.892508	-16.145344
1587.732943	-16.438849
1588.574269	-16.704312
1589.416487	-16.937051
1590.259599	-17.140225
1591.103605	-17.308597
1591.948508	-17.430899
1592.794309	-17.503916
1593.641009	-17.534449
1594.488609	-17.526713
1595.337112	-17.472476
1596.186518	-17.371862
1597.036829	-17.233891
1597.888047	-17.069169
1598.740172	-16.872625
1599.593207	-16.645707
1600.447153	-16.397702
1601.302010	-16.141731
1602.157782	-15.877400
1603.014469	-15.606991
1603.872072	-15.336930
1604.730593	-15.073611
1605.590034	-14.815717
1606.450397	-14.566635
1607.311681	-14.335942
1608.173890	-14.127424
1609.037024	-13.937079
1609.901085	-13.763897
1610.766075	-13.615014
1611.631995	-13.489464
1612.498846	-13.380718
1613.366630	-13.286592
1614.235349	-13.215343
1615.105004	-13.164919
1615.975596	-13.127129
1616.847128	-13.096866
1617.719600	-13.079160
1618.593014	-13.069535
1619.467372	-13.061739
1620.342675	-13.053565
1621.218924	-13.048420
1622.096122	-13.039134
1622.974270	-13.022023
1623.853369	-12.999447
1624.733420	-12.974475
1625.614427	-12.940941
1626.496389	-12.900425
1627.379308	-12.857736
1628.263187	-12.812113
1629.148026	-12.758714
1630.033828	-12.704379
1630.920593	-12.653962
1631.808324	-12.602651
1632.697022	-12.547346
1633.586688	-12.495990
1634.477324	-12.449785
1635.368932	-12.403607
1636.261514	-12.359386
1637.155070	-12.323075
1638.049602	-12.290209
1638.945113	-12.257255
1639.841603	-12.229234
1640.739075	-12.207683
1641.637529	-12.186909
1642.536968	-12.167848
1643.437393	-12.152939
1644.338806	-12.137157
1645.241209	-12.118632
1646.144602	-12.102892
1647.048988	-12.087302
1647.954368	-12.065379
1648.860744	-12.041115
1649.768118	-12.018624
1650.676491	-11.992652
1651.585865	-11.963838
1652.496241	-11.938475
1653.407621	-11.914066
1654.320008	-11.887605
1655.233401	-11.865242
1656.147804	-11.847384
1657.063218	-11.829050
1657.979645	-11.813194
1658.897085	-11.802010
1659.815542	-11.789318
1660.735016	-11.776577
1661.655509	-11.768564
1662.577023	-11.760037
1663.499560	-11.747986
1664.423121	-11.738453
1665.347709	-11.729521
1666.273324	-11.718028
1667.199969	-11.708914
1668.127645	-11.701638
1669.056353	-11.691010
1669.986097	-11.682883
1670.916877	-11.679185
1671.848695	-11.673935
1672.781553	-11.669438
1673.715452	-11.669349
1674.650395	-11.667505
1675.586383	-11.666325
1676.523418	-11.669544
1677.461501	-11.670872
1678.400635	-11.670150
1679.340821	-11.674187
1680.282061	-11.677082
1681.224357	-11.677993
1682.167710	-11.683068
1683.112122	-11.688174
1684.057595	-11.690670
1685.004132	-11.697259
1685.951732	-11.704551
1686.900400	-11.709998
1687.850135	-11.718838
1688.800940	-11.726848
1689.752818	-11.733601
1690.705768	-11.744896
1691.659795	-11.755406
1692.614898	-11.762678
1693.571081	-11.774915
1694.528345	-11.786387
1695.486691	-11.795410
1696.446122	-11.808504
1697.406640	-11.820498
1698.368245	-11.830332
1699.330941	-11.844904
1700.294729	-11.858502
1701.259611	-11.870869
1702.225588	-11.887126
1703.192664	-11.901097
1704.160838	-11.916346
1705.130114	-11.935005
1706.100493	-11.949347
1707.071977	-11.965499
1708.044568	-11.986000
1709.018268	-12.001959
1709.993079	-12.020595
1710.969003	-12.041874
1711.946041	-12.059405
1712.924196	-12.081057
1713.903469	-12.102630
1714.883862	-12.121462
1715.865378	-12.145292
1716.848017	-12.166604
1717.831783	-12.186777
1718.816677	-12.212709
1719.802701	-12.233880
1720.789857	-12.255981
1721.778147	-12.282306
1722.767573	-12.303587
1723.758136	-12.327688
1724.749840	-12.351664
1725.742685	-12.372554
1726.736673	-12.398790
1727.731808	-12.421616
1728.728090	-12.444558
1729.725521	-12.472687
1730.724105	-12.494799
1731.723842	-12.519893
1732.724735	-12.546198
1733.726785	-12.567599
1734.729995	-12.595077
1735.734366	-12.619491
1736.739902	-12.643236
1737.746603	-12.671726
1738.754472	-12.695034
1739.763510	-12.722404
1740.773721	-12.748366
1741.785105	-12.771008
1742.797665	-12.800413
1743.811403	-12.823866
1744.826321	-12.849434
1745.842422	-12.877880
1746.859706	-12.901305
1747.878177	-12.931096
1748.897835	-12.955503
1749.918685	-12.980634
1750.940726	-13.010174
1751.963963	-13.032210
1752.988395	-13.060329
1754.014027	-13.085587
1755.040860	-13.110961
1756.068895	-13.140424
1757.098135	-13.162958
1758.128583	-13.192585
1759.160240	-13.218274
1760.193109	-13.243133
1761.227191	-13.271987
1762.262488	-13.294921
1763.299004	-13.324841
1764.336740	-13.349859
1765.375697	-13.377135
1766.415880	-13.406746
1767.457288	-13.430848
1768.499926	-13.462397
1769.543794	-13.486428
1770.588895	-13.515325
1771.635231	-13.544651
1772.682805	-13.569826
1773.731619	-13.601457
1774.781674	-13.627485
1775.832973	-13.658786
1776.885519	-13.684239
1777.939312	-13.713219
1778.994357	-13.743071
1780.050654	-13.766723
1781.108207	-13.798908
1782.167017	-13.823680
1783.227087	-13.854288
1784.288418	-13.880035
1785.351013	-13.906847
1786.414875	-13.935183
1787.480006	-13.958205
1788.546407	-13.987102
1789.614082	-14.009067
1790.683032	-14.038544
1791.753259	-14.060226
1792.824767	-14.085871
1793.897557	-14.109622
1794.971632	-14.130654
1796.046994	-14.155329
1797.123645	-14.174169
1798.201588	-14.200434
1799.280824	-14.218224
1800.361357	-14.244028
1801.443188	-14.261519
1802.526320	-14.284132
1803.610756	-14.303447
1804.696497	-14.322171
1805.783546	-14.344745
1806.871906	-14.362732
1807.961578	-14.386544
1809.052565	-14.403690
1810.144870	-14.428379
1811.238494	-14.443020
1812.333441	-14.468258
1813.429713	-14.483878
1814.527311	-14.506983
1815.626239	-14.525573
1816.726499	-14.545082
1817.828094	-14.563165
1818.931025	-14.581605
1820.035295	-14.599924
1821.140906	-14.616995
1822.247862	-14.640610
1823.356165	-14.655343
1824.465816	-14.676729
1825.576819	-14.688068
1826.689175	-14.706345
1827.802888	-14.712517
1828.917960	-14.733693
1830.034394	-14.749858
1831.152191	-14.771587
1832.271354	-14.773997
1833.391887	-14.786679
1834.513790	-14.795179
1835.637068	-14.814533
1836.761722	-14.821044
1837.887755	-14.832200
1839.015169	-14.837275
1840.143968	-14.850501
1841.274153	-14.854836
1842.405727	-14.868198
1843.538693	-14.873997
1844.673053	-14.882823
1845.808810	-14.885169
1846.945966	-14.895808
1848.084525	-14.895812
1849.224488	-14.904815
1850.365858	-14.906134
1851.508638	-14.912900
1852.652831	-14.912439
1853.798438	-14.919817
1854.945463	-14.916299
1856.093909	-14.922576
1857.243777	-14.917792
1858.395071	-14.923449
1859.547794	-14.917598
1860.701947	-14.922883
1861.857533	-14.916885
1863.014556	-14.920462
1864.173018	-14.914245
1865.332922	-14.915859
1866.494270	-14.908278
1867.657065	-14.908821
1868.821309	-14.902845
1869.987006	-14.901480
1871.154158	-14.896474
1872.322768	-14.890967
1873.492839	-14.886359
1874.664373	-14.875878
1875.837373	-14.872821
1877.011841	-14.860904
1878.187782	-14.858152
1879.365197	-14.845434
1880.544089	-14.841922
1881.724460	-14.827970
1882.906315	-14.823997
1884.089655	-14.812393
1885.274483	-14.804441
1886.460803	-14.794859
1887.648616	-14.781176
1888.837927	-14.775114
1890.028736	-14.761018
1891.221049	-14.757299
1892.414866	-14.743578
1893.610192	-14.735880
1894.807028	-14.720000
1896.005379	-14.707875
1897.205246	-14.695628
1898.406633	-14.682804
1899.609542	-14.675491
1900.813977	-14.659364
1902.019940	-14.649358
1903.227434	-14.630243
1904.436462	-14.616701
1905.647028	-14.602140
1906.859133	-14.585671
1908.072781	-14.574439
1909.287976	-14.552195
1910.504719	-14.538350
1911.723013	-14.517230
1912.942863	-14.499437
1914.164270	-14.486075
1915.387238	-14.461248
1916.611770	-14.449777
1917.837868	-14.421994
1919.065536	-14.406132
1920.294777	-14.386778
1921.525594	-14.364711
1922.757989	-14.352282
1923.991967	-14.326349
1925.227529	-14.310532
1926.464679	-14.289926
1927.703420	-14.267535
1928.943755	-14.254697
1930.185688	-14.229002
1931.429221	-14.214648
1932.674356	-14.193942
1933.921099	-14.173102
1935.169451	-14.158724
1936.419415	-14.136027
1937.670996	-14.118715
1938.924195	-14.101407
1940.179017	-14.078158
1941.435463	-14.064536
1942.693538	-14.043736
1943.953245	-14.025026
1945.214586	-14.010514
1946.477566	-13.987911
1947.742186	-13.971261
1949.008451	-13.955226
1950.276363	-13.933155
1951.545926	-13.920756
1952.817143	-13.902607
1954.090017	-13.881493
1955.364551	-13.869167
1956.640749	-13.845382
1957.918615	-13.828584
1959.198150	-13.814320
1960.479359	-13.790961
1961.762244	-13.773866
1963.046810	-13.755730
1964.333059	-13.731231
1965.620995	-13.716048
1966.910621	-13.696931
1968.201940	-13.671593
1969.494956	-13.655063
1970.789672	-13.634431
1972.086091	-13.611789
1973.384217	-13.597684
1974.684053	-13.577603
1975.985602	-13.552769
1977.288869	-13.539260
1978.593855	-13.519892
1979.900566	-13.499463
1981.209003	-13.488005
1982.519171	-13.468582
1983.831073	-13.446379
1985.144712	-13.433162
1986.460093	-13.416433
1987.777217	-13.394936
1989.096089	-13.383204
1990.416713	-13.368535
1991.739092	-13.347496
1993.063228	-13.337737
1994.389127	-13.326433
1995.716791	-13.309012
1997.046223	-13.295711
1998.377428	-13.286914
1999.710409	-13.270996
2001.045169	-13.258138
2002.381713	-13.255295
2003.720043	-13.242116
2005.060163	-13.227063
2006.402077	-13.218278
2007.745788	-13.211237
2009.091301	-13.197415
2010.438618	-13.186910
2011.787743	-13.182685
2013.138680	-13.169030
2014.491433	-13.153771
2015.846005	-13.147086
2017.202399	-13.138720
2018.560621	-13.124133
2019.920673	-13.112905
2021.282558	-13.108496
2022.646281	-13.096025
2024.011846	-13.080585
2025.379256	-13.073135
2026.748515	-13.066793
2028.119626	-13.053314
2029.492594	-13.040473
2030.867422	-13.036017
2032.244114	-13.029089
2033.622673	-13.013917
2035.003104	-13.002810
2036.385411	-12.998292
2037.769597	-12.991967
2039.155665	-12.978891
2040.543621	-12.968907
2041.933467	-12.966962
2043.325208	-12.960934
2044.718847	-12.950515
2046.114389	-12.942929
2047.511837	-12.941401
2048.911195	-12.940483
2050.312467	-12.931984
2051.715657	-12.927271
2053.120769	-12.929097
2054.527807	-12.930482
2055.936775	-12.926232
2057.347677	-12.919368
2058.760516	-12.920777
2060.175297	-12.926106
2061.592025	-12.925859
2063.010701	-12.918831
2064.431332	-12.913289
2065.853921	-12.917314
2067.278472	-12.921972
2068.704988	-12.919391
2070.133475	-12.911682
2071.563936	-12.907403
2072.996375	-12.911954
2074.430796	-12.916774
2075.867204	-12.911543
2077.305603	-12.904134
2078.745996	-12.900340
2080.188389	-12.904528
2081.632784	-12.909922
2083.079187	-12.906198
2084.527601	-12.898102
2085.978030	-12.894485
2087.430480	-12.897519
2088.884954	-12.903587
2090.341455	-12.905342
2091.799990	-12.901757
2093.260561	-12.897800
2094.723173	-12.900011
2096.187831	-12.908814
2097.654538	-12.917764
2099.123300	-12.922777
2100.594119	-12.923325
2102.067001	-12.923520
2103.541950	-12.931501
2105.018971	-12.945382
2106.498067	-12.960322
2107.979243	-12.972205
2109.462503	-12.978504
2110.947853	-12.984155
2112.435295	-12.994985
2113.924836	-13.011696
2115.416478	-13.032155
2116.910227	-13.049676
2118.406087	-13.062703
2119.904063	-13.071662
2121.404158	-13.079365
2122.906378	-13.091932
2124.410727	-13.108778
2125.917210	-13.128642
2127.425831	-13.147249
2128.936594	-13.161010
2130.449505	-13.170998
2131.964567	-13.178878
2133.481786	-13.186673
2135.001166	-13.197174
2136.522711	-13.211751
2138.046427	-13.228096
2139.572317	-13.244567
2141.100388	-13.258883
2142.630642	-13.271617
2144.163085	-13.281056
2145.697722	-13.287373
2147.234558	-13.294784
2148.773596	-13.305807
2150.314842	-13.320694
2151.858301	-13.339512
2153.403977	-13.361566
2154.951875	-13.385429
2156.502000	-13.408631
2158.054357	-13.430673
2159.608950	-13.451113
2161.165785	-13.470935
2162.724866	-13.489684
2164.286198	-13.509708
2165.849786	-13.530973
2167.415635	-13.552372
2168.983749	-13.581100
2170.554134	-13.613222
2172.126795	-13.649368
2173.701737	-13.687835
2175.278964	-13.724304
2176.858481	-13.761780
2178.440294	-13.800052
2180.024408	-13.835542
2181.610827	-13.867250
2183.199557	-13.897489
2184.790602	-13.926564
2186.383968	-13.954126
2187.979660	-13.980142
2189.577683	-14.004637
2191.178041	-14.028928
2192.780741	-14.052574
2194.385787	-14.072984
2195.993185	-14.091422
2197.602939	-14.113085
2199.215054	-14.129070
