# 2022-03-21_21.13.59
# shape = sech2
# FWHM_ps = 0.1
# carrier_nm = 1542
# frep_MHz = 12126
# pow_mW = 8000
# GDD = 0.0
# propa_len = 0.098
# untap_len = 0.01
# taper_len = 0.038
# waist_len = 0.02
# uptap_len = 0.02
# untap_scale = 1.0
# waist_scale = 0.1631578947368421
# workingDir = NL_20110305_12 (Spirou)
# axis = slow
# window_ps = 10.0
# steps = 200
# points = 21700
# 
# wavelength [nm]	 power spectral density [dB]
600.043425	-75.019188
600.163550	-75.505275
600.283723	-76.705311
600.403943	-77.281680
600.524212	-77.380289
600.644529	-76.876616
600.764895	-75.493617
600.885308	-74.998000
601.005770	-75.997104
601.126280	-77.189258
601.246839	-77.405139
601.367446	-77.520193
601.488101	-77.085917
601.608804	-76.104006
601.729557	-75.902963
601.850357	-76.355429
601.971206	-76.549931
602.092104	-76.717783
602.213050	-77.606437
602.334045	-77.777202
602.455089	-76.565767
602.576181	-75.708244
602.697322	-75.209889
602.818511	-75.157846
602.939749	-76.163879
603.061036	-78.078808
603.182372	-78.292824
603.303757	-76.068044
603.425191	-74.522977
603.546673	-74.098224
603.668204	-74.607422
603.789785	-76.383710
603.911414	-78.687470
604.033092	-77.776876
604.154820	-75.413916
604.276596	-74.342354
604.398422	-74.265989
604.520297	-75.015549
604.642220	-77.016833
604.764193	-79.017684
604.886216	-77.672089
605.008287	-75.786146
605.130408	-74.989753
605.252578	-74.719638
605.374798	-75.321601
605.497066	-77.418894
605.619385	-78.790373
605.741752	-77.312675
605.864169	-75.429183
605.986636	-74.082383
606.109152	-73.645645
606.231718	-74.727705
606.354333	-77.349646
606.476998	-78.127729
606.599712	-76.027386
606.722476	-74.146514
606.845290	-73.172343
606.968154	-73.586013
607.091067	-75.738508
607.214030	-78.817188
607.337043	-78.017789
607.460106	-75.674615
607.583219	-74.323171
607.706381	-74.049185
607.829594	-75.389703
607.952856	-78.096978
608.076169	-78.784144
608.199531	-76.815793
608.322944	-75.360049
608.446407	-74.372534
608.569920	-73.960741
608.693483	-74.812951
608.817096	-76.127634
608.940759	-76.695255
609.064473	-76.603902
609.188237	-75.156085
609.312051	-73.359155
609.435916	-72.820497
609.559831	-73.821296
609.683796	-75.828828
609.807812	-78.574657
609.931878	-78.821198
610.055995	-75.017584
610.180162	-73.034631
610.304380	-73.174830
610.428648	-74.895638
610.552967	-78.154806
610.677337	-80.739744
610.801757	-76.601131
610.926228	-73.439760
611.050750	-72.596095
611.175323	-73.160451
611.299946	-74.704388
611.424620	-77.345573
611.549345	-78.253813
611.674121	-75.201571
611.798948	-73.098201
611.923826	-72.514005
612.048755	-72.894636
612.173734	-74.617410
612.298765	-78.323279
612.423847	-78.880421
612.548980	-75.364021
612.674165	-73.364593
612.799400	-72.820190
612.924687	-73.675340
613.050025	-76.887753
613.175414	-79.894498
613.300854	-76.320555
613.426346	-73.844312
613.551889	-72.937130
613.677484	-73.277908
613.803130	-75.022682
613.928827	-76.995782
614.054576	-75.896034
614.180377	-74.632485
614.306229	-74.181919
614.432132	-73.879466
614.558087	-74.150550
614.684094	-74.794107
614.810153	-75.050342
614.936263	-75.447048
615.062425	-76.199963
615.188639	-75.352610
615.314904	-74.020368
615.441222	-73.804688
615.567591	-74.353625
615.694012	-75.825834
615.820486	-77.119383
615.947011	-75.829612
616.073588	-73.844199
616.200217	-73.487033
616.326898	-74.243783
616.453632	-75.201579
616.580417	-75.732112
616.707255	-74.984121
616.834144	-73.919940
616.961086	-73.749765
617.088081	-74.303363
617.215127	-74.321679
617.342226	-74.278666
617.469378	-74.557171
617.596581	-74.786181
617.723837	-75.279263
617.851146	-75.412361
617.978507	-74.613264
618.105920	-74.075243
618.233386	-74.696948
618.360905	-75.567702
618.488476	-75.823988
618.616100	-75.423619
618.743777	-74.294093
618.871506	-73.575874
618.999288	-73.512297
619.127123	-73.715463
619.255011	-74.013148
619.382951	-74.888822
619.510945	-75.268084
619.638991	-74.057955
619.767090	-72.992425
619.895243	-72.761653
620.023448	-73.643514
620.151706	-76.410522
620.280017	-78.551717
620.408382	-75.083074
620.536799	-72.672046
620.665270	-72.250020
620.793794	-73.447597
620.922371	-76.906548
621.051002	-77.773097
621.179686	-73.572241
621.308423	-71.522769
621.437213	-71.468006
621.566057	-72.821356
621.694954	-75.487850
621.823905	-76.578634
621.952909	-74.118680
622.081967	-72.813869
622.211079	-72.919332
622.340244	-73.608574
622.469462	-75.098260
622.598735	-76.460617
622.728061	-75.624165
622.857441	-74.290530
622.986874	-73.216753
623.116361	-72.460016
623.245903	-73.194033
623.375498	-75.162771
623.505147	-75.735852
623.634850	-74.011590
623.764606	-72.274736
623.894417	-71.463010
624.024282	-72.682832
624.154201	-75.592975
624.284174	-76.513444
624.414202	-74.305247
624.544283	-72.658136
624.674419	-72.273065
624.804609	-73.517805
624.934853	-75.607481
625.065151	-75.511988
625.195504	-74.375785
625.325911	-73.301199
625.456373	-72.466608
625.586889	-72.597752
625.717460	-73.626848
625.848085	-74.607044
625.978764	-75.247513
626.109498	-73.874855
626.240287	-71.913595
626.371131	-71.598787
626.502029	-72.957097
626.632982	-75.273454
626.763989	-76.464075
626.895052	-73.615611
627.026169	-71.493360
627.157341	-71.723170
627.288568	-73.836577
627.419850	-76.129189
627.551187	-75.567547
627.682579	-72.922212
627.814026	-71.721479
627.945528	-72.415228
628.077085	-73.559058
628.208697	-73.970470
628.340364	-74.140905
628.472087	-73.258607
628.603865	-72.502761
628.735698	-72.228868
628.867586	-72.107162
628.999530	-73.048459
629.131529	-75.502594
629.263584	-75.292292
629.395694	-73.121061
629.527859	-71.664685
629.660080	-71.574211
629.792357	-73.738647
629.924689	-76.681977
630.057077	-74.175138
630.189520	-71.516428
630.322019	-70.490451
630.454574	-71.029279
630.587184	-73.509120
630.719851	-75.306060
630.852573	-73.781999
630.985351	-72.201421
631.118185	-71.313311
631.251075	-71.619583
631.384021	-73.391778
631.517023	-75.705795
631.650081	-75.785465
631.783195	-72.772475
631.916365	-70.365724
632.049592	-70.097100
632.182874	-72.009678
632.316213	-76.094681
632.449608	-75.564790
632.583059	-70.969101
632.716567	-68.963334
632.850131	-69.536064
632.983751	-72.850385
633.117428	-79.054025
633.251161	-74.584884
633.384951	-70.334623
633.518797	-69.347319
633.652700	-70.879781
633.786660	-75.025107
633.920676	-76.924757
634.054749	-72.406040
634.188879	-69.899181
634.323065	-69.544663
634.457308	-70.905781
634.591608	-73.795074
634.725965	-75.368495
634.860379	-72.656784
634.994850	-70.245371
635.129377	-69.598282
635.263962	-71.039996
635.398604	-75.013245
635.533303	-76.275415
635.668058	-71.721817
635.802872	-69.318360
635.937742	-69.425471
636.072669	-72.172205
636.207654	-76.335043
636.342696	-73.392664
636.477796	-69.828711
636.612953	-68.806292
636.748167	-70.048808
636.883439	-73.491312
637.018768	-75.116787
637.154155	-71.981160
637.289599	-69.795444
637.425101	-69.626729
637.560660	-71.323401
637.696277	-74.085109
637.831952	-74.324940
637.967685	-71.507730
638.103475	-69.511356
638.239324	-69.278396
638.375230	-70.989864
638.511194	-74.256867
638.647215	-73.574499
638.783295	-69.768235
638.919433	-68.132293
639.055629	-69.007737
639.191883	-72.810647
639.328195	-76.492978
639.464565	-71.248632
639.600994	-68.418474
639.737481	-68.497843
639.874025	-71.584763
640.010629	-75.934517
640.147290	-72.165514
640.284010	-68.729875
640.420789	-68.051812
640.557625	-69.661694
640.694521	-72.916228
640.831474	-72.947306
640.968487	-70.214846
641.105558	-68.803935
641.242687	-69.281394
641.379876	-71.326722
641.517123	-72.924750
641.654429	-71.933514
641.791793	-70.130097
641.929216	-69.264612
642.066699	-69.593516
642.204240	-70.836320
642.341840	-71.574292
642.479499	-70.818291
642.617217	-69.148660
642.754994	-68.764405
642.892830	-69.729376
643.030726	-71.367115
643.168680	-71.532221
643.306694	-70.106845
643.444767	-69.175913
643.582899	-69.702062
643.721091	-70.551469
643.859342	-71.000306
643.997652	-70.404576
644.136022	-69.271210
644.274451	-68.740529
644.412940	-68.980648
644.551488	-70.020193
644.690096	-70.947861
644.828763	-69.700728
644.967490	-68.339200
645.106277	-68.525061
645.245124	-70.123915
645.384030	-72.081117
645.522997	-70.046349
645.662023	-67.903423
645.801109	-67.769513
645.940255	-69.509637
646.079460	-71.836842
646.218726	-69.910128
646.358052	-67.208129
646.497438	-66.804016
646.636884	-68.598877
646.776391	-71.779410
646.915957	-70.652615
647.055584	-67.513184
647.195271	-66.938057
647.335019	-68.667582
647.474826	-71.523047
647.614695	-70.412484
647.754623	-67.631106
647.894612	-66.837685
648.034662	-67.830750
648.174772	-69.326772
648.314943	-69.823365
648.455174	-68.363428
648.595466	-67.322933
648.735819	-67.335087
648.876233	-68.448103
649.016707	-69.869716
649.157242	-69.494698
649.297838	-67.845620
649.438495	-67.270461
649.579213	-67.632586
649.719992	-68.592919
649.860832	-68.695203
650.001733	-67.927992
650.142695	-67.187891
650.283718	-66.893466
650.424803	-67.313335
650.565949	-68.489751
650.707156	-69.034846
650.848424	-68.015344
650.989754	-66.835729
651.131145	-66.808371
651.272597	-67.971014
651.414111	-68.735919
651.555687	-67.880178
651.697324	-66.588746
651.839022	-66.133133
651.980782	-66.726971
652.122604	-67.944147
652.264488	-68.163630
652.406433	-67.003792
652.548441	-66.105887
652.690510	-66.665648
652.832640	-68.035320
652.974833	-68.132808
653.117088	-66.772167
653.259405	-66.185267
653.401784	-66.541575
653.544224	-66.802948
653.686727	-66.435866
653.829293	-66.532247
653.971920	-66.943122
654.114609	-66.612434
654.257361	-65.782641
654.400175	-65.987551
654.543052	-67.338166
654.685991	-67.788074
654.828992	-66.210314
654.972056	-65.157722
655.115183	-65.505687
655.258372	-66.775077
655.401623	-67.086741
655.544937	-65.881506
655.688314	-64.693148
655.831754	-64.750726
655.975256	-66.226939
656.118822	-67.948356
656.262450	-66.495974
656.406141	-64.517829
656.549894	-64.438306
656.693711	-66.361890
656.837591	-67.614342
656.981534	-65.472093
657.125540	-63.845755
657.269610	-64.148409
657.413742	-65.659172
657.557938	-66.742994
657.702196	-65.866637
657.846519	-64.545641
657.990904	-64.121246
658.135353	-65.028217
658.279866	-66.953554
658.424441	-66.378635
658.569081	-63.873695
658.713784	-63.100798
658.858550	-64.546568
659.003381	-66.811865
659.148274	-65.272203
659.293232	-63.332116
659.438253	-63.545030
659.583339	-65.164915
659.728488	-65.968030
659.873701	-64.985111
660.018978	-64.310367
660.164318	-63.991032
660.309723	-63.836900
660.455192	-64.520418
660.600725	-65.265904
660.746323	-64.184308
660.891984	-62.879592
661.037710	-63.232561
661.183500	-65.207784
661.329354	-65.257556
661.475272	-63.509408
661.621255	-63.145685
661.767303	-64.186490
661.913415	-64.580433
662.059591	-63.786923
662.205833	-63.536583
662.352138	-63.493678
662.498509	-62.959822
662.644944	-63.221051
662.791443	-64.415419
662.938008	-64.199407
663.084638	-62.444811
663.231332	-62.520625
663.378091	-64.839459
663.524915	-64.835706
663.671804	-62.032506
663.818759	-61.528635
663.965778	-63.697776
664.112863	-64.726486
664.260012	-62.162726
664.407227	-61.542132
664.554507	-63.311448
664.701853	-64.243896
664.849264	-62.554533
664.996740	-62.310831
665.144282	-63.547470
665.291889	-62.773901
665.439561	-61.605138
665.587300	-62.618538
665.735103	-64.220154
665.882973	-61.862892
666.030908	-60.303813
666.178909	-62.073359
666.326976	-65.759714
666.475109	-62.340425
666.623307	-59.860047
666.771571	-61.103357
666.919902	-65.456630
667.068298	-63.013142
667.216761	-59.962444
667.365289	-60.331490
667.513884	-63.180065
667.662545	-63.184144
667.811272	-61.032135
667.960065	-61.061252
668.108925	-62.199137
668.257851	-62.111838
668.406843	-61.649644
668.555902	-62.184383
668.705027	-61.814577
668.854219	-60.522361
669.003478	-60.720632
669.152803	-62.477020
669.302195	-62.277628
669.451653	-60.198954
669.601179	-60.036501
669.750771	-62.074269
669.900430	-62.954734
670.050156	-60.800764
670.199949	-59.915795
670.349808	-60.968084
670.499735	-62.041168
670.649729	-61.114984
670.799790	-60.187357
670.949918	-60.295310
671.100114	-60.935368
671.250377	-61.197411
671.400707	-61.091298
671.551104	-60.733486
671.701569	-60.433639
671.852101	-60.453632
672.002700	-60.794289
672.153368	-60.827338
672.304102	-60.251145
672.454905	-59.790273
672.605775	-59.984700
672.756713	-60.755235
672.907718	-60.960264
673.058791	-60.160380
673.209933	-59.520533
673.361142	-59.988760
673.512419	-60.916048
673.663764	-60.495814
673.815177	-59.317902
673.966658	-59.165747
674.118207	-60.095521
674.269825	-60.524865
674.421510	-59.718167
674.573264	-59.283493
674.725086	-59.720714
674.876977	-60.113353
675.028936	-59.841558
675.180963	-59.576338
675.333059	-59.543707
675.485224	-59.285663
675.637457	-59.085035
675.789758	-59.318734
675.942129	-59.719370
676.094568	-59.438437
676.247075	-58.992566
676.399652	-59.076848
676.552298	-59.637494
676.705012	-59.706449
676.857795	-58.971385
677.010648	-58.386374
677.163569	-58.537166
677.316560	-59.363565
677.469619	-59.484294
677.622748	-58.631911
677.775946	-58.099302
677.929214	-58.835796
678.082551	-59.856767
678.235957	-59.122116
678.389432	-57.827761
678.542977	-57.779461
678.696592	-59.018695
678.850276	-59.441183
679.004030	-58.214661
679.157853	-57.429524
679.311746	-58.155247
679.465709	-59.490473
679.619742	-59.097985
679.773844	-57.652893
679.928017	-57.337420
680.082259	-58.452133
680.236571	-59.207700
680.390954	-57.977651
680.545406	-56.906846
680.699929	-57.498082
680.854522	-59.024124
681.009185	-58.869524
681.163918	-57.367735
681.318722	-57.085829
681.473596	-58.122571
681.628540	-58.660184
681.783555	-57.566019
681.938641	-56.737536
682.093797	-57.199175
682.249023	-58.209785
682.404321	-58.282261
682.559689	-57.371574
682.715128	-57.006722
682.870637	-57.495635
683.026218	-58.001542
683.181869	-57.473959
683.337591	-56.667502
683.493385	-56.700578
683.649249	-57.500320
683.805185	-57.890081
683.961191	-57.182640
684.117269	-56.655415
684.273418	-56.987361
684.429639	-57.611519
684.585930	-57.315756
684.742294	-56.486500
684.898728	-56.288973
685.055234	-56.995427
685.211812	-57.544034
685.368461	-56.905267
685.525182	-56.152358
685.681975	-56.477377
685.838839	-57.431954
685.995775	-57.194910
686.152783	-56.044738
686.309863	-55.802326
686.467014	-56.789239
686.624238	-57.324831
686.781534	-56.269685
686.938902	-55.546039
687.096342	-56.233146
687.253854	-57.389107
687.411438	-56.792918
687.569095	-55.549725
687.726824	-55.518260
687.884626	-56.653731
688.042499	-56.927896
688.200446	-55.659277
688.358465	-55.103108
688.516556	-56.037321
688.674720	-57.218530
688.832957	-56.308912
688.991266	-55.121871
689.149649	-55.373325
689.308104	-56.490607
689.466632	-56.323885
689.625233	-55.088172
689.783906	-54.957077
689.942653	-56.011864
690.101473	-56.676675
690.260367	-55.706027
690.419333	-54.992575
690.578372	-55.380765
690.737485	-56.027278
690.896672	-55.626667
691.055931	-54.859520
691.215264	-54.940711
691.374671	-55.723076
691.534151	-56.022154
691.693704	-55.323342
691.853332	-54.879456
692.013033	-55.163416
692.172807	-55.544766
692.332656	-55.176688
692.492578	-54.681762
692.652575	-54.776843
692.812645	-55.382202
692.972789	-55.496869
693.133007	-54.988870
693.293300	-54.639962
693.453666	-54.904083
693.614107	-55.191383
693.774622	-54.835398
693.935211	-54.386060
694.095875	-54.548381
694.256613	-55.093499
694.417426	-55.039068
694.578313	-54.513799
694.739274	-54.444203
694.900311	-54.826835
695.061421	-54.783809
695.222607	-54.292152
695.383868	-54.178042
695.545203	-54.579314
695.706613	-54.644779
695.868098	-54.341882
696.029658	-54.289472
696.191293	-54.581656
696.353003	-54.489025
696.514789	-54.053120
696.676649	-54.023927
696.838585	-54.332936
697.000596	-54.254253
697.162682	-53.892614
697.324844	-53.995092
697.487081	-54.498562
697.649394	-54.336122
697.811782	-53.711866
697.974246	-53.690304
698.136786	-54.204649
698.299401	-54.135395
698.462092	-53.448386
698.624859	-53.495376
698.787702	-54.258721
698.950621	-54.311328
699.113616	-53.502283
699.276686	-53.307741
699.439833	-53.947285
699.603056	-54.033789
699.766355	-53.241289
699.929731	-53.081008
700.093183	-53.797048
700.256711	-54.140873
700.420315	-53.446181
700.583996	-53.101177
700.747754	-53.577899
700.911588	-53.776118
701.075499	-53.168459
701.239486	-52.848323
701.403550	-53.324518
701.567691	-53.753143
701.731909	-53.381034
701.896203	-53.035767
702.060575	-53.225499
702.225024	-53.381268
702.389549	-53.068932
702.554152	-52.780949
702.718832	-52.958301
702.883589	-53.216929
703.048424	-53.201155
703.213335	-53.051204
703.378324	-52.974715
703.543391	-52.929553
703.708535	-52.879727
703.873757	-52.794755
704.039056	-52.712033
704.204433	-52.716642
704.369887	-52.921406
704.535420	-53.003953
704.701030	-52.762916
704.866718	-52.583693
705.032484	-52.696858
705.198328	-52.707230
705.364250	-52.447219
705.530250	-52.359286
705.696328	-52.701850
705.862485	-52.833281
706.028720	-52.475222
706.195033	-52.342440
706.361424	-52.596657
706.527894	-52.558995
706.694442	-52.112568
706.861069	-52.054000
707.027775	-52.565310
707.194559	-52.647854
707.361422	-52.152008
707.528363	-52.097608
707.695384	-52.509107
707.862483	-52.409357
708.029661	-51.800344
708.196918	-51.791186
708.364254	-52.418387
708.531670	-52.457883
708.699164	-51.895984
708.866738	-51.865881
709.034391	-52.331231
709.202123	-52.211907
709.369935	-51.619773
709.537826	-51.606894
709.705796	-52.152746
709.873847	-52.199380
710.041976	-51.755443
710.210186	-51.682238
710.378475	-52.028189
710.546844	-51.991518
710.715292	-51.556267
710.883821	-51.458090
711.052429	-51.801412
711.221118	-51.928656
711.389887	-51.667394
711.558735	-51.519479
711.727664	-51.701830
711.896673	-51.783199
712.065763	-51.514269
712.234932	-51.286955
712.404183	-51.442573
712.573513	-51.687615
712.742924	-51.589943
712.912416	-51.357516
713.081988	-51.400963
713.251641	-51.591992
713.421375	-51.427153
713.591190	-51.085530
713.761085	-51.139424
713.931061	-51.485346
714.101119	-51.476396
714.271257	-51.193270
714.441476	-51.178176
714.611777	-51.381384
714.782159	-51.240335
714.952622	-50.901071
715.123166	-50.946568
715.293792	-51.275075
715.464499	-51.311235
715.635288	-51.068041
715.806158	-50.990276
715.977110	-51.104604
716.148143	-51.046570
716.319259	-50.777448
716.490456	-50.756674
716.661735	-51.058848
716.833096	-51.219735
717.004538	-50.929961
717.176063	-50.697583
717.347670	-50.857875
717.519359	-50.965353
717.691130	-50.621031
717.862984	-50.500662
718.034920	-50.958402
718.206938	-51.181402
718.379039	-50.634339
718.551222	-50.365125
718.723488	-50.793451
718.895836	-50.898414
719.068267	-50.323362
719.240781	-50.299851
719.413377	-51.028325
719.586057	-50.979862
719.758819	-50.176554
719.931664	-50.208854
720.104593	-50.933175
720.277604	-50.616659
720.450699	-49.920141
720.623876	-50.352341
720.797137	-51.139366
720.970482	-50.454691
721.143910	-49.794881
721.317421	-50.439105
721.491016	-50.928514
721.664694	-50.003301
721.838456	-49.719607
722.012302	-50.719567
722.186231	-50.872146
722.360244	-49.831547
722.534342	-49.839625
722.708523	-50.724334
722.882788	-50.351231
723.057137	-49.540841
723.231570	-50.018234
723.406088	-50.859166
723.580689	-50.188119
723.755375	-49.601969
723.930146	-50.173170
724.105000	-50.426847
724.279940	-49.711927
724.454963	-49.683263
724.630072	-50.420926
724.805265	-50.302598
724.980543	-49.685234
725.155905	-49.854598
725.331353	-50.159232
725.506885	-49.741805
725.682503	-49.642829
725.858205	-50.157742
726.033993	-50.086264
726.209865	-49.628653
726.385823	-49.828994
726.561866	-50.024568
726.737995	-49.531741
726.914209	-49.500036
727.090508	-50.129137
727.266893	-49.962761
727.443364	-49.353389
727.619920	-49.701007
727.796562	-50.145161
727.973290	-49.415156
728.150103	-49.135949
728.327003	-50.007731
728.503988	-50.113204
728.681060	-49.162622
728.858218	-49.315049
729.035461	-50.191199
729.212791	-49.572207
729.390208	-48.824328
729.567710	-49.581596
729.745299	-50.264555
729.922975	-49.233907
730.100737	-48.924572
730.278586	-49.923203
730.456521	-49.815529
730.634543	-48.764318
730.812652	-49.107236
730.990848	-50.156207
731.169130	-49.468258
731.347500	-48.736333
731.525957	-49.491702
731.704500	-49.925820
731.883131	-48.877014
732.061850	-48.759626
732.240655	-49.838444
732.419548	-49.671768
732.598528	-48.725469
732.777596	-49.097747
732.956751	-49.786240
733.135994	-49.030635
733.315325	-48.613729
733.494744	-49.449451
733.674250	-49.708500
733.853844	-48.834521
734.033526	-48.821482
734.213296	-49.489144
734.393154	-49.148005
734.573101	-48.622306
734.753135	-49.138242
734.933258	-49.601043
735.113469	-48.952502
735.293769	-48.664230
735.474157	-49.164038
735.654633	-49.182129
735.835198	-48.710515
736.015852	-48.903572
736.196594	-49.363150
736.377426	-49.005164
736.558346	-48.594591
736.739355	-48.888963
736.920453	-49.124823
737.101640	-48.802768
737.282916	-48.756825
737.464282	-49.083754
737.645736	-48.984197
737.827280	-48.637304
738.008914	-48.718199
738.190637	-48.944556
738.372449	-48.841221
738.554351	-48.711314
738.736342	-48.810997
738.918424	-48.878379
739.100595	-48.728363
739.282855	-48.594420
739.465206	-48.675847
739.647647	-48.825677
739.830178	-48.742876
740.012799	-48.596353
740.195510	-48.718878
740.378311	-48.783357
740.561203	-48.499273
740.744185	-48.432174
740.927258	-48.784045
741.110421	-48.799708
741.293674	-48.444852
741.477018	-48.536242
741.660453	-48.757903
741.843979	-48.409937
742.027596	-48.267154
742.211303	-48.765243
742.395102	-48.809508
742.578991	-48.262155
742.762972	-48.352753
742.947044	-48.724541
743.131207	-48.319838
743.315461	-48.149624
743.499807	-48.789076
743.684244	-48.728700
743.868773	-48.004646
744.053394	-48.240223
744.238106	-48.768631
744.422910	-48.200949
744.607805	-48.040742
744.792793	-48.826777
744.977872	-48.554108
745.163044	-47.753006
745.348307	-48.254782
745.533663	-48.807780
745.719111	-47.994146
745.904651	-47.969633
746.090283	-48.871260
746.276008	-48.286975
746.461826	-47.566222
746.647735	-48.384080
746.833738	-48.743857
747.019833	-47.750454
747.206021	-47.988911
747.392302	-48.860691
747.578676	-47.965710
747.765143	-47.504326
747.951703	-48.564501
748.138356	-48.518569
748.325102	-47.535252
748.511941	-48.099001
748.698874	-48.728938
748.885900	-47.650158
749.073019	-47.582413
749.260232	-48.702409
749.447539	-48.153309
749.634939	-47.410557
749.822433	-48.299186
750.010021	-48.475711
750.197703	-47.364577
750.385479	-47.767201
750.573348	-48.732593
750.761312	-47.741173
750.949370	-47.410809
751.137523	-48.492896
751.325769	-48.059626
751.514110	-47.177020
751.702545	-48.076995
751.891075	-48.558989
752.079700	-47.347078
752.268419	-47.553272
752.457233	-48.548676
752.646142	-47.591752
752.835145	-47.189244
753.024244	-48.412598
753.213437	-48.162579
753.402726	-47.080593
753.592110	-47.785691
753.781589	-48.365232
753.971163	-47.237339
754.160833	-47.408373
754.350598	-48.542322
754.540459	-47.628452
754.730415	-46.977749
754.920467	-48.017652
755.110615	-48.047885
755.300858	-47.081606
755.491198	-47.708316
755.681633	-48.308560
755.872164	-47.125382
756.062792	-47.104526
756.253515	-48.255928
756.444335	-47.650728
756.635252	-47.007615
756.826264	-47.916006
757.017373	-47.839051
757.208579	-46.846676
757.399881	-47.475521
757.591280	-48.213206
757.782776	-47.146508
757.974368	-47.091332
758.166058	-48.001972
758.357844	-47.311237
758.549728	-46.869412
758.741708	-47.896815
758.933786	-47.737077
759.125961	-46.782492
759.318233	-47.358970
759.510603	-47.800696
759.703071	-46.937009
759.895635	-47.176425
760.088298	-47.898587
760.281058	-47.073560
760.473916	-46.802825
760.666872	-47.631295
760.859926	-47.356514
761.053078	-46.842515
761.246328	-47.441970
761.439676	-47.416061
761.633122	-46.742642
761.826667	-47.132805
762.020310	-47.497426
762.214052	-46.913335
762.407892	-47.002882
762.601831	-47.374163
762.795868	-46.881274
762.990004	-46.825879
763.184239	-47.323683
763.378573	-47.046020
763.573006	-46.810664
763.767538	-47.122022
763.962169	-46.926464
764.156900	-46.738378
764.351729	-47.125967
764.546658	-47.022818
764.741687	-46.694476
764.936815	-46.924207
765.132042	-46.890692
765.327370	-46.666273
765.522797	-46.950237
765.718324	-46.936610
765.913950	-46.591752
766.109677	-46.774313
766.305504	-46.826459
766.501431	-46.572472
766.697458	-46.813419
766.893586	-46.861246
767.089814	-46.458351
767.286142	-46.613440
767.482571	-46.788028
767.679100	-46.481349
767.875730	-46.634178
768.072461	-46.776709
768.269293	-46.342934
768.466225	-46.430911
768.663259	-46.753912
768.860393	-46.417797
769.057629	-46.404814
769.254966	-46.671955
769.452404	-46.304448
769.649944	-46.249419
769.847585	-46.661481
770.045328	-46.392408
770.243172	-46.179510
770.441118	-46.504037
770.639166	-46.308583
770.837315	-46.082142
771.035567	-46.461122
771.233920	-46.379650
771.432376	-46.018668
771.630934	-46.258554
771.829594	-46.298025
772.028356	-46.009446
772.227220	-46.220947
772.426188	-46.289177
772.625257	-45.926343
772.824430	-46.031005
773.023705	-46.209467
773.223083	-45.950497
773.422563	-45.981205
773.622147	-46.125902
773.821834	-45.867338
774.021624	-45.836542
774.221517	-46.038198
774.421513	-45.892358
774.621613	-45.802579
774.821816	-45.914370
775.022122	-45.786461
775.222532	-45.696524
775.423046	-45.844651
775.623664	-45.802895
775.824385	-45.639933
776.025211	-45.669655
776.226140	-45.684993
776.427173	-45.595754
776.628311	-45.625277
776.829553	-45.651972
777.030899	-45.504762
777.232350	-45.466752
777.433905	-45.571176
777.635564	-45.491405
777.837328	-45.410665
778.039197	-45.485772
778.241171	-45.374001
778.443250	-45.284619
778.645433	-45.430320
778.847722	-45.345407
779.050116	-45.216772
779.252615	-45.331936
779.455219	-45.209571
779.657929	-45.113571
779.860744	-45.320021
780.063665	-45.172000
780.266691	-45.003258
780.469823	-45.191009
780.673061	-45.048291
780.876405	-44.948900
781.079855	-45.193517
781.283410	-44.948834
781.487072	-44.783807
781.690840	-45.083282
781.894715	-44.894453
782.098695	-44.760497
782.302783	-45.023160
782.506976	-44.730648
782.711277	-44.620707
782.915684	-44.980947
783.120198	-44.697752
783.324818	-44.547729
783.529546	-44.834005
783.734381	-44.531218
783.939322	-44.488170
784.144372	-44.831547
784.349528	-44.441066
784.554792	-44.344094
784.760163	-44.685453
784.965642	-44.368270
785.171228	-44.342485
785.376922	-44.608927
785.582724	-44.185893
785.788634	-44.198116
785.994651	-44.542541
786.200777	-44.159136
786.407011	-44.140399
786.613353	-44.363514
786.819804	-43.996157
787.026363	-44.101776
787.233030	-44.339031
787.439806	-43.909660
787.646691	-43.961274
787.853684	-44.164502
788.060786	-43.842515
788.267997	-43.960391
788.475317	-44.043556
788.682746	-43.682015
788.890285	-43.851130
789.097932	-43.958005
789.305689	-43.650471
789.513555	-43.781971
789.721531	-43.773279
789.929617	-43.534080
790.137812	-43.737485
790.346117	-43.697961
790.554531	-43.454638
790.763056	-43.589829
790.971691	-43.530664
791.180436	-43.423928
791.389291	-43.558243
791.598256	-43.401386
791.807332	-43.287871
792.016518	-43.414099
792.225815	-43.340932
792.435222	-43.292211
792.644740	-43.273404
792.854369	-43.144743
793.064109	-43.196966
793.273960	-43.223858
793.483922	-43.096594
793.693995	-43.060857
793.904180	-43.018952
794.114475	-43.025757
794.324882	-43.053544
794.535401	-42.922209
794.746031	-42.860738
794.956774	-42.887316
795.167627	-42.859847
795.378593	-42.840384
795.589671	-42.748715
795.800861	-42.679481
796.012162	-42.718673
796.223577	-42.691405
796.435103	-42.632957
796.646742	-42.563335
796.858493	-42.528732
797.070357	-42.562490
797.282334	-42.488923
797.494423	-42.438593
797.706626	-42.414842
797.918941	-42.318014
798.131369	-42.388516
798.343911	-42.341234
798.556566	-42.176002
798.769334	-42.282708
798.982215	-42.195263
799.195210	-42.097585
799.408319	-42.248071
799.621541	-42.015595
799.834877	-41.972050
800.048327	-42.165719
800.261890	-41.881708
800.475568	-41.938660
800.689360	-42.016968
800.903266	-41.683803
801.117287	-41.933195
801.331422	-41.907544
801.545671	-41.550273
801.760036	-41.867282
801.974514	-41.693038
802.189108	-41.507233
802.403816	-41.862367
802.618640	-41.431760
802.833578	-41.424365
803.048632	-41.794165
803.263800	-41.273444
803.479085	-41.436441
803.694484	-41.574365
803.909999	-41.092123
804.125630	-41.531819
804.341376	-41.369166
804.557239	-40.941801
804.773217	-41.498802
804.989311	-41.128635
805.205521	-40.970515
805.421847	-41.421004
805.638290	-40.805745
805.854849	-41.028275
806.071524	-41.315447
806.288316	-40.612110
806.505225	-41.067809
806.722250	-41.013603
806.939393	-40.540291
807.156652	-41.167399
807.374028	-40.652303
807.591521	-40.499201
807.809132	-41.130336
808.026859	-40.390624
808.244705	-40.612853
808.462667	-40.878290
808.680748	-40.162188
808.898946	-40.794131
809.117261	-40.562098
809.335695	-40.054804
809.554246	-40.824630
809.772916	-40.199622
809.991704	-40.169355
810.210610	-40.716348
810.429634	-39.852866
810.648777	-40.338872
810.868039	-40.451775
811.087419	-39.706391
811.306918	-40.466253
811.526535	-40.017657
811.746272	-39.749978
811.966127	-40.490996
812.186102	-39.626427
812.406196	-39.890793
812.626409	-40.250883
812.846742	-39.429870
813.067194	-40.100874
813.287766	-39.819705
813.508457	-39.393433
813.729269	-40.181494
813.950200	-39.434087
814.171251	-39.525068
814.392422	-39.963170
814.613714	-39.186949
814.835126	-39.753374
815.056658	-39.583517
815.278311	-39.114108
815.500084	-39.820297
815.721978	-39.219176
815.943993	-39.245579
816.166128	-39.622979
816.388385	-38.958289
816.610762	-39.429164
816.833261	-39.293734
817.055881	-38.898926
817.278623	-39.442087
817.501486	-38.965379
817.724471	-39.022901
817.947577	-39.251121
818.170805	-38.749860
818.394155	-39.128525
818.617627	-38.956988
818.841221	-38.728134
819.064937	-39.065344
819.288775	-38.687863
819.512736	-38.819535
819.736819	-38.859381
819.961025	-38.557978
820.185354	-38.829956
820.409805	-38.608262
820.634379	-38.575526
820.859076	-38.683966
821.083897	-38.426133
821.308840	-38.601382
821.533907	-38.463677
821.759097	-38.387772
821.984411	-38.500909
822.209848	-38.283782
822.435409	-38.410901
822.661093	-38.287851
822.886902	-38.211629
823.112834	-38.332620
823.338891	-38.092294
823.565072	-38.231873
823.791377	-38.119704
824.017807	-38.016142
824.244361	-38.197901
824.471039	-37.893185
824.697843	-38.047605
824.924771	-37.991178
825.151824	-37.785566
825.379002	-38.054696
825.606306	-37.710422
825.833734	-37.830542
826.061288	-37.893961
826.288967	-37.551177
826.516772	-37.899370
826.744703	-37.584688
826.972759	-37.584378
827.200941	-37.795459
827.429249	-37.335857
827.657683	-37.701503
827.886243	-37.491561
828.114930	-37.320977
828.343743	-37.682323
828.572682	-37.185244
828.801748	-37.472115
829.030941	-37.411455
829.260260	-37.080871
829.489706	-37.530713
829.719280	-37.064393
829.948980	-37.208566
830.178808	-37.322864
830.408763	-36.896305
830.638845	-37.341281
830.869055	-36.970805
831.099393	-36.968166
831.329858	-37.209446
831.560451	-36.743184
831.791173	-37.106336
832.022022	-36.877021
832.252999	-36.762509
832.484105	-37.056230
832.715339	-36.625459
832.946702	-36.882526
833.178193	-36.781420
833.409813	-36.589001
833.641561	-36.858391
833.873439	-36.520683
834.105445	-36.667290
834.337581	-36.652646
834.569846	-36.444828
834.802241	-36.655462
835.034764	-36.434520
835.267418	-36.471529
835.500201	-36.498151
835.733114	-36.323404
835.966157	-36.439346
836.199329	-36.330693
836.432632	-36.285642
836.666065	-36.331715
836.899629	-36.225188
837.133323	-36.225719
837.367147	-36.224043
837.601102	-36.118160
837.835188	-36.153217
838.069405	-36.117471
838.303752	-36.006726
838.538231	-36.112509
838.772841	-35.958460
839.007582	-35.973945
839.242455	-36.014632
839.477459	-35.803105
839.712595	-35.997972
839.947863	-35.790836
840.183263	-35.792733
840.418794	-35.902035
840.654458	-35.605571
840.890254	-35.879188
841.126182	-35.625638
841.362242	-35.634929
841.598435	-35.779034
841.834761	-35.415354
842.071220	-35.753760
842.307811	-35.453578
842.544536	-35.484971
842.781393	-35.631179
843.018384	-35.248394
843.255508	-35.631704
843.492765	-35.276292
843.730156	-35.352238
843.967681	-35.464972
844.205339	-35.094424
844.443132	-35.486114
844.681058	-35.096221
844.919118	-35.234139
845.157313	-35.278280
845.395642	-34.963229
845.634105	-35.329446
845.872703	-34.926103
846.111436	-35.113529
846.350303	-35.072783
846.589306	-34.845950
846.828443	-35.148251
847.067716	-34.769997
847.307124	-34.985458
847.546667	-34.874358
847.786345	-34.743778
848.026160	-34.946158
848.266110	-34.632979
848.506195	-34.833972
848.746417	-34.686566
848.986775	-34.632246
849.227269	-34.739973
849.467899	-34.522705
849.708666	-34.659580
849.949569	-34.530210
850.190609	-34.502916
850.431785	-34.545459
850.673099	-34.406690
850.914549	-34.465076
851.156137	-34.407077
851.397861	-34.341498
851.639723	-34.390648
851.881723	-34.279418
852.123860	-34.285782
852.366135	-34.289264
852.608547	-34.149574
852.851098	-34.275882
853.093786	-34.105189
853.336613	-34.146344
853.579578	-34.158274
853.822681	-33.975295
854.065923	-34.181791
854.309304	-33.895235
854.552823	-34.063761
854.796481	-33.962723
855.040278	-33.845942
855.284215	-34.061297
855.528290	-33.700191
855.772505	-34.017498
856.016859	-33.720899
856.261353	-33.798033
856.505987	-33.858940
856.750760	-33.564744
856.995673	-33.927430
857.240727	-33.490523
857.485920	-33.798359
857.731254	-33.589388
857.976729	-33.538298
858.222343	-33.736255
858.468099	-33.340784
858.713995	-33.740202
858.960032	-33.330620
859.206211	-33.562362
859.452530	-33.453546
859.698991	-33.321408
859.945593	-33.561364
860.192336	-33.177135
860.439222	-33.513098
860.686248	-33.193333
860.933417	-33.338466
861.180728	-33.283180
861.428181	-33.157412
861.675776	-33.328900
861.923514	-33.060102
862.171394	-33.259323
862.419417	-33.059290
862.667582	-33.132427
862.915890	-33.077843
863.164342	-33.029275
863.412936	-33.055683
863.661674	-32.971503
863.910555	-32.983792
864.159579	-32.933761
864.408747	-32.922247
864.658059	-32.864566
864.907515	-32.905207
865.157114	-32.768907
865.406858	-32.894007
865.656746	-32.689170
865.906778	-32.829409
866.156955	-32.678534
866.407277	-32.682920
866.657743	-32.741676
866.908354	-32.510846
867.159110	-32.794001
867.410011	-32.395239
867.661057	-32.742988
867.912249	-32.395070
868.163586	-32.559352
868.415069	-32.504625
868.666697	-32.325340
868.918472	-32.621450
869.170392	-32.153852
869.422458	-32.629581
869.674671	-32.111957
869.927030	-32.477467
870.179536	-32.203510
870.432188	-32.232229
870.684987	-32.345232
870.937933	-32.016420
871.191026	-32.418664
871.444266	-31.904922
871.697653	-32.355139
871.951188	-31.921405
872.204870	-32.173398
872.458700	-32.016871
872.712677	-31.971095
872.966803	-32.097150
873.221076	-31.826338
873.475498	-32.102581
873.730068	-31.763160
873.984787	-32.020439
874.239654	-31.768931
874.494669	-31.898867
874.749834	-31.785647
875.005147	-31.798257
875.260610	-31.769052
875.516222	-31.730958
875.771983	-31.720373
876.027894	-31.688679
876.283954	-31.661774
876.540164	-31.640391
876.796524	-31.632722
877.053033	-31.554077
877.309693	-31.638752
877.566503	-31.445021
877.823464	-31.649672
878.080575	-31.348850
878.337837	-31.631808
878.595249	-31.303937
878.852813	-31.545733
879.110528	-31.330056
879.368393	-31.393936
879.626410	-31.400546
879.884579	-31.222130
880.142899	-31.473735
880.401371	-31.082891
880.659994	-31.497219
880.918770	-31.017692
881.177698	-31.428119
881.436778	-31.028440
881.696010	-31.285786
881.955395	-31.092542
882.214933	-31.117279
882.474623	-31.172070
882.734467	-30.970462
882.994463	-31.208097
883.254613	-30.881054
883.514916	-31.173515
883.775372	-30.853014
884.035982	-31.088609
884.296746	-30.870241
884.557664	-30.977111
884.818735	-30.893744
885.079961	-30.874340
885.341341	-30.886586
885.602876	-30.813655
885.864565	-30.841754
886.126409	-30.793495
886.388407	-30.765748
886.650561	-30.793771
886.912870	-30.678151
887.175334	-30.785859
887.437953	-30.611821
887.700728	-30.747258
887.963658	-30.588996
888.226745	-30.670664
888.489987	-30.599485
888.753385	-30.558874
889.016940	-30.629226
889.280651	-30.440291
889.544518	-30.657990
889.808543	-30.348028
890.072723	-30.654853
890.337061	-30.289832
890.601556	-30.601869
890.866208	-30.272083
891.131017	-30.506961
891.395984	-30.295467
891.661109	-30.388277
891.926391	-30.330310
892.191831	-30.267162
892.457429	-30.350530
892.723186	-30.165970
892.989100	-30.344683
893.255173	-30.102025
893.521405	-30.299879
893.787796	-30.073324
894.054345	-30.215160
894.321053	-30.068925
894.587921	-30.110008
894.854948	-30.076061
895.122134	-30.007662
895.389480	-30.075092
895.656986	-29.918795
895.924651	-30.047651
896.192477	-29.854847
896.460463	-29.987287
896.728609	-29.822992
896.996915	-29.901032
897.265382	-29.813495
897.534010	-29.794500
897.802799	-29.813622
898.071749	-29.682482
898.340860	-29.811528
898.610132	-29.582579
898.879566	-29.793357
899.149162	-29.505050
899.418919	-29.749237
899.688838	-29.449583
899.958919	-29.676759
900.229162	-29.419865
900.499568	-29.583093
900.770136	-29.410890
901.040867	-29.476723
901.311761	-29.408930
901.582817	-29.366758
901.854037	-29.405621
902.125420	-29.265021
902.396966	-29.394560
902.668676	-29.181174
902.940550	-29.364204
903.212587	-29.116896
903.484788	-29.313395
903.757153	-29.071514
904.029683	-29.246503
904.302377	-29.045818
904.575236	-29.165894
904.848259	-29.033720
905.121447	-29.075922
905.394800	-29.025921
905.668319	-28.988581
905.942002	-29.017002
906.215852	-28.911031
906.489866	-29.003843
906.764047	-28.841650
907.038393	-28.977950
907.312906	-28.786486
907.587584	-28.938953
907.862429	-28.750517
908.137441	-28.888942
908.412619	-28.726963
908.687964	-28.827387
908.963476	-28.710723
909.239155	-28.758233
909.515002	-28.706355
909.791015	-28.687896
910.067197	-28.707023
910.343546	-28.616122
910.620063	-28.701486
910.896748	-28.548951
911.173601	-28.695588
911.450623	-28.491957
911.727813	-28.685328
912.005171	-28.439992
912.282699	-28.661930
912.560395	-28.396669
912.838261	-28.631188
913.116296	-28.367945
913.394500	-28.594145
913.672874	-28.342919
913.951418	-28.545597
914.230131	-28.323796
914.509015	-28.491535
914.788068	-28.315598
915.067292	-28.435046
915.346687	-28.307237
915.626252	-28.372761
915.905988	-28.298164
916.185895	-28.311542
916.465973	-28.293520
916.746223	-28.252347
917.026644	-28.286533
917.307236	-28.191400
917.588000	-28.272575
917.868937	-28.136757
918.150045	-28.259282
918.431325	-28.086286
918.712778	-28.241009
918.994404	-28.036778
919.276202	-28.216510
919.558173	-27.992262
919.840317	-28.190332
920.122634	-27.953891
920.405125	-28.159929
920.687789	-27.913815
920.970627	-28.125888
921.253639	-27.876476
921.536824	-28.091497
921.820184	-27.842854
922.103718	-28.055423
922.387427	-27.807254
922.671310	-28.016642
922.955368	-27.770461
923.239601	-27.980283
923.524009	-27.736017
923.808592	-27.942799
924.093351	-27.699848
924.378285	-27.901050
924.663396	-27.663833
924.948682	-27.860395
925.234144	-27.630823
925.519782	-27.817927
925.805597	-27.596863
926.091589	-27.768954
926.377757	-27.564995
926.664102	-27.719619
926.950624	-27.537333
927.237323	-27.668360
927.524200	-27.506009
927.811255	-27.614360
928.098487	-27.472774
928.385897	-27.565417
928.673485	-27.438976
928.961251	-27.519081
929.249196	-27.396385
929.537319	-27.475474
929.825621	-27.348391
930.114102	-27.441412
930.402762	-27.296710
930.691601	-27.409774
930.980620	-27.238191
931.269818	-27.378201
931.559196	-27.181173
931.848753	-27.349352
932.138491	-27.128200
932.428409	-27.313324
932.718508	-27.076960
933.008787	-27.270005
933.299246	-27.034808
933.589887	-27.223407
933.880709	-26.998309
934.171712	-27.168214
934.462896	-26.961602
934.754262	-27.112589
935.045810	-26.926762
935.337539	-27.062315
935.629451	-26.885340
935.921545	-27.015120
936.213822	-26.833232
936.506281	-26.978985
936.798922	-26.775368
937.091747	-26.951473
937.384755	-26.708659
937.677946	-26.924395
937.971321	-26.640431
938.264879	-26.897059
938.558621	-26.581192
938.852547	-26.859366
939.146657	-26.530782
939.440952	-26.804324
939.735431	-26.496633
940.030095	-26.736172
940.324943	-26.478433
940.619977	-26.654233
940.915196	-26.465899
941.210600	-26.567762
941.506189	-26.454794
941.801965	-26.491220
942.097926	-26.433531
942.394074	-26.427431
942.690407	-26.393335
942.986927	-26.381001
943.283634	-26.341695
943.580527	-26.347584
943.877608	-26.284656
944.174875	-26.309244
944.472330	-26.236201
944.769972	-26.256964
945.067802	-26.212496
945.365820	-26.181169
945.664026	-26.211494
945.962420	-26.084063
946.261002	-26.224703
946.559773	-25.988230
946.858733	-26.233144
947.157881	-25.911734
947.457219	-26.208716
947.756746	-25.870913
948.056462	-26.145870
948.356368	-25.870283
948.656464	-26.053633
948.956749	-25.886758
949.257225	-25.955297
949.557891	-25.896388
949.858748	-25.883102
950.159796	-25.879362
950.461034	-25.841814
950.762463	-25.831644
951.064084	-25.819286
951.365896	-25.781373
951.667900	-25.791499
951.970095	-25.753185
952.272483	-25.729781
952.575063	-25.757096
952.877835	-25.642272
953.180799	-25.783744
953.483956	-25.554919
953.787307	-25.792239
954.090850	-25.496018
954.394586	-25.758248
954.698516	-25.488363
955.002640	-25.679712
955.306957	-25.513416
955.611469	-25.576920
955.916174	-25.544166
956.221074	-25.490445
956.526169	-25.555172
956.831458	-25.431184
957.136942	-25.532635
957.442622	-25.394043
957.748496	-25.499312
958.054567	-25.364272
958.360833	-25.467580
958.667294	-25.321680
958.973952	-25.441932
959.280806	-25.279155
959.587857	-25.414347
959.895104	-25.249092
960.202548	-25.359106
960.510189	-25.243123
960.818027	-25.279649
961.126062	-25.262130
961.434295	-25.187295
961.742726	-25.277591
962.051355	-25.103688
962.360182	-25.273830
962.669207	-25.052155
962.978431	-25.235044
963.287854	-25.028485
963.597475	-25.162835
963.907296	-25.030118
964.217315	-25.078241
964.527535	-25.038135
964.837954	-24.991218
965.148573	-25.035174
965.459392	-24.919070
965.770411	-25.020149
966.081630	-24.861879
966.393051	-24.986944
966.704672	-24.814106
967.016494	-24.942574
967.328517	-24.784338
967.640742	-24.878343
967.953169	-24.774636
968.265797	-24.784933
968.578627	-24.790833
968.891660	-24.681542
969.204895	-24.805679
969.518332	-24.597532
969.831972	-24.776586
970.145816	-24.568146
970.459862	-24.695090
970.774112	-24.582452
971.088565	-24.587849
971.403223	-24.594381
971.718084	-24.505532
972.033149	-24.576980
972.348419	-24.455212
972.663893	-24.536556
972.979572	-24.407727
973.295456	-24.504092
973.611546	-24.360937
973.927840	-24.460684
974.244340	-24.342956
974.561046	-24.366183
974.877958	-24.380016
975.195076	-24.245713
975.512401	-24.411369
975.829932	-24.172654
976.147670	-24.357216
976.465615	-24.194521
976.783767	-24.236209
977.102126	-24.242833
977.420693	-24.135130
977.739468	-24.236156
978.058451	-24.103101
978.377642	-24.187111
978.697041	-24.081506
979.016649	-24.147642
979.336466	-24.045073
979.656492	-24.112271
979.976727	-24.042693
980.297171	-24.017882
980.617825	-24.090952
980.938689	-23.911511
981.259763	-24.107766
981.581048	-23.891481
981.902542	-24.008141
982.224248	-23.962220
982.546164	-23.876711
982.868291	-24.012146
983.190630	-23.820142
983.513180	-23.962900
983.835942	-23.839392
984.158916	-23.883617
984.482101	-23.857107
984.805500	-23.823990
985.129110	-23.851815
985.452934	-23.772915
985.776970	-23.857570
986.101220	-23.719741
986.425683	-23.836221
986.750359	-23.715647
987.075250	-23.751823
987.400354	-23.773092
987.725673	-23.640813
988.051206	-23.800751
988.376954	-23.604469
988.702916	-23.732759
989.029094	-23.657149
989.355487	-23.607895
989.682095	-23.706667
990.008919	-23.539448
990.335959	-23.677170
990.663216	-23.547090
990.990688	-23.587117
991.318377	-23.573469
991.646283	-23.511984
991.974406	-23.576449
992.302746	-23.454505
992.631304	-23.555329
992.960079	-23.426458
993.289072	-23.490078
993.618283	-23.456679
993.947713	-23.365191
994.277361	-23.499715
994.607227	-23.296884
994.937313	-23.431132
995.267618	-23.345875
995.598142	-23.277920
995.928886	-23.395866
996.259849	-23.210757
996.591033	-23.323904
996.922437	-23.230331
997.254061	-23.215687
997.585906	-23.237137
997.917972	-23.143306
998.250260	-23.213441
998.582768	-23.079284
998.915498	-23.167738
999.248450	-23.075734
999.581624	-23.036456
999.915020	-23.124545
1000.248639	-22.925598
1000.582480	-23.071025
1000.916545	-22.958755
1001.250832	-22.901442
1001.585343	-23.004912
1001.920077	-22.822383
1002.255035	-22.923874
1002.590218	-22.836789
1002.925624	-22.804877
1003.261255	-22.837674
1003.597111	-22.723394
1003.933192	-22.806555
1004.269497	-22.672121
1004.606029	-22.716402
1004.942785	-22.702817
1005.279768	-22.575573
1005.616977	-22.706322
1005.954412	-22.540225
1006.292074	-22.574604
1006.629962	-22.597754
1006.968077	-22.449900
1007.306420	-22.558649
1007.644990	-22.445005
1007.983787	-22.447748
1008.322813	-22.452120
1008.662067	-22.358859
1009.001549	-22.430047
1009.341259	-22.310215
1009.681199	-22.353710
1010.021367	-22.328555
1010.361765	-22.227909
1010.702392	-22.337949
1011.043250	-22.196331
1011.384337	-22.218402
1011.725654	-22.245364
1012.067202	-22.117229
1012.408980	-22.207688
1012.750989	-22.117371
1013.093230	-22.105588
1013.435702	-22.130243
1013.778405	-22.033245
1014.121341	-22.102533
1014.464508	-22.009748
1014.807908	-22.012738
1015.151540	-22.046784
1015.495405	-21.918498
1015.839503	-22.010292
1016.183835	-21.942102
1016.528400	-21.887918
1016.873198	-21.969816
1017.218231	-21.846948
1017.563498	-21.886347
1017.908999	-21.879261
1018.254735	-21.804221
1018.600707	-21.862971
1018.946913	-21.777155
1019.293354	-21.800739
1019.640032	-21.795595
1019.986945	-21.710615
1020.334094	-21.790691
1020.681480	-21.704223
1021.029102	-21.688704
1021.376961	-21.742957
1021.725058	-21.627479
1022.073391	-21.680717
1022.421962	-21.660972
1022.770772	-21.589838
1023.119819	-21.649914
1023.469104	-21.572137
1023.818628	-21.581276
1024.168391	-21.585440
1024.518393	-21.504054
1024.868634	-21.569757
1025.219115	-21.501350
1025.569836	-21.467598
1025.920796	-21.529701
1026.271997	-21.420406
1026.623438	-21.449245
1026.975121	-21.459690
1027.327044	-21.359970
1027.679208	-21.423291
1028.031614	-21.374695
1028.384262	-21.324600
1028.737152	-21.372813
1029.090284	-21.291620
1029.443659	-21.302604
1029.797276	-21.299305
1030.151137	-21.222239
1030.505240	-21.274115
1030.859587	-21.215297
1031.214178	-21.170233
1031.569013	-21.225352
1031.924093	-21.133071
1032.279417	-21.130244
1032.634985	-21.154852
1032.990799	-21.061345
1033.346858	-21.090201
1033.703162	-21.069910
1034.059712	-21.002966
1034.416509	-21.040813
1034.773551	-20.979830
1035.130841	-20.954447
1035.488377	-20.979514
1035.846160	-20.893960
1036.204190	-20.906966
1036.562468	-20.907257
1036.920994	-20.819927
1037.279768	-20.854161
1037.638790	-20.825390
1037.998061	-20.759500
1038.357581	-20.796176
1038.717350	-20.737707
1039.077368	-20.706459
1039.437636	-20.735013
1039.798154	-20.652395
1040.158922	-20.652357
1040.519940	-20.669669
1040.881209	-20.578228
1041.242729	-20.594903
1041.604501	-20.596463
1041.966524	-20.516602
1042.328798	-20.538458
1042.691325	-20.515751
1043.054103	-20.460659
1043.417135	-20.486044
1043.780419	-20.435562
1044.143956	-20.403365
1044.507746	-20.433403
1044.871791	-20.364671
1045.236088	-20.345653
1045.600641	-20.373785
1045.965447	-20.302485
1046.330508	-20.293406
1046.695824	-20.308158
1047.061395	-20.242600
1047.427222	-20.246897
1047.793304	-20.243368
1048.159642	-20.182230
1048.526237	-20.200668
1048.893088	-20.183540
1049.260196	-20.124526
1049.627561	-20.150796
1049.995183	-20.126126
1050.363063	-20.072927
1050.731201	-20.099389
1051.099597	-20.067535
1051.468251	-20.025250
1051.837164	-20.050934
1052.206336	-20.008502
1052.575767	-19.975947
1052.945458	-20.004991
1053.315409	-19.953962
1053.685619	-19.924359
1054.056090	-19.957033
1054.426821	-19.904067
1054.797814	-19.874387
1055.169067	-19.905554
1055.540582	-19.854874
1055.912359	-19.826499
1056.284398	-19.853992
1056.656698	-19.804720
1057.029262	-19.777921
1057.402088	-19.802117
1057.775177	-19.755015
1058.148530	-19.728987
1058.522146	-19.748344
1058.896027	-19.703740
1059.270171	-19.680182
1059.644580	-19.695157
1060.019254	-19.650069
1060.394193	-19.628384
1060.769397	-19.642634
1061.144867	-19.596334
1061.520602	-19.573711
1061.896604	-19.588933
1062.272872	-19.542854
1062.649407	-19.516398
1063.026210	-19.533923
1063.403279	-19.491100
1063.780616	-19.457416
1064.158221	-19.474519
1064.536094	-19.440088
1064.914235	-19.401651
1065.292645	-19.413164
1065.671325	-19.385460
1066.050273	-19.346810
1066.429491	-19.354117
1066.808979	-19.330219
1067.188738	-19.289944
1067.568766	-19.294200
1067.949066	-19.276985
1068.329636	-19.236178
1068.710478	-19.233353
1069.091592	-19.219768
1069.472977	-19.183552
1069.854635	-19.178065
1070.236565	-19.163642
1070.618768	-19.126167
1071.001243	-19.121145
1071.383993	-19.112788
1071.767016	-19.072808
1072.150313	-19.060764
1072.533884	-19.058445
1072.917730	-19.022952
1073.301850	-19.004403
1073.686246	-19.002522
1074.070917	-18.970370
1074.455864	-18.948449
1074.841087	-18.949412
1075.226586	-18.920074
1075.612362	-18.890202
1075.998415	-18.892688
1076.384745	-18.872975
1076.771353	-18.836335
1077.158238	-18.832689
1077.545401	-18.822536
1077.932843	-18.785782
1078.320564	-18.774444
1078.708564	-18.770473
1079.096842	-18.735849
1079.485401	-18.715574
1079.874240	-18.716895
1080.263358	-18.689660
1080.652757	-18.659049
1081.042438	-18.658011
1081.432399	-18.642395
1081.822641	-18.608098
1082.213166	-18.598905
1082.603972	-18.591639
1082.995061	-18.559807
1083.386433	-18.541240
1083.778087	-18.537241
1084.170025	-18.511765
1084.562246	-18.486700
1084.954751	-18.481769
1085.347541	-18.462779
1085.740615	-18.432404
1086.133973	-18.423635
1086.527617	-18.413450
1086.921546	-18.381496
1087.315761	-18.363302
1087.710262	-18.359477
1088.105050	-18.332930
1088.500124	-18.303422
1088.895485	-18.298483
1089.291134	-18.284737
1089.687070	-18.249740
1090.083294	-18.232543
1090.479806	-18.226488
1090.876607	-18.198576
1091.273696	-18.171572
1091.671075	-18.163805
1092.068744	-18.143218
1092.466702	-18.110202
1092.864950	-18.096961
1093.263489	-18.085702
1093.662319	-18.053503
1094.061440	-18.028962
1094.460852	-18.020334
1094.860555	-17.996164
1095.260551	-17.963603
1095.660840	-17.950410
1096.061421	-17.937490
1096.462295	-17.905049
1096.863462	-17.878232
1097.264923	-17.868044
1097.666678	-17.847426
1098.068727	-17.815587
1098.471071	-17.798174
1098.873710	-17.784508
1099.276644	-17.753620
1099.679874	-17.727935
1100.083400	-17.720106
1100.487222	-17.697902
1100.891340	-17.662295
1101.295756	-17.648354
1101.700468	-17.638920
1102.105478	-17.605586
1102.510787	-17.579547
1102.916393	-17.574609
1103.322298	-17.552326
1103.728502	-17.516346
1104.135005	-17.503920
1104.541807	-17.497216
1104.948909	-17.465660
1105.356312	-17.436037
1105.764015	-17.429703
1106.172019	-17.415630
1106.580324	-17.381515
1106.988931	-17.361291
1107.397840	-17.357036
1107.807051	-17.332559
1108.216564	-17.298251
1108.626380	-17.289820
1109.036500	-17.283520
1109.446923	-17.248824
1109.857649	-17.220714
1110.268680	-17.219070
1110.680016	-17.202882
1111.091657	-17.166458
1111.503602	-17.150168
1111.915854	-17.146259
1112.328411	-17.118741
1112.741275	-17.086448
1113.154445	-17.078534
1113.567922	-17.069988
1113.981706	-17.037712
1114.395798	-17.009837
1114.810198	-17.003683
1115.224906	-16.989389
1115.639923	-16.956639
1116.055249	-16.936689
1116.470884	-16.930442
1116.886829	-16.906253
1117.303084	-16.874980
1117.719650	-16.864757
1118.136526	-16.854880
1118.553713	-16.825230
1118.971212	-16.800002
1119.389022	-16.790283
1119.807145	-16.774986
1120.225580	-16.749106
1120.644328	-16.728726
1121.063389	-16.716599
1121.482763	-16.698012
1121.902452	-16.673289
1122.322454	-16.658916
1122.742771	-16.646919
1123.163404	-16.623036
1123.584351	-16.603010
1124.005614	-16.592257
1124.427193	-16.574165
1124.849089	-16.553421
1125.271301	-16.540299
1125.693830	-16.525645
1126.116677	-16.505455
1126.539842	-16.487503
1126.963324	-16.476741
1127.387126	-16.465202
1127.811246	-16.442622
1128.235685	-16.422502
1128.660444	-16.415899
1129.085522	-16.404637
1129.510922	-16.383172
1129.936641	-16.365816
1130.362682	-16.353882
1130.789044	-16.342814
1131.215728	-16.328562
1131.642734	-16.309311
1132.070063	-16.294224
1132.497714	-16.284392
1132.925689	-16.270784
1133.353987	-16.253889
1133.782610	-16.237046
1134.211556	-16.223728
1134.640827	-16.214483
1135.070424	-16.198348
1135.500345	-16.176911
1135.930593	-16.164410
1136.361166	-16.155692
1136.792067	-16.139972
1137.223294	-16.119832
1137.654848	-16.101815
1138.086730	-16.092060
1138.518940	-16.082034
1138.951479	-16.059986
1139.384346	-16.038939
1139.817543	-16.027721
1140.251069	-16.016416
1140.684925	-15.999809
1141.119111	-15.977291
1141.553628	-15.958916
1141.988475	-15.950473
1142.423655	-15.935319
1142.859166	-15.912433
1143.295009	-15.894120
1143.731185	-15.879858
1144.167694	-15.867576
1144.604536	-15.848979
1145.041711	-15.825547
1145.479221	-15.811533
1145.917065	-15.799041
1146.355245	-15.780498
1146.793759	-15.761059
1147.232609	-15.742049
1147.671795	-15.728853
1148.111317	-15.715030
1148.551177	-15.693501
1148.991373	-15.675501
1149.431907	-15.661251
1149.872779	-15.646077
1150.313989	-15.629972
1150.755538	-15.610055
1151.197426	-15.593806
1151.639653	-15.581638
1152.082220	-15.564674
1152.525128	-15.547324
1152.968376	-15.531151
1153.411966	-15.515852
1153.855897	-15.503187
1154.300169	-15.486313
1154.744784	-15.469054
1155.189742	-15.456002
1155.635042	-15.441157
1156.080687	-15.427069
1156.526674	-15.411823
1156.973007	-15.395408
1157.419683	-15.383660
1157.866705	-15.369322
1158.314072	-15.354157
1158.761786	-15.340868
1159.209845	-15.325476
1159.658251	-15.313609
1160.107004	-15.300017
1160.556104	-15.284418
1161.005553	-15.272486
1161.455349	-15.258051
1161.905494	-15.245317
1162.355989	-15.232513
1162.806832	-15.217063
1163.258026	-15.205552
1163.709570	-15.191889
1164.161464	-15.178256
1164.613710	-15.166004
1165.066307	-15.150907
1165.519256	-15.139018
1165.972558	-15.125911
1166.426212	-15.111452
1166.880219	-15.099348
1167.334580	-15.084631
1167.789295	-15.071869
1168.244364	-15.059025
1168.699788	-15.043794
1169.155567	-15.031535
1169.611702	-15.017028
1170.068193	-15.003035
1170.525041	-14.990156
1170.982245	-14.974228
1171.439807	-14.961472
1171.897726	-14.946794
1172.356004	-14.931677
1172.814640	-14.918607
1173.273635	-14.901900
1173.732989	-14.888523
1174.192703	-14.873381
1174.652778	-14.857255
1175.113213	-14.843770
1175.574009	-14.826369
1176.035167	-14.812355
1176.496687	-14.796475
1176.958569	-14.779681
1177.420814	-14.765735
1177.883422	-14.747811
1178.346394	-14.733152
1178.809730	-14.716557
1179.273430	-14.699407
1179.737496	-14.684819
1180.201927	-14.666586
1180.666723	-14.651480
1181.131886	-14.634413
1181.597416	-14.617090
1182.063312	-14.602005
1182.529576	-14.583645
1182.996209	-14.568224
1183.463209	-14.550929
1183.930579	-14.533680
1184.398317	-14.518359
1184.866426	-14.499961
1185.334904	-14.484640
1185.803754	-14.467211
1186.272974	-14.450315
1186.742566	-14.434920
1187.212529	-14.416654
1187.682865	-14.401722
1188.153574	-14.384072
1188.624656	-14.367982
1189.096112	-14.352400
1189.567942	-14.334672
1190.040147	-14.320097
1190.512726	-14.302386
1190.985681	-14.287319
1191.459012	-14.271236
1191.932720	-14.254592
1192.406804	-14.239967
1192.881265	-14.222636
1193.356104	-14.208230
1193.831322	-14.191854
1194.306918	-14.176240
1194.782893	-14.161210
1195.259248	-14.144688
1195.735982	-14.130434
1196.213097	-14.114131
1196.690593	-14.099052
1197.168471	-14.083761
1197.646730	-14.067689
1198.125371	-14.053481
1198.604395	-14.037194
1199.083803	-14.022554
1199.563594	-14.006875
1200.043769	-13.991078
1200.524329	-13.976868
1201.005273	-13.960257
1201.486604	-13.946348
1201.968320	-13.929543
1202.450422	-13.914775
1202.932912	-13.899400
1203.415789	-13.883357
1203.899054	-13.869300
1204.382707	-13.851837
1204.866748	-13.838098
1205.351179	-13.820770
1205.836000	-13.806549
1206.321211	-13.790448
1206.806812	-13.774475
1207.292805	-13.759575
1207.779189	-13.742263
1208.265965	-13.728506
1208.753134	-13.710940
1209.240696	-13.696857
1209.728651	-13.679620
1210.217000	-13.664415
1210.705744	-13.648560
1211.194883	-13.632421
1211.684417	-13.617564
1212.174347	-13.600449
1212.664673	-13.585739
1213.155396	-13.568758
1213.646516	-13.554018
1214.138034	-13.537774
1214.629951	-13.522283
1215.122266	-13.506463
1215.614980	-13.490425
1216.108095	-13.475155
1216.601609	-13.459313
1217.095524	-13.444033
1217.589841	-13.428371
1218.084559	-13.412584
1218.579679	-13.397422
1219.075202	-13.381540
1219.571128	-13.366820
1220.067458	-13.350913
1220.564191	-13.335993
1221.061330	-13.320440
1221.558874	-13.305229
1222.056823	-13.290463
1222.555178	-13.274740
1223.053940	-13.260514
1223.553109	-13.244326
1224.052686	-13.230578
1224.552671	-13.214486
1225.053065	-13.200872
1225.553867	-13.185044
1226.055079	-13.171045
1226.556702	-13.155796
1227.058735	-13.141451
1227.561179	-13.127042
1228.064035	-13.112299
1228.567303	-13.098435
1229.070983	-13.083374
1229.575077	-13.069935
1230.079585	-13.055017
1230.584506	-13.041831
1231.089842	-13.027223
1231.595594	-13.013961
1232.101761	-12.999825
1232.608345	-12.986509
1233.115345	-12.973006
1233.622762	-12.959671
1234.130597	-12.946676
1234.638851	-12.933395
1235.147523	-12.920864
1235.656615	-12.907901
1236.166126	-12.895687
1236.676058	-12.883087
1237.186411	-12.871013
1237.697185	-12.858968
1238.208381	-12.847155
1238.719999	-12.835795
1239.232040	-12.824131
1239.744505	-12.813257
1240.257394	-12.801739
1240.770708	-12.791428
1241.284446	-12.780343
1241.798610	-12.770581
1242.313201	-12.759876
1242.828218	-12.750373
1243.343662	-12.740065
1243.859534	-12.730905
1244.375834	-12.721230
1244.892563	-12.712387
1245.409721	-12.703196
1245.927309	-12.694485
1246.445327	-12.685758
1246.963777	-12.677330
1247.482657	-12.669153
1248.001970	-12.660995
1248.521716	-12.653149
1249.041894	-12.645139
1249.562506	-12.637560
1250.083553	-12.629860
1250.605034	-12.622600
1251.126950	-12.615197
1251.649302	-12.608062
1252.172091	-12.600844
1252.695316	-12.593815
1253.218979	-12.586908
1253.743079	-12.580046
1254.267619	-12.573398
1254.792597	-12.566555
1255.318015	-12.560044
1255.843874	-12.553237
1256.370173	-12.546953
1256.896913	-12.540254
1257.424095	-12.534128
1257.951720	-12.527419
1258.479787	-12.521349
1259.008298	-12.514672
1259.537254	-12.508743
1260.066654	-12.502179
1260.596499	-12.496346
1261.126790	-12.489800
1261.657527	-12.483969
1262.188711	-12.477475
1262.720342	-12.471763
1263.252422	-12.465416
1263.784950	-12.459814
1264.317928	-12.453521
1264.851355	-12.447932
1265.385232	-12.441683
1265.919560	-12.436192
1266.454340	-12.430079
1266.989572	-12.424710
1267.525256	-12.418652
1268.061394	-12.413306
1268.597985	-12.407260
1269.135031	-12.401977
1269.672531	-12.395994
1270.210487	-12.390793
1270.748899	-12.384825
1271.287768	-12.379642
1271.827094	-12.373645
1272.366877	-12.368483
1272.907119	-12.362467
1273.447820	-12.357318
1273.988981	-12.351243
1274.530601	-12.346058
1275.072683	-12.339888
1275.615226	-12.334659
1276.158230	-12.328389
1276.701697	-12.323094
1277.245627	-12.316677
1277.790021	-12.311266
1278.334879	-12.304690
1278.880202	-12.299164
1279.425991	-12.292436
1279.972245	-12.286759
1280.518966	-12.279838
1281.066155	-12.273962
1281.613811	-12.266866
1282.161936	-12.260810
1282.710529	-12.253593
1283.259593	-12.247347
1283.809126	-12.240001
1284.359131	-12.233512
1284.909607	-12.226075
1285.460555	-12.219360
1286.011976	-12.211919
1286.563870	-12.204982
1287.116237	-12.197568
1287.669080	-12.190354
1288.222397	-12.183032
1288.776191	-12.175552
1289.330460	-12.168436
1289.885207	-12.160665
1290.440431	-12.153781
1290.996133	-12.145663
1291.552314	-12.139030
1292.108975	-12.130622
1292.666115	-12.124283
1293.223737	-12.115685
1293.781839	-12.109544
1294.340424	-12.100824
1294.899491	-12.094719
1295.459041	-12.086050
1296.019075	-12.079861
1296.579593	-12.071448
1297.140597	-12.065008
1297.702086	-12.056950
1298.264061	-12.050088
1298.826524	-12.042465
1299.389474	-12.035166
1299.952912	-12.028004
1300.516839	-12.020295
1301.081255	-12.013499
1301.646162	-12.005437
1302.211559	-11.998898
1302.777448	-11.990627
1303.343829	-11.984247
1303.910702	-11.975900
1304.478069	-11.969533
1305.045930	-11.961216
1305.614285	-11.954747
1306.183136	-11.946621
1306.752483	-11.939975
1307.322326	-11.932173
1307.892666	-11.925202
1308.463504	-11.917826
1309.034841	-11.910430
1309.606677	-11.903602
1310.179012	-11.895808
1310.751849	-11.889554
1311.325186	-11.881474
1311.899025	-11.875598
1312.473366	-11.867492
1313.048211	-11.861684
1313.623559	-11.853973
1314.199412	-11.847896
1314.775770	-11.840935
1315.352634	-11.834320
1315.930004	-11.828223
1316.507881	-11.821077
1317.086266	-11.815693
1317.665159	-11.808350
1318.244562	-11.803294
1318.824474	-11.796203
1319.404897	-11.790998
1319.985831	-11.784533
1320.567276	-11.778875
1321.149234	-11.773201
1321.731706	-11.767086
1322.314691	-11.762075
1322.898190	-11.755740
1323.482205	-11.751048
1324.066736	-11.744854
1324.651783	-11.740114
1325.237347	-11.734364
1325.823430	-11.729343
1326.410031	-11.724136
1326.997151	-11.718827
1327.584791	-11.714077
1328.172952	-11.708648
1328.761634	-11.704172
1329.350839	-11.698819
1329.940566	-11.694442
1330.530817	-11.689316
1331.121592	-11.684914
1331.712891	-11.680123
1332.304716	-11.675618
1332.897068	-11.671249
1333.489946	-11.666589
1334.083352	-11.662663
1334.677287	-11.657895
1335.271750	-11.654259
1335.866744	-11.649633
1336.462268	-11.645936
1337.058323	-11.641826
1337.654910	-11.637742
1338.252029	-11.634321
1338.849682	-11.629903
1339.447869	-11.626863
1340.046591	-11.622608
1340.645848	-11.619330
1341.245641	-11.615745
1341.845972	-11.611915
1342.446840	-11.608977
1343.048246	-11.604931
1343.650191	-11.602078
1344.252677	-11.598425
1344.855702	-11.595153
1345.459269	-11.592109
1346.063379	-11.588510
1346.668030	-11.585733
1347.273226	-11.582291
1347.878965	-11.579352
1348.485250	-11.576310
1349.092080	-11.573177
1349.699456	-11.570359
1350.307380	-11.567300
1350.915851	-11.564491
1351.524871	-11.561620
1352.134441	-11.558842
1352.744560	-11.556060
1353.355231	-11.553411
1353.966453	-11.550698
1354.578227	-11.548120
1355.190555	-11.545592
1355.803436	-11.542981
1356.416872	-11.540660
1357.030863	-11.538082
1357.645411	-11.535821
1358.260515	-11.533448
1358.876177	-11.531108
1359.492397	-11.529017
1360.109176	-11.526625
1360.726516	-11.524695
1361.344416	-11.522475
1361.962877	-11.520463
1362.581901	-11.518618
1363.201487	-11.516463
1363.821637	-11.514853
1364.442352	-11.512861
1365.063632	-11.511150
1365.685478	-11.509601
1366.307891	-11.507778
1366.930871	-11.506482
1367.554420	-11.504871
1368.178538	-11.503498
1368.803226	-11.502262
1369.428485	-11.500846
1370.054315	-11.499810
1370.680717	-11.498593
1371.307693	-11.497558
1371.935242	-11.496611
1372.563366	-11.495602
1373.192065	-11.494829
1373.821341	-11.493971
1374.451193	-11.493292
1375.081623	-11.492643
1375.712632	-11.492040
1376.344221	-11.491595
1376.976389	-11.491096
1377.609139	-11.490811
1378.242470	-11.490501
1378.876384	-11.490291
1379.510881	-11.490225
1380.145963	-11.490085
1380.781629	-11.490170
1381.417881	-11.490217
1382.054720	-11.490327
1382.692147	-11.490610
1383.330161	-11.490783
1383.968765	-11.491166
1384.607959	-11.491548
1385.247743	-11.491961
1385.888119	-11.492551
1386.529087	-11.493078
1387.170648	-11.493792
1387.812804	-11.494518
1388.455554	-11.495305
1389.098899	-11.496273
1389.742842	-11.497147
1390.387381	-11.498270
1391.032519	-11.499402
1391.678256	-11.500502
1392.324592	-11.501902
1392.971529	-11.503128
1393.619068	-11.504507
1394.267208	-11.506025
1394.915952	-11.507370
1395.565300	-11.508958
1396.215253	-11.510492
1396.865812	-11.512022
1397.516977	-11.513709
1398.168749	-11.515287
1398.821130	-11.517015
1399.474120	-11.518731
1400.127719	-11.520481
1400.781930	-11.522371
1401.436752	-11.524164
1402.092186	-11.526171
1402.748234	-11.528155
1403.404897	-11.530136
1404.062174	-11.532384
1404.720067	-11.534451
1405.378577	-11.536709
1406.037705	-11.539087
1406.697451	-11.541278
1407.357817	-11.543769
1408.018803	-11.546151
1408.680410	-11.548494
1409.342639	-11.551090
1410.005492	-11.553462
1410.668968	-11.556004
1411.333068	-11.558632
1411.997795	-11.561115
1412.663147	-11.563901
1413.329127	-11.566619
1413.995736	-11.569409
1414.662973	-11.572492
1415.330840	-11.575469
1415.999339	-11.578739
1416.668469	-11.582196
1417.338232	-11.585627
1418.008628	-11.589453
1418.679659	-11.593323
1419.351325	-11.597295
1420.023628	-11.601599
1420.696568	-11.605846
1421.370145	-11.610308
1422.044362	-11.614946
1422.719219	-11.619511
1423.394717	-11.624336
1424.070856	-11.629189
1424.747638	-11.634034
1425.425064	-11.639134
1426.103134	-11.644214
1426.781850	-11.649437
1427.461212	-11.654934
1428.141221	-11.660504
1428.821878	-11.666416
1429.503185	-11.672666
1430.185141	-11.679168
1430.867749	-11.686189
1431.551008	-11.693651
1432.234920	-11.701553
1432.919486	-11.710105
1433.604707	-11.719162
1434.290583	-11.728769
1434.977116	-11.739026
1435.664307	-11.749776
1436.352156	-11.761009
1437.040664	-11.772763
1437.729833	-11.784861
1438.419663	-11.797239
1439.110156	-11.809905
1439.801312	-11.822683
1440.493132	-11.835465
1441.185617	-11.848275
1441.878768	-11.860955
1442.572586	-11.873395
1443.267072	-11.885680
1443.962228	-11.897683
1444.658053	-11.909369
1445.354549	-11.920896
1446.051717	-11.932182
1446.749558	-11.943273
1447.448073	-11.954392
1448.147263	-11.965496
1448.847128	-11.976718
1449.547671	-11.988271
1450.248891	-12.000129
1450.950789	-12.012467
1451.653368	-12.025442
1452.356627	-12.038987
1453.060568	-12.053279
1453.765192	-12.068317
1454.470500	-12.083967
1455.176492	-12.100348
1455.883170	-12.117285
1456.590534	-12.134518
1457.298586	-12.152106
1458.007327	-12.169681
1458.716758	-12.186868
1459.426880	-12.203652
1460.137693	-12.219547
1460.849199	-12.234062
1461.561398	-12.247171
1462.274293	-12.258346
1462.987883	-12.267078
1463.702170	-12.273360
1464.417155	-12.276767
1465.132838	-12.276833
1465.849222	-12.273659
1466.566306	-12.266983
1467.284093	-12.256512
1468.002582	-12.242459
1468.721775	-12.224800
1469.441674	-12.203430
1470.162278	-12.178680
1470.883590	-12.150724
1471.605609	-12.119644
1472.328338	-12.085875
1473.051777	-12.049698
1473.775928	-12.011304
1474.500790	-11.971178
1475.226367	-11.929650
1475.952657	-11.886911
1476.679663	-11.843428
1477.407386	-11.799557
1478.135826	-11.755377
1478.864985	-11.711221
1479.594863	-11.667433
1480.325463	-11.623966
1481.056784	-11.580915
1481.788828	-11.538518
1482.521597	-11.496639
1483.255090	-11.455043
1483.989309	-11.413785
1484.724256	-11.372624
1485.459931	-11.331044
1486.196336	-11.288837
1486.933471	-11.245685
1487.671337	-11.200876
1488.409937	-11.153916
1489.149270	-11.104457
1489.889337	-11.051714
1490.630141	-10.995044
1491.371682	-10.934139
1492.113961	-10.868396
1492.856979	-10.797224
1493.600738	-10.720553
1494.345238	-10.638202
1495.090481	-10.549917
1495.836467	-10.455971
1496.583198	-10.356725
1497.330675	-10.252360
1498.078899	-10.143434
1498.827872	-10.030696
1499.577593	-9.914582
1500.328065	-9.795706
1501.079289	-9.674881
1501.831265	-9.552582
1502.583995	-9.429241
1503.337480	-9.305533
1504.091721	-9.181893
1504.846719	-9.058607
1505.602475	-8.936274
1506.358991	-8.815498
1507.116268	-8.696750
1507.874306	-8.580842
1508.633108	-8.468843
1509.392673	-8.361748
1510.153004	-8.260790
1510.914101	-8.167560
1511.675965	-8.083618
1512.438599	-8.010562
1513.202002	-7.950263
1513.966176	-7.904624
1514.731122	-7.875422
1515.496842	-7.864581
1516.263336	-7.874165
1517.030607	-7.906157
1517.798654	-7.962614
1518.567479	-8.045865
1519.337083	-8.158363
1520.107468	-8.302668
1520.878634	-8.481630
1521.650584	-8.698365
1522.423317	-8.956036
1523.196836	-9.257806
1523.971141	-9.606662
1524.746233	-10.004807
1525.522115	-10.452858
1526.298786	-10.948691
1527.076249	-11.485278
1527.854504	-12.047514
1528.633553	-12.608432
1529.413397	-13.125471
1530.194037	-13.540091
1530.975474	-13.786770
1531.757709	-13.813970
1532.540745	-13.607497
1533.324581	-13.198673
1534.109220	-12.649581
1534.894662	-12.028158
1535.680909	-11.390975
1536.467961	-10.778130
1537.255821	-10.214956
1538.044489	-9.715853
1538.833967	-9.288098
1539.624256	-8.934539
1540.415357	-8.655102
1541.207271	-8.447778
1542.000000	-8.309291
1542.793545	-8.235247
1543.587907	-8.220002
1544.383087	-8.256661
1545.179088	-8.337018
1545.975909	-8.451286
1546.773552	-8.587984
1547.572019	-8.734246
1548.371311	-8.876388
1549.171428	-9.000697
1549.972373	-9.094704
1550.774147	-9.148732
1551.576751	-9.157139
1552.380185	-9.118842
1553.184453	-9.037112
1553.989554	-8.918712
1554.795490	-8.772464
1555.602263	-8.607776
1556.409873	-8.433559
1557.218322	-8.257536
1558.027612	-8.085873
1558.837743	-7.923115
1559.648717	-7.772397
1560.460536	-7.635749
1561.273200	-7.514259
1562.086710	-7.408303
1562.901069	-7.317860
1563.716278	-7.242714
1564.532337	-7.182476
1565.349249	-7.136623
1566.167014	-7.104670
1566.985634	-7.086234
1567.805111	-7.080917
1568.625444	-7.088259
1569.446637	-7.107840
1570.268690	-7.139330
1571.091605	-7.182367
1571.915382	-7.236504
1572.740024	-7.301342
1573.565532	-7.376586
1574.391907	-7.461964
1575.219150	-7.557190
1576.047262	-7.662069
1576.876246	-7.776577
1577.706103	-7.900732
1578.536833	-8.034551
1579.368439	-8.178146
1580.200922	-8.331730
1581.034282	-8.495520
1581.868522	-8.669668
1582.703643	-8.854331
1583.539646	-9.049712
1584.376532	-9.255936
1585.214304	-9.473023
1586.052962	-9.700974
1586.892508	-9.939788
1587.732943	-10.189382
1588.574269	-10.449572
1589.416487	-10.720155
1590.259599	-11.000927
1591.103605	-11.291608
1591.948508	-11.591856
1592.794309	-11.901335
1593.641009	-12.219751
1594.488609	-12.546762
1595.337112	-12.881985
1596.186518	-13.225131
1597.036829	-13.575978
1597.888047	-13.934298
1598.740172	-14.299876
1599.593207	-14.672597
1600.447153	-15.052471
1601.302010	-15.439479
1602.157782	-15.833564
1603.014469	-16.234768
1603.872072	-16.643173
1604.730593	-17.058709
1605.590034	-17.481095
1606.450397	-17.909912
1607.311681	-18.344538
1608.173890	-18.783819
1609.037024	-19.225904
1609.901085	-19.668296
1610.766075	-20.107702
1611.631995	-20.539681
1612.498846	-20.958377
1613.366630	-21.356680
1614.235349	-21.726419
1615.105004	-22.058394
1615.975596	-22.342947
1616.847128	-22.571021
1617.719600	-22.735218
1618.593014	-22.830696
1619.467372	-22.855978
1620.342675	-22.813361
1621.218924	-22.708529
1622.096122	-22.549555
1622.974270	-22.345902
1623.853369	-22.107510
1624.733420	-21.843891
1625.614427	-21.563425
1626.496389	-21.273135
1627.379308	-20.978734
1628.263187	-20.684668
1629.148026	-20.394248
1630.033828	-20.109838
1630.920593	-19.832999
1631.808324	-19.564681
1632.697022	-19.305355
1633.586688	-19.055143
1634.477324	-18.813954
1635.368932	-18.581488
1636.261514	-18.357275
1637.155070	-18.140814
1638.049602	-17.931633
1638.945113	-17.729243
1639.841603	-17.533135
1640.739075	-17.342851
1641.637529	-17.158028
1642.536968	-16.978399
1643.437393	-16.803726
1644.338806	-16.633795
1645.241209	-16.468490
1646.144602	-16.307785
1647.048988	-16.151680
1647.954368	-16.000152
1648.860744	-15.853195
1649.768118	-15.710871
1650.676491	-15.573266
1651.585865	-15.440395
1652.496241	-15.312221
1653.407621	-15.188732
1654.320008	-15.069921
1655.233401	-14.955737
1656.147804	-14.846048
1657.063218	-14.740683
1657.979645	-14.639496
1658.897085	-14.542340
1659.815542	-14.448998
1660.735016	-14.359217
1661.655509	-14.272754
1662.577023	-14.189381
1663.499560	-14.108865
1664.423121	-14.030967
1665.347709	-13.955454
1666.273324	-13.882124
1667.199969	-13.810825
1668.127645	-13.741406
1669.056353	-13.673724
1669.986097	-13.607671
1670.916877	-13.543184
1671.848695	-13.480224
1672.781553	-13.418764
1673.715452	-13.358777
1674.650395	-13.300262
1675.586383	-13.243244
1676.523418	-13.187729
1677.461501	-13.133714
1678.400635	-13.081204
1679.340821	-13.030206
1680.282061	-12.980709
1681.224357	-12.932676
1682.167710	-12.886067
1683.112122	-12.840843
1684.057595	-12.796960
1685.004132	-12.754346
1685.951732	-12.712912
1686.900400	-12.672592
1687.850135	-12.633336
1688.800940	-12.595081
1689.752818	-12.557748
1690.705768	-12.521270
1691.659795	-12.485596
1692.614898	-12.450691
1693.571081	-12.416529
1694.528345	-12.383082
1695.486691	-12.350315
1696.446122	-12.318214
1697.406640	-12.286788
1698.368245	-12.256035
1699.330941	-12.225945
1700.294729	-12.196510
1701.259611	-12.167740
1702.225588	-12.139644
1703.192664	-12.112212
1704.160838	-12.085437
1705.130114	-12.059311
1706.100493	-12.033825
1707.071977	-12.008974
1708.044568	-11.984756
1709.018268	-11.961163
1709.993079	-11.938180
1710.969003	-11.915805
1711.946041	-11.894047
1712.924196	-11.872909
1713.903469	-11.852382
1714.883862	-11.832466
1715.865378	-11.813167
1716.848017	-11.794490
1717.831783	-11.776430
1718.816677	-11.758987
1719.802701	-11.742152
1720.789857	-11.725915
1721.778147	-11.710267
1722.767573	-11.695204
1723.758136	-11.680711
1724.749840	-11.666771
1725.742685	-11.653360
1726.736673	-11.640450
1727.731808	-11.628020
1728.728090	-11.616054
1729.725521	-11.604511
1730.724105	-11.593349
1731.723842	-11.582540
1732.724735	-11.572064
1733.726785	-11.561903
1734.729995	-11.552030
1735.734366	-11.542426
1736.739902	-11.533087
1737.746603	-11.524008
1738.754472	-11.515183
1739.763510	-11.506607
1740.773721	-11.498272
1741.785105	-11.490170
1742.797665	-11.482302
1743.811403	-11.474665
1744.826321	-11.467253
1745.842422	-11.460059
1746.859706	-11.453085
1747.878177	-11.446335
1748.897835	-11.439800
1749.918685	-11.433480
1750.940726	-11.427377
1751.963963	-11.421489
1752.988395	-11.415813
1754.014027	-11.410347
1755.040860	-11.405090
1756.068895	-11.400043
1757.098135	-11.395196
1758.128583	-11.390549
1759.160240	-11.386098
1760.193109	-11.381830
1761.227191	-11.377736
1762.262488	-11.373809
1763.299004	-11.370044
1764.336740	-11.366437
1765.375697	-11.362981
1766.415880	-11.359675
1767.457288	-11.356517
1768.499926	-11.353503
1769.543794	-11.350632
1770.588895	-11.347900
1771.635231	-11.345308
1772.682805	-11.342860
1773.731619	-11.340544
1774.781674	-11.338355
1775.832973	-11.336283
1776.885519	-11.334309
1777.939312	-11.332427
1778.994357	-11.330623
1780.050654	-11.328872
1781.108207	-11.327148
1782.167017	-11.325435
1783.227087	-11.323717
1784.288418	-11.321983
1785.351013	-11.320232
1786.414875	-11.318465
1787.480006	-11.316700
1788.546407	-11.314966
1789.614082	-11.313294
1790.683032	-11.311716
1791.753259	-11.310263
1792.824767	-11.308958
1793.897557	-11.307829
1794.971632	-11.306897
1796.046994	-11.306186
1797.123645	-11.305713
1798.201588	-11.305489
1799.280824	-11.305531
1800.361357	-11.305851
1801.443188	-11.306458
1802.526320	-11.307361
1803.610756	-11.308563
1804.696497	-11.310061
1805.783546	-11.311857
1806.871906	-11.313947
1807.961578	-11.316329
1809.052565	-11.319004
1810.144870	-11.321959
1811.238494	-11.325188
1812.333441	-11.328670
1813.429713	-11.332377
1814.527311	-11.336292
1815.626239	-11.340383
1816.726499	-11.344624
1817.828094	-11.349011
1818.931025	-11.353540
1820.035295	-11.358224
1821.140906	-11.363086
1822.247862	-11.368132
1823.356165	-11.373370
1824.465816	-11.378799
1825.576819	-11.384392
1826.689175	-11.390120
1827.802888	-11.395942
1828.917960	-11.401820
1830.034394	-11.407714
1831.152191	-11.413594
1832.271354	-11.419437
1833.391887	-11.425233
1834.513790	-11.430984
1835.637068	-11.436692
1836.761722	-11.442351
1837.887755	-11.447959
1839.015169	-11.453503
1840.143968	-11.458971
1841.274153	-11.464354
1842.405727	-11.469644
1843.538693	-11.474848
1844.673053	-11.479981
1845.808810	-11.485076
1846.945966	-11.490162
1848.084525	-11.495283
1849.224488	-11.500481
1850.365858	-11.505789
1851.508638	-11.511234
1852.652831	-11.516834
1853.798438	-11.522594
1854.945463	-11.528518
1856.093909	-11.534617
1857.243777	-11.540910
1858.395071	-11.547415
1859.547794	-11.554154
1860.701947	-11.561141
1861.857533	-11.568384
1863.014556	-11.575877
1864.173018	-11.583607
1865.332922	-11.591543
1866.494270	-11.599654
1867.657065	-11.607924
1868.821309	-11.616335
1869.987006	-11.624891
1871.154158	-11.633608
1872.322768	-11.642515
1873.492839	-11.651646
1874.664373	-11.661024
1875.837373	-11.670665
1877.011841	-11.680548
1878.187782	-11.690660
1879.365197	-11.700973
1880.544089	-11.711481
1881.724460	-11.722191
1882.906315	-11.733137
1884.089655	-11.744358
1885.274483	-11.755894
1886.460803	-11.767775
1887.648616	-11.780005
1888.837927	-11.792570
1890.028736	-11.805421
1891.221049	-11.818521
1892.414866	-11.831819
1893.610192	-11.845296
1894.807028	-11.858936
1896.005379	-11.872746
1897.205246	-11.886729
1898.406633	-11.900896
1899.609542	-11.915251
1900.813977	-11.929789
1902.019940	-11.944512
1903.227434	-11.959406
1904.436462	-11.974456
1905.647028	-11.989636
1906.859133	-12.004918
1908.072781	-12.020268
1909.287976	-12.035662
1910.504719	-12.051085
1911.723013	-12.066525
1912.942863	-12.081990
1914.164270	-12.097494
1915.387238	-12.113056
1916.611770	-12.128687
1917.837868	-12.144403
1919.065536	-12.160195
1920.294777	-12.176052
1921.525594	-12.191956
1922.757989	-12.207905
1923.991967	-12.223903
1925.227529	-12.239980
1926.464679	-12.256154
1927.703420	-12.272452
1928.943755	-12.288885
1930.185688	-12.305461
1931.429221	-12.322166
1932.674356	-12.338993
1933.921099	-12.355933
1935.169451	-12.372996
1936.419415	-12.390213
1937.670996	-12.407619
1938.924195	-12.425255
1940.179017	-12.443144
1941.435463	-12.461296
1942.693538	-12.479701
1943.953245	-12.498355
1945.214586	-12.517249
1946.477566	-12.536409
1947.742186	-12.555851
1949.008451	-12.575622
1950.276363	-12.595740
1951.545926	-12.616224
1952.817143	-12.637048
1954.090017	-12.658183
1955.364551	-12.679585
1956.640749	-12.701238
1957.918615	-12.723139
1959.198150	-12.745330
1960.479359	-12.767849
1961.762244	-12.790753
1963.046810	-12.814079
1964.333059	-12.837852
1965.620995	-12.862069
1966.910621	-12.886706
1968.201940	-12.911726
1969.494956	-12.937099
1970.789672	-12.962793
1972.086091	-12.988803
1973.384217	-13.015130
1974.684053	-13.041786
1975.985602	-13.068793
1977.288869	-13.096168
1978.593855	-13.123934
1979.900566	-13.152107
1981.209003	-13.180686
1982.519171	-13.209677
1983.831073	-13.239072
1985.144712	-13.268840
1986.460093	-13.298954
1987.777217	-13.329363
1989.096089	-13.360025
1990.416713	-13.390906
1991.739092	-13.421977
1993.063228	-13.453221
1994.389127	-13.484630
1995.716791	-13.516189
1997.046223	-13.547869
1998.377428	-13.579621
1999.710409	-13.611384
2001.045169	-13.643089
2002.381713	-13.674697
2003.720043	-13.706205
2005.060163	-13.737636
2006.402077	-13.769050
2007.745788	-13.800516
2009.091301	-13.832097
2010.438618	-13.863855
2011.787743	-13.895809
2013.138680	-13.927959
2014.491433	-13.960283
2015.846005	-13.992763
2017.202399	-14.025406
2018.560621	-14.058239
2019.920673	-14.091325
2021.282558	-14.124731
2022.646281	-14.158520
2024.011846	-14.192729
2025.379256	-14.227365
2026.748515	-14.262415
2028.119626	-14.297853
2029.492594	-14.333668
2030.867422	-14.369874
2032.244114	-14.406527
2033.622673	-14.443697
2035.003104	-14.481435
2036.385411	-14.519751
2037.769597	-14.558637
2039.155665	-14.598046
2040.543621	-14.637948
2041.933467	-14.678335
2043.325208	-14.719245
2044.718847	-14.760702
2046.114389	-14.802723
2047.511837	-14.845288
2048.911195	-14.888345
2050.312467	-14.931845
2051.715657	-14.975777
2053.120769	-15.020183
2054.527807	-15.065131
2055.936775	-15.110704
2057.347677	-15.156942
2058.760516	-15.203808
2060.175297	-15.251222
2061.592025	-15.299099
2063.010701	-15.347404
2064.431332	-15.396177
2065.853921	-15.445537
2067.278472	-15.495619
2068.704988	-15.546479
2070.133475	-15.598039
2071.563936	-15.650095
2072.996375	-15.702402
2074.430796	-15.754800
2075.867204	-15.807294
2077.305603	-15.860061
2078.745996	-15.913294
2080.188389	-15.967080
2081.632784	-16.021288
2083.079187	-16.075615
2084.527601	-16.129710
2085.978030	-16.183355
2087.430480	-16.236587
2088.884954	-16.289645
2090.341455	-16.342824
2091.799990	-16.396249
2093.260561	-16.449837
2094.723173	-16.503323
2096.187831	-16.556456
2097.654538	-16.609129
2099.123300	-16.661469
2100.594119	-16.713783
2102.067001	-16.766392
2103.541950	-16.819475
2105.018971	-16.873013
2106.498067	-16.926859
2107.979243	-16.980869
2109.462503	-17.035069
2110.947853	-17.089716
2112.435295	-17.145173
2113.924836	-17.201767
2115.416478	-17.259592
2116.910227	-17.318476
2118.406087	-17.378081
2119.904063	-17.438102
2121.404158	-17.498447
2122.906378	-17.559290
2124.410727	-17.620942
2125.917210	-17.683658
2127.425831	-17.747450
2128.936594	-17.812140
2130.449505	-17.877474
2131.964567	-17.943352
2133.481786	-18.009870
2135.001166	-18.077291
2136.522711	-18.145826
2138.046427	-18.215519
2139.572317	-18.286212
2141.100388	-18.357659
2142.630642	-18.429667
2144.163085	-18.502163
2145.697722	-18.575148
2147.234558	-18.648611
2148.773596	-18.722478
2150.314842	-18.796687
2151.858301	-18.871269
2153.403977	-18.946402
2154.951875	-19.022296
2156.502000	-19.099070
2158.054357	-19.176613
2159.608950	-19.254644
2161.165785	-19.332877
2162.724866	-19.411205
2164.286198	-19.489790
2165.849786	-19.568901
2167.415635	-19.648736
2168.983749	-19.729182
2170.554134	-19.809840
2172.126795	-19.890174
2173.701737	-19.969842
2175.278964	-20.048835
2176.858481	-20.127451
2178.440294	-20.205987
2180.024408	-20.284508
2181.610827	-20.362672
2183.199557	-20.439985
2184.790602	-20.516100
2186.383968	-20.591168
2187.979660	-20.665728
2189.577683	-20.740437
2191.178041	-20.815578
2192.780741	-20.891004
2194.385787	-20.966239
2195.993185	-21.041066
2197.602939	-21.115776
2199.215054	-21.191144
2200.829537	-21.267921
2202.446392	-21.346311
2204.065624	-21.425829
2205.687239	-21.505719
2207.311242	-21.585623
2208.937638	-21.665919
2210.566433	-21.747506
2212.197631	-21.831090
2213.831239	-21.916707
2215.467261	-22.003852
2217.105703	-22.092017
2218.746570	-22.181231
2220.389867	-22.272016
2222.035601	-22.364910
2223.683776	-22.460005
2225.334398	-22.556854
2226.987472	-22.654811
2228.643004	-22.753446
2230.300999	-22.852790
2231.961463	-22.953228
2233.624402	-23.055120
2235.289820	-23.158562
2236.957723	-23.263430
2238.628118	-23.369475
2240.301009	-23.476512
2241.976402	-23.584292
2243.654303	-23.692501
2245.334717	-23.800790
2247.017650	-23.908886
2248.703108	-24.016716
2250.391096	-24.124304
2252.081620	-24.231645
2253.774686	-24.338565
2255.470300	-24.444899
2257.168467	-24.550547
2258.869193	-24.655555
2260.572484	-24.759984
2262.278345	-24.863778
2263.986783	-24.966644
2265.697804	-25.068062
2267.411412	-25.167451
2269.127615	-25.264477
2270.846417	-25.359288
2272.567826	-25.452456
2274.291846	-25.544668
2276.018484	-25.636321
2277.747745	-25.727330
2279.479637	-25.817305
2281.214164	-25.905936
2282.951333	-25.993466
2284.691149	-26.080696
2286.433619	-26.168528
2288.178750	-26.257407
2289.926546	-26.347329
2291.677014	-26.438241
2293.430161	-26.530844
2295.185992	-26.626147
2296.944513	-26.724661
2298.705732	-26.825723
2300.469653	-26.928042
2302.236283	-27.031186
2304.005629	-27.136343
2305.777696	-27.245387
2307.552492	-27.359006
2309.330022	-27.475786
2311.110292	-27.593420
2312.893310	-27.710804
2314.679080	-27.828951
2316.467611	-27.949821
2318.258907	-28.074100
2320.052976	-28.200437
2321.849824	-28.326790
2323.649457	-28.452381
2325.451883	-28.578542
2327.257106	-28.707536
2329.065135	-28.840858
2330.875975	-28.978241
2332.689633	-29.118232
2334.506116	-29.259196
2336.325430	-29.400156
2338.147581	-29.540828
2339.972578	-29.681651
2341.800425	-29.823046
2343.631130	-29.965071
2345.464700	-30.107186
2347.301141	-30.249069
2349.140461	-30.391222
2350.982665	-30.534182
2352.827760	-30.676813
2354.675754	-30.816173
2356.526653	-30.950238
2358.380464	-31.080069
2360.237195	-31.208780
2362.096851	-31.337608
2363.959440	-31.463964
2365.824968	-31.583485
2367.693444	-31.693538
2369.564873	-31.794743
2371.439263	-31.889492
2373.316620	-31.979888
2375.196953	-32.066578
2377.080267	-32.149197
2378.966570	-32.227627
2380.855869	-32.303286
2382.748171	-32.378962
2384.643484	-32.456885
2386.541815	-32.537422
2388.443170	-32.619887
2390.347557	-32.704307
2392.254984	-32.791728
2394.165457	-32.883515
2396.078984	-32.980859
2397.995572	-33.084722
2399.915229	-33.195018
2401.837961	-33.310216
2403.763777	-33.428833
2405.692684	-33.551577
2407.624689	-33.680755
2409.559800	-33.817593
2411.498023	-33.960738
2413.439368	-34.108484
2415.383840	-34.260756
2417.331449	-34.418231
2419.282201	-34.579799
2421.236104	-34.743344
2423.193165	-34.910009
2425.153393	-35.085245
2427.116795	-35.273578
2429.083378	-35.471819
2431.053151	-35.670665
2433.026121	-35.864867
2435.002297	-36.059135
2436.981685	-36.261177
2438.964293	-36.470598
2440.950131	-36.680173
2442.939204	-36.887288
2444.931522	-37.098218
2446.927092	-37.316592
2448.925923	-37.532286
2450.928022	-37.728624
2452.933397	-37.902036
2454.942056	-38.066661
2456.954008	-38.234907
2458.969260	-38.399922
2460.987821	-38.544916
2463.009699	-38.666810
2465.034902	-38.778167
2467.063437	-38.883930
2469.095315	-38.970345
2471.130542	-39.024925
2473.169127	-39.057453
2475.211078	-39.089524
2477.256404	-39.128750
2479.305112	-39.164072
2481.357212	-39.185370
2483.412713	-39.199857
2485.471621	-39.224884
2487.533946	-39.269639
2489.599696	-39.328971
2491.668880	-39.393592
2493.741507	-39.461050
2495.817585	-39.535548
2497.897122	-39.622048
2499.980127	-39.723872
2502.066609	-39.842860
2504.156578	-39.977987
2506.250040	-40.124784
2508.347006	-40.279569
2510.447483	-40.441154
2512.551482	-40.605151
2514.659010	-40.764473
2516.770076	-40.922113
2518.884690	-41.095980
2521.002861	-41.300009
2523.124597	-41.522356
2525.249907	-41.735358
2527.378801	-41.933086
2529.511287	-42.144993
2531.647375	-42.399716
2533.787074	-42.685171
2535.930393	-42.963361
2538.077340	-43.224502
2540.227927	-43.501016
2542.382160	-43.816638
2544.540051	-44.150580
2546.701608	-44.475143
2548.866840	-44.803550
2551.035757	-45.160228
2553.208369	-45.520554
2555.384684	-45.833596
2557.564713	-46.105866
2559.748465	-46.396585
2561.935948	-46.719139
2564.127174	-47.008427
2566.322152	-47.207537
2568.520890	-47.335788
2570.723399	-47.441397
2572.929689	-47.541409
2575.139769	-47.623742
2577.353649	-47.659260
2579.571340	-47.618373
2581.792849	-47.514029
2584.018189	-47.402538
2586.247368	-47.311914
2588.480396	-47.211138
2590.717284	-47.079743
2592.958041	-46.958291
2595.202678	-46.886538
2597.451204	-46.843829
2599.703630	-46.801988
2601.959966	-46.796523
2604.220222	-46.874533
2606.484408	-46.997610
2608.752535	-47.081074
2611.024612	-47.131823
2613.300651	-47.238288
2615.580661	-47.413586
2617.864653	-47.565771
2620.152638	-47.653970
2622.444625	-47.757604
2624.740626	-47.932342
2627.040651	-48.117257
2629.344710	-48.242626
2631.652814	-48.344811
2633.964974	-48.492015
2636.281200	-48.670915
2638.601504	-48.831548
2640.925896	-48.998104
2643.254386	-49.240409
2645.586987	-49.555091
2647.923707	-49.865407
2650.264559	-50.154474
2652.609554	-50.505941
2654.958702	-50.974667
2657.312015	-51.507627
2659.669503	-52.039688
2662.031178	-52.588280
2664.397051	-53.182586
2666.767132	-53.787324
2669.141434	-54.390025
2671.519968	-55.063539
2673.902745	-55.840345
2676.289776	-56.603440
2678.681072	-57.199036
2681.076646	-57.643922
2683.476508	-58.090662
2685.880671	-58.539653
2688.289145	-58.724420
2690.701942	-58.539699
2693.119075	-58.281316
2695.540554	-58.097268
2697.966391	-57.784715
2700.396599	-57.273475
2702.831189	-56.816436
2705.270172	-56.576002
2707.713561	-56.437526
2710.161368	-56.240766
2712.613605	-56.054173
2715.070283	-56.040503
2717.531416	-56.140062
2719.997014	-56.155576
2722.467090	-56.143948
2724.941657	-56.289456
2727.420726	-56.448994
2729.904310	-56.377755
2732.392421	-56.267886
2734.885072	-56.350712
2737.382275	-56.406620
2739.884042	-56.221532
2742.390387	-56.041690
2744.901321	-56.040109
2747.416857	-56.022067
2749.937008	-55.885926
2752.461787	-55.790243
2754.991206	-55.770154
2757.525279	-55.768772
2760.064017	-55.882217
2762.607434	-56.118401
2765.155544	-56.252610
2767.708358	-56.307577
2770.265890	-56.599070
2772.828153	-57.121328
2775.395160	-57.549571
2777.966924	-57.894286
2780.543459	-58.404776
2783.124778	-58.995340
2785.710894	-59.525599
2788.301821	-60.195829
2790.897572	-61.124608
2793.498160	-62.130728
2796.103599	-63.127529
2798.713903	-64.223098
2801.329085	-65.551864
2803.949159	-67.341838
2806.574139	-69.365615
2809.204038	-70.424862
2811.838871	-70.747771
2814.478650	-70.904787
2817.123391	-69.795175
2819.773107	-68.544645
2822.427812	-68.245989
2825.087521	-67.752474
2827.752247	-66.618105
2830.422005	-66.385090
2833.096808	-67.386466
2835.776672	-67.906922
2838.461611	-67.456229
2841.151638	-68.034890
2843.846769	-69.866447
2846.547019	-70.686444
2849.252401	-70.279731
2851.962930	-70.684237
2854.678621	-71.142035
2857.399489	-69.824856
2860.125549	-68.254864
2862.856815	-67.709466
2865.593302	-67.493521
2868.335026	-66.569672
2871.082002	-65.586452
2873.834244	-65.166631
2876.591767	-64.718011
2879.354588	-63.946342
2882.122721	-63.632728
2884.896181	-63.905993
2887.674984	-63.814881
2890.459146	-63.419142
2893.248681	-63.718954
2896.043606	-64.313805
2898.843937	-64.135977
2901.649687	-64.033305
2904.460875	-64.694241
2907.277515	-65.026725
2910.099623	-64.669629
2912.927215	-65.033962
2915.760308	-66.490904
2918.598916	-67.437323
2921.443057	-67.011218
2924.292747	-67.441505
2927.148002	-69.930122
2930.008837	-72.814777
2932.875270	-73.191314
2935.747318	-75.019489
2938.624995	-79.673952
2941.508320	-80.158004
2944.397308	-78.815711
2947.291977	-76.109216
2950.192343	-73.386438
2953.098423	-73.065348
2956.010234	-73.951008
2958.927792	-72.886013
2961.851116	-71.846770
2964.780221	-72.554658
2967.715126	-73.206978
2970.655847	-72.980789
2973.602402	-74.579150
2976.554808	-79.362959
2979.513083	-80.196082
2982.477243	-78.046236
2985.447308	-80.114583
2988.423293	-88.059643
2991.405218	-96.572832
2994.393099	-98.202284
2997.386955	-94.174946
