# 2022-03-22_12.00.06
# shape = sech2
# FWHM_ps = 0.11
# carrier_nm = 1542
# frep_MHz = 12126
# pow_mW = 8000
# GDD = 0.0
# propa_len = 0.14622222222222223
# untap_len = 0.01
# taper_len = 0.08622222222222223
# waist_len = 0.02
# uptap_len = 0.02
# untap_scale = 1.0
# waist_scale = 0.1473684210526316
# workingDir = NL_20110305_12 (Spirou)
# axis = slow
# window_ps = 10.0
# steps = 200
# points = 21700
# 
# wavelength [nm]	 power spectral density [dB]
600.043425	-87.109815
600.163550	-92.356402
600.283723	-89.008913
600.403943	-90.425690
600.524212	-106.955297
600.644529	-92.760962
600.764895	-94.080726
600.885308	-97.818600
601.005770	-90.930130
601.126280	-94.408911
601.246839	-98.657549
601.367446	-92.063944
601.488101	-95.232102
601.608804	-93.318008
601.729557	-87.937207
601.850357	-90.237682
601.971206	-91.847040
602.092104	-87.083512
602.213050	-88.665120
602.334045	-94.292729
602.455089	-90.393881
602.576181	-90.395669
602.697322	-98.881627
602.818511	-100.642983
602.939749	-96.809534
603.061036	-102.805975
603.182372	-96.048423
603.303757	-93.745768
603.425191	-100.287357
603.546673	-94.515864
603.668204	-90.215320
603.789785	-92.825720
603.911414	-93.639861
604.033092	-89.266549
604.154820	-91.578019
604.276596	-94.639098
604.398422	-89.380048
604.520297	-93.263869
604.642220	-104.293791
604.764193	-93.080522
604.886216	-101.024930
605.008287	-95.771108
605.130408	-92.968917
605.252578	-98.456559
605.374798	-98.878573
605.497066	-97.778780
605.619385	-102.677549
605.741752	-92.091167
605.864169	-91.120379
605.986636	-90.506321
606.109152	-89.524447
606.231718	-90.526078
606.354333	-93.224444
606.476998	-97.997735
606.599712	-102.206646
606.722476	-100.117583
606.845290	-94.675783
606.968154	-94.401501
607.091067	-93.971506
607.214030	-91.226255
607.337043	-92.208782
607.460106	-95.379784
607.583219	-92.271878
607.706381	-91.700335
607.829594	-100.182848
607.952856	-97.167573
608.076169	-93.745949
608.199531	-103.813949
608.322944	-95.064379
608.446407	-90.130775
608.569920	-93.847753
608.693483	-92.864023
608.817096	-88.178694
608.940759	-90.368516
609.064473	-97.334452
609.188237	-92.025393
609.312051	-91.196279
609.435916	-94.376928
609.559831	-112.033581
609.683796	-92.170037
609.807812	-87.500494
609.931878	-91.373682
610.055995	-91.773069
610.180162	-84.904318
610.304380	-86.503064
610.428648	-91.846285
610.552967	-86.606980
610.677337	-86.895893
610.801757	-100.088923
610.926228	-92.232451
611.050750	-94.827805
611.175323	-95.941381
611.299946	-89.127599
611.424620	-96.193448
611.549345	-93.804886
611.674121	-89.830677
611.798948	-110.353810
611.923826	-88.789023
612.048755	-86.838236
612.173734	-93.525755
612.298765	-86.491227
612.423847	-85.151733
612.548980	-92.410609
612.674165	-89.419534
612.799400	-88.312593
612.924687	-96.937645
613.050025	-101.011917
613.175414	-98.032024
613.300854	-91.749440
613.426346	-91.275531
613.551889	-99.370095
613.677484	-89.506875
613.803130	-89.498722
613.928827	-113.420225
614.054576	-90.998710
614.180377	-93.969538
614.306229	-97.629291
614.432132	-90.944743
614.558087	-101.479105
614.684094	-90.208707
614.810153	-87.780278
614.936263	-99.393324
615.062425	-87.900044
615.188639	-85.907827
615.314904	-95.252255
615.441222	-89.177455
615.567591	-87.712278
615.694012	-107.018633
615.820486	-88.252282
615.947011	-88.649777
616.073588	-98.794531
616.200217	-85.932786
616.326898	-87.846796
616.453632	-104.437544
616.580417	-89.074203
616.707255	-94.112975
616.834144	-91.269239
616.961086	-90.801825
617.088081	-97.703118
617.215127	-86.106963
617.342226	-87.653661
617.469378	-93.858479
617.596581	-86.346520
617.723837	-86.673919
617.851146	-94.554102
617.978507	-89.817685
618.105920	-86.156862
618.233386	-88.628414
618.360905	-92.171315
618.488476	-87.719878
618.616100	-89.661943
618.743777	-94.891551
618.871506	-91.172438
618.999288	-94.422837
619.127123	-98.750598
619.255011	-92.437042
619.382951	-92.255652
619.510945	-92.148316
619.638991	-86.567411
619.767090	-84.085257
619.895243	-83.209483
620.023448	-81.955492
620.151706	-80.911889
620.280017	-81.992053
620.408382	-83.927275
620.536799	-84.832984
620.665270	-88.305913
620.793794	-98.747642
620.922371	-96.385165
621.051002	-101.066908
621.179686	-113.085713
621.308423	-97.115196
621.437213	-90.906219
621.566057	-93.402314
621.694954	-89.547236
621.823905	-87.178733
621.952909	-87.508531
622.081967	-84.481738
622.211079	-83.816866
622.340244	-85.479524
622.469462	-85.770395
622.598735	-86.803865
622.728061	-89.754573
622.857441	-88.391583
622.986874	-87.925892
623.116361	-89.033950
623.245903	-88.180870
623.375498	-88.331506
623.505147	-91.490036
623.634850	-91.861099
623.764606	-94.210410
623.894417	-107.780165
624.024282	-94.044975
624.154201	-94.084668
624.284174	-86.584653
624.414202	-82.135136
624.544283	-83.724934
624.674419	-82.892377
624.804609	-80.965590
624.934853	-84.942431
625.065151	-84.709923
625.195504	-84.141351
625.325911	-92.989408
625.456373	-95.003117
625.586889	-94.893359
625.717460	-93.087827
625.848085	-93.279051
625.978764	-102.523340
626.109498	-97.668499
626.240287	-88.489917
626.371131	-88.662711
626.502029	-92.133512
626.632982	-86.322922
626.763989	-87.934447
626.895052	-97.902913
627.026169	-92.445555
627.157341	-89.245155
627.288568	-88.903343
627.419850	-88.144351
627.551187	-84.266297
627.682579	-84.711225
627.814026	-88.638813
627.945528	-88.753637
628.077085	-93.382787
628.208697	-91.656845
628.340364	-86.993537
628.472087	-87.920772
628.603865	-88.232230
628.735698	-89.151319
628.867586	-94.086083
628.999530	-96.254173
629.131529	-90.726420
629.263584	-89.437497
629.395694	-88.795365
629.527859	-84.949843
629.660080	-86.772618
629.792357	-95.933102
629.924689	-94.104494
630.057077	-96.351410
630.189520	-91.930458
630.322019	-95.807528
630.454574	-99.262918
630.587184	-93.996676
630.719851	-93.934059
630.852573	-96.801320
630.985351	-86.713685
631.118185	-85.650414
631.251075	-85.373833
631.384021	-83.346107
631.517023	-87.373880
631.650081	-92.865137
631.783195	-99.545982
631.916365	-89.738210
632.049592	-86.957841
632.182874	-88.114499
632.316213	-83.484337
632.449608	-86.378203
632.583059	-89.811076
632.716567	-89.107673
632.850131	-86.745507
632.983751	-82.110133
633.117428	-81.456395
633.251161	-80.709845
633.384951	-80.986748
633.518797	-83.719409
633.652700	-87.194788
633.786660	-88.831434
633.920676	-91.094690
634.054749	-87.486030
634.188879	-92.160909
634.323065	-90.466218
634.457308	-90.394814
634.591608	-111.698001
634.725965	-101.172361
634.860379	-87.138630
634.994850	-83.237230
635.129377	-86.670664
635.263962	-83.313501
635.398604	-83.625714
635.533303	-93.310140
635.668058	-87.440466
635.802872	-85.877050
635.937742	-90.673092
636.072669	-89.684523
636.207654	-84.574914
636.342696	-90.012065
636.477796	-87.725606
636.612953	-86.284807
636.748167	-87.132977
636.883439	-82.693410
637.018768	-85.671747
637.154155	-87.522480
637.289599	-86.839707
637.425101	-95.833271
637.560660	-110.888738
637.696277	-88.015098
637.831952	-82.904000
637.967685	-87.328256
638.103475	-86.701453
638.239324	-87.409304
638.375230	-96.385536
638.511194	-89.931866
638.647215	-89.839956
638.783295	-81.992954
638.919433	-85.546185
639.055629	-83.181888
639.191883	-83.213870
639.328195	-102.288269
639.464565	-97.904659
639.600994	-87.852077
639.737481	-83.413651
639.874025	-86.970402
640.010629	-81.651258
640.147290	-84.182572
640.284010	-83.447846
640.420789	-84.498279
640.557625	-87.823698
640.694521	-82.012530
640.831474	-83.762394
640.968487	-82.270837
641.105558	-84.972477
641.242687	-97.182945
641.379876	-92.604573
641.517123	-83.060403
641.654429	-82.737981
641.791793	-81.198789
641.929216	-80.055746
642.066699	-83.412488
642.204240	-84.937381
642.341840	-92.651480
642.479499	-87.613628
642.617217	-85.012890
642.754994	-84.585274
642.892830	-84.067400
643.030726	-88.355533
643.168680	-87.329871
643.306694	-93.223894
643.444767	-89.927175
643.582899	-88.139496
643.721091	-87.706015
643.859342	-91.195868
643.997652	-99.395286
644.136022	-88.306623
644.274451	-83.296694
644.412940	-80.693289
644.551488	-81.124455
644.690096	-80.708397
644.828763	-82.211236
644.967490	-86.835472
645.106277	-91.100105
645.245124	-89.924231
645.384030	-83.121852
645.522997	-81.113965
645.662023	-79.517333
645.801109	-79.705361
645.940255	-82.318170
646.079460	-83.208462
646.218726	-88.046647
646.358052	-95.564739
646.497438	-85.252030
646.636884	-81.353072
646.776391	-79.827733
646.915957	-82.045533
647.055584	-82.520570
647.195271	-83.660447
647.335019	-90.473356
647.474826	-92.516025
647.614695	-87.003257
647.754623	-90.388866
647.894612	-90.226817
648.034662	-86.018309
648.174772	-82.543104
648.314943	-79.195313
648.455174	-80.392586
648.595466	-78.075682
648.735819	-78.135824
648.876233	-79.236144
649.016707	-81.254956
649.157242	-87.490192
649.297838	-90.255250
649.438495	-84.767182
649.579213	-82.858428
649.719992	-83.818345
649.860832	-86.520710
650.001733	-92.522569
650.142695	-91.056233
650.283718	-84.946256
650.424803	-84.208075
650.565949	-82.072965
650.707156	-82.306844
650.848424	-85.867704
650.989754	-84.315043
651.131145	-89.646936
651.272597	-87.192177
651.414111	-97.166015
651.555687	-92.465532
651.697324	-94.781333
651.839022	-98.007509
651.980782	-85.889799
652.122604	-81.048137
652.264488	-82.191037
652.406433	-79.614928
652.548441	-80.219298
652.690510	-80.530473
652.832640	-81.640979
652.974833	-86.670880
653.117088	-84.069283
653.259405	-81.757115
653.401784	-79.571797
653.544224	-80.211545
653.686727	-80.336207
653.829293	-80.691729
653.971920	-83.511911
654.114609	-89.828590
654.257361	-98.354134
654.400175	-89.295646
654.543052	-90.848303
654.685991	-88.103696
654.828992	-94.058347
654.972056	-100.500468
655.115183	-87.764344
655.258372	-83.350638
655.401623	-84.257351
655.544937	-82.482195
655.688314	-86.656992
655.831754	-102.914419
655.975256	-91.557546
656.118822	-83.153756
656.262450	-83.943281
656.406141	-81.233273
656.549894	-81.301352
656.693711	-84.817727
656.837591	-84.908474
656.981534	-83.746774
657.125540	-81.568054
657.269610	-79.707777
657.413742	-79.870614
657.557938	-79.108355
657.702196	-81.528768
657.846519	-82.805370
657.990904	-109.489473
658.135353	-80.806889
658.279866	-80.067048
658.424441	-76.523078
658.569081	-76.500592
658.713784	-75.861439
658.858550	-75.455310
659.003381	-80.275388
659.148274	-81.411415
659.293232	-83.946912
659.438253	-90.446314
659.583339	-83.132856
659.728488	-83.335825
659.873701	-89.430404
660.018978	-89.572500
660.164318	-89.855536
660.309723	-84.634339
660.455192	-84.853006
660.600725	-81.849825
660.746323	-83.018744
660.891984	-83.960300
661.037710	-87.248781
661.183500	-103.566115
661.329354	-97.841014
661.475272	-90.942601
661.621255	-88.375084
661.767303	-96.934212
661.913415	-109.264227
662.059591	-90.842295
662.205833	-89.087681
662.352138	-83.232257
662.498509	-79.946502
662.644944	-81.096809
662.791443	-79.642551
662.938008	-83.374676
663.084638	-83.222434
663.231332	-81.924908
663.378091	-84.457770
663.524915	-81.753950
663.671804	-85.190757
663.818759	-90.852032
663.965778	-95.327545
664.112863	-87.403427
664.260012	-87.571975
664.407227	-83.673834
664.554507	-82.709901
664.701853	-82.640243
664.849264	-83.811637
664.996740	-87.291734
665.144282	-88.539795
665.291889	-87.963838
665.439561	-92.576274
665.587300	-85.876283
665.735103	-90.078717
665.882973	-84.122875
666.030908	-91.480096
666.178909	-80.441963
666.326976	-83.652943
666.475109	-79.279201
666.623307	-83.324327
666.771571	-79.440827
666.919902	-79.688143
667.068298	-84.850457
667.216761	-81.493659
667.365289	-92.726928
667.513884	-80.481461
667.662545	-88.648790
667.811272	-81.979078
667.960065	-84.289212
668.108925	-79.985719
668.257851	-77.868349
668.406843	-81.863094
668.555902	-81.783933
668.705027	-89.704748
668.854219	-89.262061
669.003478	-93.942940
669.152803	-83.090114
669.302195	-80.725546
669.451653	-79.833338
669.601179	-77.391399
669.750771	-77.551702
669.900430	-76.171744
670.050156	-74.937848
670.199949	-75.596535
670.349808	-74.639045
670.499735	-75.194951
670.649729	-76.535127
670.799790	-76.638268
670.949918	-82.401874
671.100114	-86.612793
671.250377	-86.129953
671.400707	-86.069842
671.551104	-81.861504
671.701569	-81.175125
671.852101	-83.808098
672.002700	-87.591552
672.153368	-109.126703
672.304102	-87.590651
672.454905	-83.362140
672.605775	-80.547940
672.756713	-82.134647
672.907718	-86.530331
673.058791	-92.011561
673.209933	-87.660831
673.361142	-83.343906
673.512419	-78.509687
673.663764	-79.066641
673.815177	-78.703696
673.966658	-78.882694
674.118207	-79.481642
674.269825	-80.009811
674.421510	-83.233607
674.573264	-81.701876
674.725086	-87.116004
674.876977	-86.592018
675.028936	-92.216906
675.180963	-83.951821
675.333059	-80.783428
675.485224	-80.185312
675.637457	-78.116243
675.789758	-79.424618
675.942129	-77.890478
676.094568	-81.168781
676.247075	-79.430017
676.399652	-77.896220
676.552298	-75.848543
676.705012	-77.289563
676.857795	-77.256258
677.010648	-79.988992
677.163569	-81.187260
677.316560	-113.040195
677.469619	-107.753620
677.622748	-85.435710
677.775946	-93.634755
677.929214	-84.837247
678.082551	-91.706576
678.235957	-82.066278
678.389432	-83.113719
678.542977	-78.489263
678.696592	-82.468874
678.850276	-78.760651
679.004030	-81.767510
679.157853	-79.581548
679.311746	-88.518677
679.465709	-94.202345
679.619742	-85.058416
679.773844	-81.297100
679.928017	-78.142623
680.082259	-79.679060
680.236571	-78.828184
680.390954	-81.933399
680.545406	-88.216488
680.699929	-80.656885
680.854522	-84.001308
681.009185	-78.767019
681.163918	-81.216881
681.318722	-79.700879
681.473596	-81.384905
681.628540	-78.729777
681.783555	-83.805991
681.938641	-78.448957
682.093797	-76.667635
682.249023	-74.751967
682.404321	-75.890677
682.559689	-75.300030
682.715128	-76.306584
682.870637	-79.277577
683.026218	-80.354592
683.181869	-79.422163
683.337591	-76.635087
683.493385	-79.580684
683.649249	-77.281999
683.805185	-85.919079
683.961191	-86.617357
684.117269	-86.503071
684.273418	-92.453397
684.429639	-82.856741
684.585930	-83.228789
684.742294	-77.302056
684.898728	-80.921160
685.055234	-74.991989
685.211812	-80.650364
685.368461	-78.320130
685.525182	-78.602212
685.681975	-76.693232
685.838839	-80.290127
685.995775	-81.338483
686.152783	-79.996445
686.309863	-89.522089
686.467014	-78.571561
686.624238	-83.976535
686.781534	-77.810175
686.938902	-86.004848
687.096342	-93.771889
687.253854	-78.288847
687.411438	-85.156578
687.569095	-75.070588
687.726824	-84.812283
687.884626	-85.703174
688.042499	-81.651742
688.200446	-82.403041
688.358465	-76.487747
688.516556	-76.538818
688.674720	-75.397861
688.832957	-78.919854
688.991266	-78.069389
689.149649	-84.235368
689.308104	-95.308587
689.466632	-79.327120
689.625233	-76.541350
689.783906	-74.920576
689.942653	-76.643022
690.101473	-78.290095
690.260367	-82.508473
690.419333	-81.480820
690.578372	-74.614802
690.737485	-75.754688
690.896672	-73.844113
691.055931	-78.340269
691.215264	-77.627331
691.374671	-85.281997
691.534151	-98.870368
691.693704	-77.245563
691.853332	-82.560299
692.013033	-74.850421
692.172807	-79.994206
692.332656	-76.446320
692.492578	-79.258594
692.652575	-96.032560
692.812645	-76.581690
692.972789	-87.031873
693.133007	-75.454200
693.293300	-82.411780
693.453666	-84.838475
693.614107	-77.265288
693.774622	-74.957897
693.935211	-75.191122
694.095875	-72.538671
694.256613	-77.157742
694.417426	-77.501666
694.578313	-86.076036
694.739274	-90.132076
694.900311	-78.596888
695.061421	-81.034607
695.222607	-78.300296
695.383868	-89.758911
695.545203	-86.079699
695.706613	-92.966879
695.868098	-96.872424
696.029658	-80.713826
696.191293	-79.490879
696.353003	-79.830974
696.514789	-78.184335
696.676649	-81.702915
696.838585	-74.474578
697.000596	-80.976647
697.162682	-75.203766
697.324844	-89.447086
697.487081	-75.782312
697.649394	-102.728542
697.811782	-76.141714
697.974246	-83.862356
698.136786	-74.827465
698.299401	-85.581685
698.462092	-76.593899
698.624859	-84.353499
698.787702	-76.264103
698.950621	-84.475161
699.113616	-75.995831
699.276686	-81.718899
699.439833	-71.041730
699.603056	-80.733287
699.766355	-73.350983
699.929731	-86.973805
700.093183	-75.872253
700.256711	-83.059273
700.420315	-89.093097
700.583996	-79.018224
700.747754	-79.527384
700.911588	-73.042149
701.075499	-79.234011
701.239486	-77.186077
701.403550	-96.087286
701.567691	-89.149639
701.731909	-75.144459
701.896203	-76.680731
702.060575	-74.627582
702.225024	-81.208724
702.389549	-76.183985
702.554152	-88.919119
702.718832	-77.602843
702.883589	-86.852276
703.048424	-81.034317
703.213335	-78.072203
703.378324	-92.872112
703.543391	-74.288430
703.708535	-83.773339
703.873757	-74.567778
704.039056	-81.523716
704.204433	-77.406696
704.369887	-82.423721
704.535420	-78.180540
704.701030	-81.978721
704.866718	-72.411301
705.032484	-78.126606
705.198328	-70.451702
705.364250	-83.243098
705.530250	-73.349325
705.696328	-84.166869
705.862485	-80.398664
706.028720	-78.312261
706.195033	-76.396024
706.361424	-69.885694
706.527894	-69.090916
706.694442	-68.601380
706.861069	-70.651733
707.027775	-72.213556
707.194559	-74.313117
707.361422	-75.567939
707.528363	-74.827259
707.695384	-73.339504
707.862483	-74.191649
708.029661	-79.336488
708.196918	-80.877938
708.364254	-75.348366
708.531670	-77.551818
708.699164	-68.960823
708.866738	-75.458714
709.034391	-67.109777
709.202123	-75.014152
709.369935	-71.795299
709.537826	-71.690684
709.705796	-82.546862
709.873847	-70.157418
710.041976	-70.066097
710.210186	-68.065509
710.378475	-68.405687
710.546844	-73.132128
710.715292	-67.568330
710.883821	-81.499530
711.052429	-70.297757
711.221118	-70.616965
711.389887	-73.975097
711.558735	-66.973133
711.727664	-90.948708
711.896673	-73.569516
712.065763	-73.006944
712.234932	-82.541818
712.404183	-67.624346
712.573513	-71.814230
712.742924	-68.200920
712.912416	-66.065520
713.081988	-66.575543
713.251641	-67.965271
713.421375	-71.132951
713.591190	-75.538717
713.761085	-74.798589
713.931061	-70.489192
714.101119	-65.771907
714.271257	-65.312521
714.441476	-63.396252
714.611777	-67.421408
714.782159	-66.675400
714.952622	-80.930852
715.123166	-80.121544
715.293792	-67.957760
715.464499	-71.698311
715.635288	-65.151506
715.806158	-65.666607
715.977110	-66.232285
716.148143	-65.040923
716.319259	-71.118381
716.490456	-68.162729
716.661735	-75.408009
716.833096	-76.497313
717.004538	-64.115738
717.176063	-66.953228
717.347670	-64.617255
717.519359	-69.936032
717.691130	-71.290419
717.862984	-66.594611
718.034920	-69.596231
718.206938	-65.558346
718.379039	-67.686915
718.551222	-67.325769
718.723488	-64.241071
718.895836	-67.992630
719.068267	-63.314093
719.240781	-65.335446
719.413377	-66.099517
719.586057	-64.947289
719.758819	-73.251791
719.931664	-68.199467
720.104593	-67.992490
720.277604	-70.548063
720.450699	-65.748212
720.623876	-69.800576
720.797137	-64.989912
720.970482	-63.579164
721.143910	-66.210773
721.317421	-66.015946
721.491016	-72.437036
721.664694	-68.295401
721.838456	-65.943813
722.012302	-68.892802
722.186231	-65.200581
722.360244	-67.255793
722.534342	-65.587316
722.708523	-62.131898
722.882788	-63.461495
723.057137	-60.926947
723.231570	-65.808540
723.406088	-66.530152
723.580689	-65.005682
723.755375	-70.219450
723.930146	-65.708957
724.105000	-65.209923
724.279940	-65.852916
724.454963	-61.422628
724.630072	-66.073215
724.805265	-64.652501
724.980543	-64.994162
725.155905	-68.100226
725.331353	-61.901804
725.506885	-63.111970
725.682503	-63.524418
725.858205	-62.447967
726.033993	-68.586607
726.209865	-66.274890
726.385823	-65.635098
726.561866	-65.908831
726.737995	-61.062547
726.914209	-62.612997
727.090508	-62.789649
727.266893	-62.928696
727.443364	-66.696224
727.619920	-64.184906
727.796562	-66.115017
727.973290	-67.885433
728.150103	-64.335971
728.327003	-65.097240
728.503988	-63.353028
728.681060	-64.848507
728.858218	-67.128917
729.035461	-62.385176
729.212791	-62.105238
729.390208	-60.943904
729.567710	-61.649151
729.745299	-68.113180
729.922975	-63.199008
730.100737	-61.588516
730.278586	-63.361792
730.456521	-62.147066
730.634543	-67.867283
730.812652	-67.223169
730.990848	-62.191056
731.169130	-66.496534
731.347500	-64.812528
731.525957	-62.517469
731.704500	-64.674894
731.883131	-61.129425
732.061850	-61.620629
732.240655	-64.518429
732.419548	-61.324656
732.598528	-62.622998
732.777596	-63.542729
732.956751	-62.541307
733.135994	-64.075299
733.315325	-63.871451
733.494744	-63.320134
733.674250	-63.090923
733.853844	-62.238134
734.033526	-64.506214
734.213296	-63.538191
734.393154	-62.467567
734.573101	-64.153012
734.753135	-62.556353
734.933258	-63.768022
735.113469	-65.548120
735.293769	-63.870988
735.474157	-64.622729
735.654633	-63.085407
735.835198	-60.698390
736.015852	-64.182036
736.196594	-64.756785
736.377426	-62.774964
736.558346	-61.428705
736.739355	-58.631436
736.920453	-59.935671
737.101640	-65.267542
737.282916	-64.704320
737.464282	-62.815687
737.645736	-63.115988
737.827280	-61.761595
738.008914	-65.138131
738.190637	-65.511562
738.372449	-62.468737
738.554351	-63.285312
738.736342	-62.331682
738.918424	-62.411846
739.100595	-63.306533
739.282855	-60.008900
739.465206	-60.629820
739.647647	-64.458138
739.830178	-65.272001
740.012799	-64.975360
740.195510	-64.534902
740.378311	-62.786055
740.561203	-65.583557
740.744185	-67.625385
740.927258	-65.370988
741.110421	-62.816564
741.293674	-62.359259
741.477018	-61.411435
741.660453	-64.864487
741.843979	-64.069991
742.027596	-60.603615
742.211303	-63.719495
742.395102	-65.194245
742.578991	-63.738796
742.762972	-64.038067
742.947044	-62.315961
743.131207	-65.264579
743.315461	-71.826917
743.499807	-63.471787
743.684244	-61.606601
743.868773	-64.130108
744.053394	-63.315329
744.238106	-64.142252
744.422910	-65.579850
744.607805	-63.272621
744.792793	-64.447641
744.977872	-64.572105
745.163044	-61.800209
745.348307	-65.412049
745.533663	-68.146857
745.719111	-64.544002
745.904651	-65.274382
746.090283	-65.630156
746.276008	-61.417644
746.461826	-64.384437
746.647735	-68.444143
746.833738	-67.665165
747.019833	-62.274608
747.206021	-61.848700
747.392302	-62.120067
747.578676	-69.214343
747.765143	-67.129366
747.951703	-63.542667
748.138356	-66.772103
748.325102	-70.535723
748.511941	-71.162644
748.698874	-69.304945
748.885900	-65.456211
749.073019	-63.073246
749.260232	-63.670462
749.447539	-63.345171
749.634939	-64.680375
749.822433	-69.350209
750.010021	-66.684067
750.197703	-64.706841
750.385479	-70.235200
750.573348	-71.003856
750.761312	-64.808899
750.949370	-67.652296
751.137523	-68.181615
751.325769	-72.010585
751.514110	-68.797615
751.702545	-66.808913
751.891075	-66.286125
752.079700	-71.122023
752.268419	-69.305273
752.457233	-67.193766
752.646142	-70.778913
752.835145	-70.658938
753.024244	-70.158251
753.213437	-71.563291
753.402726	-67.474293
753.592110	-66.926262
753.781589	-71.041762
753.971163	-76.599460
754.160833	-70.581396
754.350598	-69.150451
754.540459	-69.231404
754.730415	-79.591903
754.920467	-73.370950
755.110615	-69.597846
755.300858	-64.543627
755.491198	-67.350668
755.681633	-68.426189
755.872164	-77.349608
756.062792	-71.642586
756.253515	-71.208855
756.444335	-67.513050
756.635252	-68.542739
756.826264	-78.780096
757.017373	-76.867054
757.208579	-67.877567
757.399881	-68.877216
757.591280	-72.617302
757.782776	-69.756555
757.974368	-72.955150
758.166058	-73.692124
758.357844	-66.135966
758.549728	-64.750865
758.741708	-64.938636
758.933786	-68.848132
759.125961	-81.068692
759.318233	-70.275386
759.510603	-64.443187
759.703071	-65.819163
759.895635	-71.511897
760.088298	-76.177146
760.281058	-65.248290
760.473916	-64.762315
760.666872	-67.051142
760.859926	-75.154729
761.053078	-69.392902
761.246328	-64.707422
761.439676	-62.900080
761.633122	-63.770324
761.826667	-68.432389
762.020310	-73.741941
762.214052	-65.693953
762.407892	-64.370629
762.601831	-66.109658
762.795868	-68.424286
762.990004	-68.596760
763.184239	-70.471535
763.378573	-69.059821
763.573006	-63.620273
763.767538	-62.601190
763.962169	-65.702258
764.156900	-69.712291
764.351729	-62.945994
764.546658	-62.505937
764.741687	-68.764016
764.936815	-67.137426
765.132042	-63.801082
765.327370	-61.368701
765.522797	-62.185827
765.718324	-67.737404
765.913950	-65.269782
766.109677	-60.446612
766.305504	-60.899502
766.501431	-67.601322
766.697458	-66.564524
766.893586	-60.775298
767.089814	-61.078838
767.286142	-64.426653
767.482571	-66.197270
767.679100	-62.126002
767.875730	-58.746614
768.072461	-59.750849
768.269293	-64.201973
768.466225	-64.874614
768.663259	-62.669504
768.860393	-60.325252
769.057629	-59.032092
769.254966	-61.251556
769.452404	-66.463476
769.649944	-60.316092
769.847585	-58.938885
770.045328	-60.840708
770.243172	-61.046513
770.441118	-58.680476
770.639166	-57.779296
770.837315	-59.436926
771.035567	-60.686263
771.233920	-57.754323
771.432376	-57.392380
771.630934	-63.229173
771.829594	-64.077947
772.028356	-55.949912
772.227220	-54.431857
772.426188	-55.745209
772.625257	-61.596046
772.824430	-63.907514
773.023705	-58.529952
773.223083	-56.693518
773.422563	-56.948878
773.622147	-59.497299
773.821834	-59.721361
774.021624	-57.998187
774.221517	-57.555692
774.421513	-57.385513
774.621613	-58.353182
774.821816	-58.960428
775.022122	-58.352107
775.222532	-57.613527
775.423046	-55.279197
775.623664	-54.574657
775.824385	-57.791424
776.025211	-59.373951
776.226140	-57.196523
776.427173	-56.531432
776.628311	-56.213431
776.829553	-57.514339
777.030899	-59.134425
777.232350	-57.015667
777.433905	-56.232457
777.635564	-57.384352
777.837328	-56.033147
778.039197	-55.148402
778.241171	-56.852089
778.443250	-55.897890
778.645433	-54.684464
778.847722	-56.839870
779.050116	-58.078123
779.252615	-55.868502
779.455219	-54.164214
779.657929	-54.653874
779.860744	-56.631846
780.063665	-56.753207
780.266691	-55.435534
780.469823	-54.724588
780.673061	-55.468890
780.876405	-57.305820
781.079855	-55.563937
781.283410	-54.487870
781.487072	-54.965913
781.690840	-54.718583
781.894715	-54.482656
782.098695	-54.322075
782.302783	-54.072768
782.506976	-55.098665
782.711277	-55.969060
782.915684	-54.924420
783.120198	-53.726034
783.324818	-53.722986
783.529546	-54.189572
783.734381	-54.448067
783.939322	-54.467433
784.144372	-55.530781
784.349528	-56.362640
784.554792	-53.675763
784.760163	-52.729287
784.965642	-54.147380
785.171228	-54.124677
785.376922	-54.041108
785.582724	-53.737250
785.788634	-53.962308
785.994651	-55.435853
786.200777	-53.549780
786.407011	-51.922611
786.613353	-52.690904
786.819804	-54.802065
787.026363	-54.512456
787.233030	-52.293284
787.439806	-53.716067
787.646691	-55.483424
787.853684	-52.911565
788.060786	-51.993219
788.267997	-52.835849
788.475317	-53.844551
788.682746	-53.845391
788.890285	-52.334515
789.097932	-52.103760
789.305689	-54.704621
789.513555	-54.288423
789.721531	-50.919844
789.929617	-52.301777
790.137812	-55.831967
790.346117	-52.470607
790.554531	-51.204023
790.763056	-52.348888
790.971691	-54.893578
791.180436	-55.085428
791.389291	-51.659998
791.598256	-52.186888
791.807332	-53.567440
792.016518	-51.413616
792.225815	-50.759265
792.435222	-52.007569
792.644740	-53.441444
792.854369	-52.943564
793.064109	-51.121383
793.273960	-52.082424
793.483922	-54.440088
793.693995	-53.018700
793.904180	-51.993045
794.114475	-52.062364
794.324882	-51.477111
794.535401	-51.413869
794.746031	-51.579503
794.956774	-52.681259
795.167627	-53.629631
795.378593	-52.044881
795.589671	-51.093983
795.800861	-51.140556
796.012162	-51.974953
796.223577	-52.263813
796.435103	-51.876827
796.646742	-52.004632
796.858493	-51.413477
797.070357	-51.963786
797.282334	-53.003555
797.494423	-51.890877
797.706626	-51.022570
797.918941	-51.094362
798.131369	-51.912373
798.343911	-51.511469
798.556566	-50.798013
798.769334	-51.545383
798.982215	-51.924265
799.195210	-52.624343
799.408319	-52.102322
799.621541	-51.074950
799.834877	-51.939400
800.048327	-52.119218
800.261890	-50.945820
800.475568	-49.910568
800.689360	-50.571923
800.903266	-51.378893
801.117287	-51.486452
801.331422	-51.645247
801.545671	-50.333268
801.760036	-51.394660
801.974514	-53.035604
802.189108	-51.397417
802.403816	-50.163450
802.618640	-50.483081
802.833578	-51.844551
803.048632	-50.932103
803.263800	-49.773742
803.479085	-50.551597
803.694484	-51.733809
803.909999	-52.621928
804.125630	-50.851644
804.341376	-49.930193
804.557239	-51.425707
804.773217	-52.345619
804.989311	-51.202500
805.205521	-49.967603
805.421847	-50.358927
805.638290	-50.395065
805.854849	-50.852337
806.071524	-51.483737
806.288316	-50.411142
806.505225	-50.327335
806.722250	-51.242580
806.939393	-51.869857
807.156652	-51.260110
807.374028	-50.058510
807.591521	-49.476676
807.809132	-50.568373
808.026859	-51.805197
808.244705	-50.579311
808.462667	-50.989850
808.680748	-50.767125
808.898946	-49.426636
809.117261	-50.140291
809.335695	-51.164446
809.554246	-50.872257
809.772916	-49.619326
809.991704	-50.455662
810.210610	-51.801377
810.429634	-50.409865
810.648777	-49.255454
810.868039	-50.094461
811.087419	-52.069773
811.306918	-51.710704
811.526535	-50.049500
811.746272	-49.386772
811.966127	-50.244615
812.186102	-50.966932
812.406196	-50.869632
812.626409	-50.460210
812.846742	-49.597161
813.067194	-49.624591
813.287766	-50.725790
813.508457	-52.140168
813.729269	-50.318862
813.950200	-48.775877
814.171251	-49.643419
814.392422	-51.117543
814.613714	-51.536021
814.835126	-49.930597
815.056658	-49.618215
815.278311	-50.110155
815.500084	-50.269309
815.721978	-50.356043
815.943993	-50.175361
816.166128	-50.512936
816.388385	-49.726207
816.610762	-49.989228
816.833261	-50.556610
817.055881	-50.018358
817.278623	-49.876218
817.501486	-50.344606
817.724471	-50.226532
817.947577	-49.815180
818.170805	-50.517744
818.394155	-50.573899
818.617627	-50.039498
818.841221	-49.611716
819.064937	-50.697713
819.288775	-50.328928
819.512736	-48.815494
819.736819	-49.537182
819.961025	-50.548008
820.185354	-50.421767
820.409805	-49.404406
820.634379	-49.737586
820.859076	-50.924960
821.083897	-49.972049
821.308840	-49.265158
821.533907	-49.757474
821.759097	-50.719201
821.984411	-49.926721
822.209848	-49.885752
822.435409	-50.543193
822.661093	-49.486162
822.886902	-48.563097
823.112834	-49.703028
823.338891	-51.469416
823.565072	-49.349215
823.791377	-49.151232
824.017807	-50.191532
824.244361	-49.908411
824.471039	-49.105557
824.697843	-50.236224
824.924771	-51.250048
825.151824	-48.243378
825.379002	-48.090743
825.606306	-49.578161
825.833734	-51.080890
826.061288	-49.371250
826.288967	-49.051111
826.516772	-49.403774
826.744703	-48.184432
826.972759	-49.302454
827.200941	-50.146847
827.429249	-49.873901
827.657683	-48.852476
827.886243	-48.777376
828.114930	-48.937823
828.343743	-49.197614
828.572682	-49.161834
828.801748	-49.086753
829.030941	-48.547690
829.260260	-48.186536
829.489706	-49.411562
829.719280	-48.296325
829.948980	-48.935101
830.178808	-49.644682
830.408763	-49.006888
830.638845	-48.366477
830.869055	-47.573581
831.099393	-48.458873
831.329858	-48.439185
831.560451	-48.884178
831.791173	-49.030909
832.022022	-47.764584
832.252999	-47.524646
832.484105	-48.938846
832.715339	-48.433804
832.946702	-46.913316
833.178193	-47.561856
833.409813	-48.763586
833.641561	-47.882950
833.873439	-46.542011
834.105445	-47.821781
834.337581	-48.006926
834.569846	-46.925561
834.802241	-47.834817
835.034764	-48.253680
835.267418	-46.945231
835.500201	-46.206929
835.733114	-47.825974
835.966157	-47.352486
836.199329	-46.311062
836.432632	-47.627809
836.666065	-47.533095
836.899629	-45.570314
837.133323	-45.963026
837.367147	-47.794501
837.601102	-46.369114
837.835188	-45.766122
838.069405	-46.997124
838.303752	-46.651737
838.538231	-45.176400
838.772841	-45.756235
839.007582	-46.880359
839.242455	-45.673310
839.477459	-45.441093
839.712595	-46.659411
839.947863	-45.832868
840.183263	-45.268544
840.418794	-45.663144
840.654458	-45.727036
840.890254	-45.200537
841.126182	-45.479918
841.362242	-46.010186
841.598435	-44.770077
841.834761	-44.854346
842.071220	-45.067774
842.307811	-44.927474
842.544536	-44.404651
842.781393	-45.264066
843.018384	-45.182902
843.255508	-44.376812
843.492765	-44.707888
843.730156	-44.379203
843.967681	-44.374900
844.205339	-44.175472
844.443132	-44.510794
844.681058	-44.070734
844.919118	-44.240430
845.157313	-44.161273
845.395642	-44.112026
845.634105	-43.328287
845.872703	-43.409440
846.111436	-43.822916
846.350303	-43.990127
846.589306	-44.137698
846.828443	-43.070093
847.067716	-43.335317
847.307124	-42.938971
847.546667	-43.563282
847.786345	-43.471259
848.026160	-43.430110
848.266110	-42.989534
848.506195	-43.076256
848.746417	-43.365074
848.986775	-42.418145
849.227269	-42.329023
849.467899	-43.275905
849.708666	-43.156014
849.949569	-41.969518
850.190609	-42.566998
850.431785	-42.550735
850.673099	-41.857727
850.914549	-42.225384
851.156137	-43.084010
851.397861	-41.923064
851.639723	-41.830942
851.881723	-42.700404
852.123860	-41.777981
852.366135	-41.100828
852.608547	-42.647535
852.851098	-41.753506
853.093786	-40.844061
853.336613	-41.760420
853.579578	-42.308254
853.822681	-40.906746
854.065923	-41.165980
854.309304	-42.327584
854.552823	-40.761653
854.796481	-40.933598
855.040278	-41.730214
855.284215	-41.522864
855.528290	-40.703153
855.772505	-41.383200
856.016859	-41.168467
856.261353	-40.343503
856.505987	-40.490465
856.750760	-41.669758
856.995673	-40.588726
857.240727	-40.302557
857.485920	-40.799886
857.731254	-40.910703
857.976729	-40.369065
858.222343	-40.698553
858.468099	-40.714986
858.713995	-39.909766
858.960032	-39.969429
859.206211	-40.475644
859.452530	-40.810910
859.698991	-39.649309
859.945593	-40.098860
860.192336	-40.127054
860.439222	-39.731894
860.686248	-39.695446
860.933417	-40.535596
861.180728	-40.104777
861.428181	-39.334668
861.675776	-39.672270
861.923514	-40.091962
862.171394	-39.246228
862.419417	-39.391054
862.667582	-39.724235
862.915890	-39.705028
863.164342	-39.371967
863.412936	-39.705824
863.661674	-39.767671
863.910555	-39.118359
864.159579	-38.970091
864.408747	-39.455678
864.658059	-39.319828
864.907515	-38.949490
865.157114	-38.986355
865.406858	-39.586349
865.656746	-39.070357
865.906778	-38.641126
866.156955	-39.378285
866.407277	-39.201577
866.657743	-38.334310
866.908354	-38.429924
867.159110	-39.472762
867.410011	-38.558944
867.661057	-38.567422
867.912249	-38.840691
868.163586	-38.935912
868.415069	-38.407413
868.666697	-38.507127
868.918472	-38.592626
869.170392	-38.786900
869.422458	-38.095928
869.674671	-38.289711
869.927030	-38.696880
870.179536	-38.638169
870.432188	-37.862663
870.684987	-38.450145
870.937933	-38.471242
871.191026	-38.177838
871.444266	-37.863273
871.697653	-38.646045
871.951188	-38.246046
872.204870	-38.091266
872.458700	-38.013062
872.712677	-37.899043
872.966803	-38.096159
873.221076	-38.176651
873.475498	-37.558598
873.730068	-38.212907
873.984787	-37.890270
874.239654	-37.698660
874.494669	-37.929698
874.749834	-37.844393
875.005147	-37.496263
875.260610	-38.163080
875.516222	-37.597014
875.771983	-37.587359
876.027894	-37.581394
876.283954	-37.539963
876.540164	-37.682181
876.796524	-37.723252
877.053033	-37.200932
877.309693	-37.474004
877.566503	-37.449506
877.823464	-37.513918
878.080575	-37.150148
878.337837	-37.531607
878.595249	-37.200966
878.852813	-37.403755
879.110528	-37.225354
879.368393	-36.998116
879.626410	-37.309867
879.884579	-37.282514
880.142899	-37.036498
880.401371	-37.084007
880.659994	-37.174889
880.918770	-36.964826
881.177698	-37.135346
881.436778	-36.807058
881.696010	-37.026488
881.955395	-37.039027
882.214933	-36.687727
882.474623	-36.819684
882.734467	-37.104814
882.994463	-36.501454
883.254613	-36.877343
883.514916	-36.640095
883.775372	-36.806002
884.035982	-36.703897
884.296746	-36.622714
884.557664	-36.270723
884.818735	-37.026466
885.079961	-36.186419
885.341341	-36.591618
885.602876	-36.417171
885.864565	-36.441319
886.126409	-36.179318
886.388407	-36.496698
886.650561	-35.988603
886.912870	-36.395534
887.175334	-36.041339
887.437953	-36.153440
887.700728	-36.034976
887.963658	-36.169729
888.226745	-35.795121
888.489987	-36.283254
888.753385	-35.693893
889.016940	-35.926809
889.280651	-35.845044
889.544518	-36.091527
889.808543	-35.519627
890.072723	-36.085038
890.337061	-35.443347
890.601556	-35.966916
890.866208	-35.624993
891.131017	-35.543310
891.395984	-35.857378
891.661109	-35.603209
891.926391	-35.372160
892.191831	-35.745949
892.457429	-35.176368
892.723186	-35.725121
892.989100	-35.268070
893.255173	-35.341963
893.521405	-35.478717
893.787796	-35.087344
894.054345	-35.236997
894.321053	-35.366671
894.587921	-34.885681
894.854948	-35.358221
895.122134	-35.014146
895.389480	-35.140645
895.656986	-35.089438
895.924651	-34.827350
896.192477	-34.908001
896.460463	-35.052334
896.728609	-34.827453
896.996915	-34.768027
897.265382	-34.985169
897.534010	-34.616249
897.802799	-35.046339
898.071749	-34.664568
898.340860	-34.547922
898.610132	-34.760671
898.879566	-34.461122
899.149162	-34.716925
899.418919	-34.564052
899.688838	-34.307086
899.958919	-34.673038
900.229162	-34.325728
900.499568	-34.417577
900.770136	-34.399967
901.040867	-34.050071
901.311761	-34.653879
901.582817	-33.921291
901.854037	-34.343272
902.125420	-34.071555
902.396966	-34.235735
902.668676	-34.048489
902.940550	-34.039284
903.212587	-33.871217
903.484788	-34.176252
903.757153	-33.894818
904.029683	-33.746297
904.302377	-34.020882
904.575236	-33.616762
904.848259	-33.920973
905.121447	-33.654446
905.394800	-33.595315
905.668319	-33.810604
905.942002	-33.439379
906.215852	-33.473208
906.489866	-33.738189
906.764047	-33.208338
907.038393	-33.740912
907.312906	-33.148187
907.587584	-33.392308
907.862429	-33.417128
908.137441	-33.139770
908.412619	-33.354017
908.687964	-33.158906
908.963476	-32.999789
909.239155	-33.313003
909.515002	-32.867506
909.791015	-33.132723
910.067197	-33.005011
910.343546	-32.712361
910.620063	-33.167924
910.896748	-32.542447
911.173601	-32.974179
911.450623	-32.706493
911.727813	-32.594059
912.005171	-32.839987
912.282699	-32.473228
912.560395	-32.595837
912.838261	-32.660747
913.116296	-32.364621
913.394500	-32.680148
913.672874	-32.263848
913.951418	-32.457468
914.230131	-32.444046
914.509015	-32.311225
914.788068	-32.333491
915.067292	-32.207689
915.346687	-32.266154
915.626252	-32.213268
915.905988	-32.210179
916.185895	-32.050779
916.465973	-32.093778
916.746223	-31.944433
917.026644	-32.039211
917.307236	-32.053223
917.588000	-31.859927
917.868937	-31.892539
918.150045	-31.730445
918.431325	-31.808201
918.712778	-31.890277
918.994404	-31.603572
919.276202	-31.832846
919.558173	-31.564329
919.840317	-31.521386
920.122634	-31.816767
920.405125	-31.328282
920.687789	-31.867196
920.970627	-31.246297
921.253639	-31.554395
921.536824	-31.476681
921.820184	-31.143938
922.103718	-31.727301
922.387427	-30.967305
922.671310	-31.579238
922.955368	-31.068876
923.239601	-31.074107
923.524009	-31.339811
923.808592	-30.760029
924.093351	-31.430583
924.378285	-30.856251
924.663396	-30.883220
924.948682	-31.143996
925.234144	-30.553687
925.519782	-31.334197
925.805597	-30.553367
926.091589	-31.001560
926.377757	-30.944734
926.664102	-30.509345
926.950624	-31.160272
927.237323	-30.478115
927.524200	-31.010928
927.811255	-30.730907
928.098487	-30.558481
928.385897	-31.117722
928.673485	-30.254263
928.961251	-31.152934
929.249196	-30.281705
929.537319	-30.742793
929.825621	-30.737213
930.114102	-30.320081
930.402762	-30.977229
930.691601	-30.078441
930.980620	-30.815436
931.269818	-30.322959
931.559196	-30.389526
931.848753	-30.586894
932.138491	-30.191731
932.428409	-30.673659
932.718508	-30.127413
933.008787	-30.460834
933.299246	-30.331399
933.589887	-30.206254
933.880709	-30.453283
934.171712	-30.115189
934.462896	-30.551998
934.754262	-30.066667
935.045810	-30.268437
935.337539	-30.238775
935.629451	-30.069257
935.921545	-30.246173
936.213822	-29.996552
936.506281	-30.151085
936.798922	-30.115639
937.091747	-29.888755
937.384755	-30.216226
937.677946	-29.736184
937.971321	-29.986257
938.264879	-29.832430
938.558621	-29.833881
938.852547	-29.840440
939.146657	-29.653778
939.440952	-29.869814
939.735431	-29.675571
940.030095	-29.664904
940.324943	-29.723402
940.619977	-29.579108
940.915196	-29.753194
941.210600	-29.491247
941.506189	-29.731139
941.801965	-29.506645
942.097926	-29.617176
942.394074	-29.645964
942.690407	-29.428795
942.986927	-29.668981
943.283634	-29.397782
943.580527	-29.660277
943.877608	-29.326893
944.174875	-29.510479
944.472330	-29.440249
944.769972	-29.381900
945.067802	-29.386127
945.365820	-29.307068
945.664026	-29.393624
945.962420	-29.245553
946.261002	-29.278478
946.559773	-29.264632
946.858733	-29.177468
947.157881	-29.300077
947.457219	-29.084817
947.756746	-29.295477
948.056462	-29.104124
948.356368	-29.211090
948.656464	-29.197913
948.956749	-29.061850
949.257225	-29.283625
949.557891	-29.055778
949.858748	-29.269832
950.159796	-29.056157
950.461034	-29.222979
950.762463	-29.130613
951.064084	-29.235158
951.365896	-29.033820
951.667900	-29.270117
951.970095	-29.009396
952.272483	-29.260772
952.575063	-29.000319
952.877835	-29.165680
953.180799	-29.037082
953.483956	-29.094144
953.787307	-29.011081
954.090850	-29.029882
954.394586	-28.994671
954.698516	-29.061673
955.002640	-28.879395
955.306957	-29.000791
955.611469	-28.919253
955.916174	-29.059180
956.221074	-28.794763
956.526169	-29.104934
956.831458	-28.789772
957.136942	-29.122356
957.442622	-28.793105
957.748496	-29.070673
958.054567	-28.976112
958.360833	-28.831786
958.667294	-29.210550
958.973952	-28.726678
959.280806	-29.198893
959.587857	-28.838944
959.895104	-28.973760
960.202548	-29.164166
960.510189	-28.618770
960.818027	-29.341199
961.126062	-28.568333
961.434295	-29.225593
961.742726	-28.742132
962.051355	-28.859693
962.360182	-28.978343
962.669207	-28.630250
962.978431	-28.976768
963.287854	-28.642905
963.597475	-28.807041
963.907296	-28.701729
964.217315	-28.661126
964.527535	-28.696590
964.837954	-28.630778
965.148573	-28.600445
965.459392	-28.665194
965.770411	-28.521085
966.081630	-28.642767
966.393051	-28.549285
966.704672	-28.514116
967.016494	-28.646881
967.328517	-28.397082
967.640742	-28.744954
967.953169	-28.326299
968.265797	-28.742632
968.578627	-28.371984
968.891660	-28.581379
969.204895	-28.582463
969.518332	-28.393729
969.831972	-28.684052
970.145816	-28.352260
970.459862	-28.603626
970.774112	-28.448271
971.088565	-28.469243
971.403223	-28.502263
971.718084	-28.447624
972.033149	-28.381911
972.348419	-28.557015
972.663893	-28.278649
972.979572	-28.486437
973.295456	-28.379202
973.611546	-28.241727
973.927840	-28.584931
974.244340	-28.069689
974.561046	-28.542744
974.877958	-28.165790
975.195076	-28.311290
975.512401	-28.323452
975.829932	-28.195504
976.147670	-28.288183
976.465615	-28.249934
976.783767	-28.181097
977.102126	-28.293093
977.420693	-28.156611
977.739468	-28.212814
978.058451	-28.253790
978.377642	-28.121228
978.697041	-28.239148
979.016649	-28.214622
979.336466	-28.100484
979.656492	-28.325673
979.976727	-28.029884
980.297171	-28.292929
980.617825	-28.118108
980.938689	-28.198671
981.259763	-28.164665
981.581048	-28.153848
981.902542	-28.163076
982.224248	-28.198934
982.546164	-28.045298
982.868291	-28.272396
983.190630	-27.952692
983.513180	-28.269300
983.835942	-27.969996
984.158916	-28.174007
984.482101	-27.979779
984.805500	-28.095158
985.129110	-27.952592
985.452934	-28.105689
985.776970	-27.832702
986.101220	-28.033461
986.425683	-27.880823
986.750359	-27.831528
987.075250	-27.949045
987.400354	-27.733449
987.725673	-27.802183
988.051206	-27.764476
988.376954	-27.697567
988.702916	-27.670060
989.029094	-27.727122
989.355487	-27.447357
989.682095	-27.778716
990.008919	-27.365109
990.335959	-27.653190
990.663216	-27.384917
990.990688	-27.531973
991.318377	-27.346761
991.646283	-27.453549
991.974406	-27.295947
992.302746	-27.423615
992.631304	-27.237521
992.960079	-27.335494
993.289072	-27.242731
993.618283	-27.219637
993.947713	-27.284226
994.277361	-27.112304
994.607227	-27.215641
994.937313	-27.142699
995.267618	-27.046421
995.598142	-27.170900
995.928886	-27.076650
996.259849	-26.946563
996.591033	-27.118744
996.922437	-26.944168
997.254061	-26.869449
997.585906	-27.100393
997.917972	-26.730691
998.250260	-26.925278
998.582768	-26.894419
998.915498	-26.658322
999.248450	-26.880419
999.581624	-26.715631
999.915020	-26.615977
1000.248639	-26.748119
1000.582480	-26.623934
1000.916545	-26.494002
1001.250832	-26.717292
1001.585343	-26.421913
1001.920077	-26.515852
1002.255035	-26.536565
1002.590218	-26.372344
1002.925624	-26.384021
1003.261255	-26.540526
1003.597111	-26.118379
1003.933192	-26.606675
1004.269497	-26.055280
1004.606029	-26.498402
1004.942785	-26.089699
1005.279768	-26.369382
1005.616977	-26.101428
1005.954412	-26.278959
1006.292074	-26.072900
1006.629962	-26.210173
1006.968077	-26.076917
1007.306420	-26.028619
1007.644990	-26.174591
1007.983787	-25.910500
1008.322813	-25.987456
1008.662067	-26.093885
1009.001549	-25.715062
1009.341259	-26.042056
1009.681199	-25.839755
1010.021367	-25.702905
1010.361765	-25.875570
1010.702392	-25.733998
1011.043250	-25.586972
1011.384337	-25.732638
1011.725654	-25.629640
1012.067202	-25.442421
1012.408980	-25.594845
1012.750989	-25.519186
1013.093230	-25.233917
1013.435702	-25.604650
1013.778405	-25.182972
1014.121341	-25.331944
1014.464508	-25.228000
1014.807908	-25.242932
1015.151540	-25.043838
1015.495405	-25.180927
1015.839503	-25.053161
1016.183835	-24.938439
1016.528400	-25.015703
1016.873198	-24.920180
1017.218231	-24.790860
1017.563498	-24.914514
1017.908999	-24.701753
1018.254735	-24.765325
1018.600707	-24.673102
1018.946913	-24.627584
1019.293354	-24.602129
1019.640032	-24.561865
1019.986945	-24.462153
1020.334094	-24.537025
1020.681480	-24.388890
1021.029102	-24.358136
1021.376961	-24.415550
1021.725058	-24.295292
1022.073391	-24.194943
1022.421962	-24.387507
1022.770772	-24.148251
1023.119819	-24.102668
1023.469104	-24.294937
1023.818628	-24.078985
1024.168391	-23.952846
1024.518393	-24.323516
1024.868634	-23.870174
1025.219115	-24.035212
1025.569836	-24.082806
1025.920796	-23.914555
1026.271997	-23.925501
1026.623438	-23.960309
1026.975121	-23.953312
1027.327044	-23.733950
1027.679208	-24.000092
1028.031614	-23.755104
1028.384262	-23.765390
1028.737152	-23.831908
1029.090284	-23.664644
1029.443659	-23.763235
1029.797276	-23.615022
1030.151137	-23.660124
1030.505240	-23.624601
1030.859587	-23.522712
1031.214178	-23.553057
1031.569013	-23.474724
1031.924093	-23.518368
1032.279417	-23.294782
1032.634985	-23.523034
1032.990799	-23.304214
1033.346858	-23.267874
1033.703162	-23.331480
1034.059712	-23.263224
1034.416509	-23.141022
1034.773551	-23.163338
1035.130841	-23.214201
1035.488377	-23.029052
1035.846160	-22.957873
1036.204190	-23.196492
1036.562468	-22.845646
1036.920994	-22.875659
1037.279768	-23.020123
1037.638790	-22.778412
1037.998061	-22.735715
1038.357581	-22.820523
1038.717350	-22.730054
1039.077368	-22.586960
1039.437636	-22.661605
1039.798154	-22.648927
1040.158922	-22.487765
1040.519940	-22.465236
1040.881209	-22.573029
1041.242729	-22.342959
1041.604501	-22.408237
1041.966524	-22.356552
1042.328798	-22.333015
1042.691325	-22.267782
1043.054103	-22.201752
1043.417135	-22.269206
1043.780419	-22.175483
1044.143956	-22.068513
1044.507746	-22.195357
1044.871791	-22.055527
1045.236088	-22.011637
1045.600641	-22.065002
1045.965447	-21.966243
1046.330508	-21.978530
1046.695824	-21.939156
1047.061395	-21.862422
1047.427222	-21.943244
1047.793304	-21.870512
1048.159642	-21.712781
1048.526237	-21.928893
1048.893088	-21.781962
1049.260196	-21.662378
1049.627561	-21.782194
1049.995183	-21.794580
1050.363063	-21.587065
1050.731201	-21.644720
1051.099597	-21.777030
1051.468251	-21.561282
1051.837164	-21.516390
1052.206336	-21.705471
1052.575767	-21.565620
1052.945458	-21.435540
1053.315409	-21.583767
1053.685619	-21.520670
1054.056090	-21.455771
1054.426821	-21.398680
1054.797814	-21.481714
1055.169067	-21.450276
1055.540582	-21.275932
1055.912359	-21.358509
1056.284398	-21.447617
1056.656698	-21.193135
1057.029262	-21.241757
1057.402088	-21.364578
1057.775177	-21.142941
1058.148530	-21.160605
1058.522146	-21.218840
1058.896027	-21.101714
1059.270171	-21.099861
1059.644580	-21.070409
1060.019254	-21.002012
1060.394193	-21.072860
1060.769397	-20.932021
1061.144867	-20.899724
1061.520602	-20.969426
1061.896604	-20.865680
1062.272872	-20.775600
1062.649407	-20.854932
1063.026210	-20.771405
1063.403279	-20.683665
1063.780616	-20.746904
1064.158221	-20.631219
1064.536094	-20.641879
1064.914235	-20.620848
1065.292645	-20.511928
1065.671325	-20.560194
1066.050273	-20.570496
1066.429491	-20.365079
1066.808979	-20.457594
1067.188738	-20.532243
1067.568766	-20.302037
1067.949066	-20.301409
1068.329636	-20.439169
1068.710478	-20.313174
1069.091592	-20.176300
1069.472977	-20.296892
1069.854635	-20.287350
1070.236565	-20.156086
1070.618768	-20.121973
1071.001243	-20.235644
1071.383993	-20.142296
1071.767016	-20.037092
1072.150313	-20.112414
1072.533884	-20.127170
1072.917730	-20.026986
1073.301850	-19.991609
1073.686246	-20.062680
1074.070917	-20.019972
1074.455864	-19.967549
1074.841087	-19.926380
1075.226586	-19.989332
1075.612362	-19.962878
1075.998415	-19.854240
1076.384745	-19.867257
1076.771353	-19.945644
1077.158238	-19.832588
1077.545401	-19.742758
1077.932843	-19.870560
1078.320564	-19.812380
1078.708564	-19.691326
1079.096842	-19.726709
1079.485401	-19.795459
1079.874240	-19.671448
1080.263358	-19.610102
1080.652757	-19.701696
1081.042438	-19.687024
1081.432399	-19.545285
1081.822641	-19.557414
1082.213166	-19.648366
1082.603972	-19.542214
1082.995061	-19.440333
1083.386433	-19.487541
1083.778087	-19.547794
1084.170025	-19.383518
1084.562246	-19.319362
1084.954751	-19.418591
1085.347541	-19.380615
1085.740615	-19.236063
1086.133973	-19.214050
1086.527617	-19.324442
1086.921546	-19.211401
1087.315761	-19.105356
1087.710262	-19.170061
1088.105050	-19.190473
1088.500124	-19.072376
1088.895485	-19.043995
1089.291134	-19.117184
1089.687070	-19.061032
1090.083294	-18.965207
1090.479806	-19.013610
1090.876607	-19.039777
1091.273696	-18.916352
1091.671075	-18.900345
1092.068744	-18.953611
1092.466702	-18.921787
1092.864950	-18.805791
1093.263489	-18.813826
1093.662319	-18.881581
1094.061440	-18.801712
1094.460852	-18.720050
1094.860555	-18.742284
1095.260551	-18.798445
1095.660840	-18.739975
1096.061421	-18.651954
1096.462295	-18.704512
1096.863462	-18.744212
1097.264923	-18.703729
1097.666678	-18.621244
1098.068727	-18.669596
1098.471071	-18.711123
1098.873710	-18.645345
1099.276644	-18.584490
1099.679874	-18.618956
1100.083400	-18.626684
1100.487222	-18.533191
1100.891340	-18.509386
1101.295756	-18.503376
1101.700468	-18.474363
1102.105478	-18.378598
1102.510787	-18.365644
1102.916393	-18.351549
1103.322298	-18.284548
1103.728502	-18.214405
1104.135005	-18.199315
1104.541807	-18.209038
1104.948909	-18.119233
1105.356312	-18.077555
1105.764015	-18.082155
1106.172019	-18.091427
1106.580324	-18.030319
1106.988931	-17.991178
1107.397840	-18.015068
1107.807051	-18.024783
1108.216564	-17.988581
1108.626380	-17.944020
1109.036500	-17.967066
1109.446923	-17.989705
1109.857649	-17.932162
1110.268680	-17.902810
1110.680016	-17.906069
1111.091657	-17.921860
1111.503602	-17.857032
1111.915854	-17.814532
1112.328411	-17.818461
1112.741275	-17.817483
1113.154445	-17.765689
1113.567922	-17.691613
1113.981706	-17.723017
1114.395798	-17.720969
1114.810198	-17.673804
1115.224906	-17.614811
1115.639923	-17.640740
1116.055249	-17.686514
1116.470884	-17.636587
1116.886829	-17.604671
1117.303084	-17.637076
1117.719650	-17.711756
1118.136526	-17.681642
1118.553713	-17.660183
1118.971212	-17.706843
1119.389022	-17.773274
1119.807145	-17.774680
1120.225580	-17.730000
1120.644328	-17.786519
1121.063389	-17.819924
1121.482763	-17.820422
1121.902452	-17.752114
1122.322454	-17.766917
1122.742771	-17.794127
1123.163404	-17.730288
1123.584351	-17.668275
1124.005614	-17.614186
1124.427193	-17.612095
1124.849089	-17.541681
1125.271301	-17.444861
1125.693830	-17.365566
1126.116677	-17.333181
1126.539842	-17.279306
1126.963324	-17.174930
1127.387126	-17.093034
1127.811246	-17.052247
1128.235685	-17.027875
1128.660444	-16.935459
1129.085522	-16.872412
1129.510922	-16.855946
1129.936641	-16.829602
1130.362682	-16.782103
1130.789044	-16.742718
1131.215728	-16.728199
1131.642734	-16.715414
1132.070063	-16.713495
1132.497714	-16.666448
1132.925689	-16.640641
1133.353987	-16.657912
1133.782610	-16.649657
1134.211556	-16.611322
1134.640827	-16.570443
1135.070424	-16.557707
1135.500345	-16.560770
1135.930593	-16.534658
1136.361166	-16.461402
1136.792067	-16.421459
1137.223294	-16.420001
1137.654848	-16.399991
1138.086730	-16.328120
1138.518940	-16.271468
1138.951479	-16.253649
1139.384346	-16.242019
1139.817543	-16.191284
1140.251069	-16.125620
1140.684925	-16.125921
1141.119111	-16.119285
1141.553628	-16.082823
1141.988475	-16.026608
1142.423655	-16.045068
1142.859166	-16.067476
1143.295009	-16.040617
1143.731185	-16.003526
1144.167694	-16.021108
1144.604536	-16.071055
1145.041711	-16.058571
1145.479221	-16.052273
1145.917065	-16.067447
1146.355245	-16.102482
1146.793759	-16.106457
1147.232609	-16.126544
1147.671795	-16.142993
1148.111317	-16.154626
1148.551177	-16.152595
1148.991373	-16.176976
1149.431907	-16.185298
1149.872779	-16.177448
1150.313989	-16.161515
1150.755538	-16.167559
1151.197426	-16.170814
1151.639653	-16.142356
1152.082220	-16.106387
1152.525128	-16.065263
1152.968376	-16.053284
1153.411966	-16.028601
1153.855897	-16.002030
1154.300169	-15.926861
1154.744784	-15.866794
1155.189742	-15.823175
1155.635042	-15.812441
1156.080687	-15.757121
1156.526674	-15.680550
1156.973007	-15.614978
1157.419683	-15.591509
1157.866705	-15.562264
1158.314072	-15.505454
1158.761786	-15.431555
1159.209845	-15.392663
1159.658251	-15.377564
1160.107004	-15.352721
1160.556104	-15.311904
1161.005553	-15.271846
1161.455349	-15.246410
1161.905494	-15.224767
1162.355989	-15.209930
1162.806832	-15.191841
1163.258026	-15.197357
1163.709570	-15.188342
1164.161464	-15.174454
1164.613710	-15.150180
1165.066307	-15.150468
1165.519256	-15.159859
1165.972558	-15.177006
1166.426212	-15.173122
1166.880219	-15.169386
1167.334580	-15.162449
1167.789295	-15.163894
1168.244364	-15.163114
1168.699788	-15.165188
1169.155567	-15.168929
1169.611702	-15.176763
1170.068193	-15.172438
1170.525041	-15.152634
1170.982245	-15.128065
1171.439807	-15.115041
1171.897726	-15.127135
1172.356004	-15.128470
1172.814640	-15.110219
1173.273635	-15.061469
1173.732989	-15.026010
1174.192703	-15.013667
1174.652778	-15.023945
1175.113213	-15.007904
1175.574009	-14.970698
1176.035167	-14.913737
1176.496687	-14.889784
1176.958569	-14.875952
1177.420814	-14.874848
1177.883422	-14.837990
1178.346394	-14.804259
1178.809730	-14.764092
1179.273430	-14.747703
1179.737496	-14.724912
1180.201927	-14.703834
1180.666723	-14.676471
1181.131886	-14.658842
1181.597416	-14.634821
1182.063312	-14.607237
1182.529576	-14.567390
1182.996209	-14.552369
1183.463209	-14.543284
1183.930579	-14.539342
1184.398317	-14.504237
1184.866426	-14.458012
1185.334904	-14.425642
1185.803754	-14.424108
1186.272974	-14.435127
1186.742566	-14.418222
1187.212529	-14.371035
1187.682865	-14.321266
1188.153574	-14.299922
1188.624656	-14.316647
1189.096112	-14.329000
1189.567942	-14.307720
1190.040147	-14.254707
1190.512726	-14.200502
1190.985681	-14.188772
1191.459012	-14.217167
1191.932720	-14.249784
1192.406804	-14.232792
1192.881265	-14.159830
1193.356104	-14.093090
1193.831322	-14.092337
1194.306918	-14.165248
1194.782893	-14.217723
1195.259248	-14.178622
1195.735982	-14.069103
1196.213097	-14.006374
1196.690593	-14.060622
1197.168471	-14.165790
1197.646730	-14.196447
1198.125371	-14.100549
1198.604395	-13.993822
1199.083803	-13.985069
1199.563594	-14.087849
1200.043769	-14.162169
1200.524329	-14.129776
1201.005273	-14.016745
1201.486604	-13.967220
1201.968320	-14.014039
1202.450422	-14.096378
1202.932912	-14.105597
1203.415789	-14.029991
1203.899054	-13.961550
1204.382707	-13.959203
1204.866748	-14.018773
1205.351179	-14.036922
1205.836000	-14.003557
1206.321211	-13.925784
1206.806812	-13.909134
1207.292805	-13.919284
1207.779189	-13.953673
1208.265965	-13.917534
1208.753134	-13.871488
1209.240696	-13.821949
1209.728651	-13.823755
1210.217000	-13.830257
1210.705744	-13.813708
1211.194883	-13.774240
1211.684417	-13.724385
1212.174347	-13.712885
1212.664673	-13.698137
1213.155396	-13.690371
1213.646516	-13.650611
1214.138034	-13.620325
1214.629951	-13.591491
1215.122266	-13.577267
1215.614980	-13.556628
1216.108095	-13.527228
1216.601609	-13.501564
1217.095524	-13.478623
1217.589841	-13.462158
1218.084559	-13.437650
1218.579679	-13.411090
1219.075202	-13.385400
1219.571128	-13.370633
1220.067458	-13.358206
1220.564191	-13.337540
1221.061330	-13.309669
1221.558874	-13.285847
1222.056823	-13.270683
1222.555178	-13.265506
1223.053940	-13.251542
1223.553109	-13.228569
1224.052686	-13.204645
1224.552671	-13.186319
1225.053065	-13.185007
1225.553867	-13.175892
1226.055079	-13.166895
1226.556702	-13.137630
1227.058735	-13.127641
1227.561179	-13.112001
1228.064035	-13.121205
1228.567303	-13.107953
1229.070983	-13.096905
1229.575077	-13.077197
1230.079585	-13.066640
1230.584506	-13.071435
1231.089842	-13.064219
1231.595594	-13.066329
1232.101761	-13.041900
1232.608345	-13.038405
1233.115345	-13.030115
1233.622762	-13.035334
1234.130597	-13.036135
1234.638851	-13.019496
1235.147523	-13.014626
1235.656615	-13.000718
1236.166126	-13.009965
1236.676058	-13.005341
1237.186411	-12.998845
1237.697185	-12.987827
1238.208381	-12.976236
1238.719999	-12.979815
1239.232040	-12.969629
1239.744505	-12.970455
1240.257394	-12.952174
1240.770708	-12.945315
1241.284446	-12.934981
1241.798610	-12.929773
1242.313201	-12.922226
1242.828218	-12.906857
1243.343662	-12.894791
1243.859534	-12.880363
1244.375834	-12.871562
1244.892563	-12.861072
1245.409721	-12.844399
1245.927309	-12.829096
1246.445327	-12.810865
1246.963777	-12.801311
1247.482657	-12.782833
1248.001970	-12.773125
1248.521716	-12.748749
1249.041894	-12.734943
1249.562506	-12.716432
1250.083553	-12.703189
1250.605034	-12.689222
1251.126950	-12.666274
1251.649302	-12.654110
1252.172091	-12.629597
1252.695316	-12.621556
1253.218979	-12.604288
1253.743079	-12.586071
1254.267619	-12.573784
1254.792597	-12.548454
1255.318015	-12.542773
1255.843874	-12.523639
1256.370173	-12.512233
1256.896913	-12.497270
1257.424095	-12.475409
1257.951720	-12.471145
1258.479787	-12.450685
1259.008298	-12.445403
1259.537254	-12.428072
1260.066654	-12.410195
1260.596499	-12.407021
1261.126790	-12.386874
1261.657527	-12.384453
1262.188711	-12.368608
1262.720342	-12.352492
1263.252422	-12.348936
1263.784950	-12.331719
1264.317928	-12.332343
1264.851355	-12.316359
1265.385232	-12.302626
1265.919560	-12.298677
1266.454340	-12.283991
1266.989572	-12.286839
1267.525256	-12.273095
1268.061394	-12.261600
1268.597985	-12.256930
1269.135031	-12.244755
1269.672531	-12.248061
1270.210487	-12.237123
1270.748899	-12.232000
1271.287768	-12.224032
1271.827094	-12.214153
1272.366877	-12.216317
1272.907119	-12.211047
1273.447820	-12.206790
1273.988981	-12.201351
1274.530601	-12.189769
1275.072683	-12.194302
1275.615226	-12.188087
1276.158230	-12.188705
1276.701697	-12.181374
1277.245627	-12.171580
1277.790021	-12.175467
1278.334879	-12.166963
1278.880202	-12.171241
1279.425991	-12.162925
1279.972245	-12.153187
1280.518966	-12.154143
1281.066155	-12.144373
1281.613811	-12.148262
1282.161936	-12.142618
1282.710529	-12.127536
1283.259593	-12.128547
1283.809126	-12.116353
1284.359131	-12.116660
1284.909607	-12.115572
1285.460555	-12.095803
1286.011976	-12.095469
1286.563870	-12.080827
1287.116237	-12.077019
1287.669080	-12.077606
1288.222397	-12.059510
1288.776191	-12.053293
1289.330460	-12.041483
1289.885207	-12.029732
1290.440431	-12.035150
1290.996133	-12.017336
1291.552314	-12.007824
1292.108975	-11.998652
1292.666115	-11.981623
1293.223737	-11.985094
1293.781839	-11.974858
1294.340424	-11.961214
1294.899491	-11.952518
1295.459041	-11.936430
1296.019075	-11.932391
1296.579593	-11.931426
1297.140597	-11.914202
1297.702086	-11.908426
1298.264061	-11.889547
1298.826524	-11.883770
1299.389474	-11.882778
1299.952912	-11.868450
1300.516839	-11.863202
1301.081255	-11.844525
1301.646162	-11.834946
1302.211559	-11.833742
1302.777448	-11.824266
1303.343829	-11.815393
1303.910702	-11.803424
1304.478069	-11.785956
1305.045930	-11.786996
1305.614285	-11.779377
1306.183136	-11.768433
1306.752483	-11.764525
1307.322326	-11.742484
1307.892666	-11.740420
1308.463504	-11.739887
1309.034841	-11.727237
1309.606677	-11.725810
1310.179012	-11.711795
1310.751849	-11.698551
1311.325186	-11.705465
1311.899025	-11.698254
1312.473366	-11.691037
1313.048211	-11.688768
1313.623559	-11.671093
1314.199412	-11.674006
1314.775770	-11.678208
1315.352634	-11.666213
1315.930004	-11.667170
1316.507881	-11.657945
1317.086266	-11.649334
1317.665159	-11.658807
1318.244562	-11.654604
1318.824474	-11.649233
1319.404897	-11.645850
1319.985831	-11.637356
1320.567276	-11.640674
1321.149234	-11.644312
1321.731706	-11.638292
1322.314691	-11.634219
1322.898190	-11.630854
1323.482205	-11.626095
1324.066736	-11.634245
1324.651783	-11.632223
1325.237347	-11.624032
1325.823430	-11.625851
1326.410031	-11.620136
1326.997151	-11.623239
1327.584791	-11.631027
1328.172952	-11.620911
1328.761634	-11.619621
1329.350839	-11.622596
1329.940566	-11.617483
1330.530817	-11.627129
1331.121592	-11.627627
1331.712891	-11.615537
1332.304716	-11.622062
1332.897068	-11.623932
1333.489946	-11.620648
1334.083352	-11.629188
1334.677287	-11.623783
1335.271750	-11.615653
1335.866744	-11.625038
1336.462268	-11.626329
1337.058323	-11.621333
1337.654910	-11.627445
1338.252029	-11.620107
1338.849682	-11.615798
1339.447869	-11.627578
1340.046591	-11.623632
1340.645848	-11.618205
1341.245641	-11.622992
1341.845972	-11.616302
1342.446840	-11.617041
1343.048246	-11.624305
1343.650191	-11.617437
1344.252677	-11.616014
1344.855702	-11.616422
1345.459269	-11.613725
1346.063379	-11.616393
1346.668030	-11.616736
1347.273226	-11.612829
1347.878965	-11.609084
1348.485250	-11.612191
1349.092080	-11.610459
1349.699456	-11.610441
1350.307380	-11.611096
1350.915851	-11.603585
1351.524871	-11.602740
1352.134441	-11.610246
1352.744560	-11.603123
1353.355231	-11.600736
1353.966453	-11.604049
1354.578227	-11.595855
1355.190555	-11.597541
1355.803436	-11.605161
1356.416872	-11.594068
1357.030863	-11.591647
1357.645411	-11.599149
1358.260515	-11.592387
1358.876177	-11.591086
1359.492397	-11.598401
1360.109176	-11.589936
1360.726516	-11.584667
1361.344416	-11.595849
1361.962877	-11.593161
1362.581901	-11.585544
1363.201487	-11.591350
1363.821637	-11.591695
1364.442352	-11.585105
1365.063632	-11.593120
1365.685478	-11.594895
1366.307891	-11.586363
1366.930871	-11.589687
1367.554420	-11.598067
1368.178538	-11.592835
1368.803226	-11.593766
1369.428485	-11.601128
1370.054315	-11.595163
1370.680717	-11.597741
1371.307693	-11.608970
1371.935242	-11.603331
1372.563366	-11.602232
1373.192065	-11.614431
1373.821341	-11.611162
1374.451193	-11.612459
1375.081623	-11.625666
1375.712632	-11.620637
1376.344221	-11.618495
1376.976389	-11.637186
1377.609139	-11.637375
1378.242470	-11.630480
1378.876384	-11.647745
1379.510881	-11.652447
1380.145963	-11.643998
1380.781629	-11.661162
1381.417881	-11.673159
1382.054720	-11.659705
1382.692147	-11.670944
1383.330161	-11.691592
1383.968765	-11.684198
1384.607959	-11.686080
1385.247743	-11.707931
1385.888119	-11.706683
1386.529087	-11.706860
1387.170648	-11.727678
1387.812804	-11.733717
1388.455554	-11.730260
1389.098899	-11.747085
1389.742842	-11.759634
1390.387381	-11.760494
1391.032519	-11.771628
1391.678256	-11.784715
1392.324592	-11.786522
1392.971529	-11.800510
1393.619068	-11.814073
1394.267208	-11.815315
1394.915952	-11.826520
1395.565300	-11.843211
1396.215253	-11.846719
1396.865812	-11.856216
1397.516977	-11.874430
1398.168749	-11.879705
1398.821130	-11.886112
1399.474120	-11.908814
1400.127719	-11.918772
1400.781930	-11.920552
1401.436752	-11.940787
1402.092186	-11.958382
1402.748234	-11.962360
1403.404897	-11.975056
1404.062174	-11.998227
1404.720067	-12.003864
1405.378577	-12.011826
1406.037705	-12.038725
1406.697451	-12.050372
1407.357817	-12.049086
1408.018803	-12.073948
1408.680410	-12.097057
1409.342639	-12.095544
1410.005492	-12.105831
1410.668968	-12.138794
1411.333068	-12.145550
1411.997795	-12.145208
1412.663147	-12.175627
1413.329127	-12.197612
1413.995736	-12.193256
1414.662973	-12.210038
1415.330840	-12.245638
1415.999339	-12.252121
1416.668469	-12.250885
1417.338232	-12.283105
1418.008628	-12.310999
1418.679659	-12.307800
1419.351325	-12.321723
1420.023628	-12.359463
1420.696568	-12.372930
1421.370145	-12.371232
1422.044362	-12.404232
1422.719219	-12.433647
1423.394717	-12.432903
1424.070856	-12.446467
1424.747638	-12.485609
1425.425064	-12.505460
1426.103134	-12.496569
1426.781850	-12.527430
1427.461212	-12.570064
1428.141221	-12.573232
1428.821878	-12.574823
1429.503185	-12.613623
1430.185141	-12.651531
1430.867749	-12.647463
1431.551008	-12.657927
1432.234920	-12.700527
1432.919486	-12.727304
1433.604707	-12.724899
1434.290583	-12.743695
1434.977116	-12.787979
1435.664307	-12.805768
1436.352156	-12.811732
1437.040664	-12.841734
1437.729833	-12.881568
1438.419663	-12.896664
1439.110156	-12.908640
1439.801312	-12.946121
1440.493132	-12.975631
1441.185617	-12.985488
1441.878768	-13.006601
1442.572586	-13.041564
1443.267072	-13.064596
1443.962228	-13.077885
1444.658053	-13.107501
1445.354549	-13.146445
1446.051717	-13.168000
1446.749558	-13.191894
1447.448073	-13.231488
1448.147263	-13.266148
1448.847128	-13.290155
1449.547671	-13.316870
1450.248891	-13.354353
1450.950789	-13.380166
1451.653368	-13.395897
1452.356627	-13.429035
1453.060568	-13.461171
1453.765192	-13.477413
1454.470500	-13.505503
1455.176492	-13.549228
1455.883170	-13.588775
1456.590534	-13.615902
1457.298586	-13.656211
1458.007327	-13.721131
1458.716758	-13.767942
1459.426880	-13.795200
1460.137693	-13.845428
1460.849199	-13.908251
1461.561398	-13.944393
1462.274293	-13.968092
1462.987883	-14.012391
1463.702170	-14.064677
1464.417155	-14.098305
1465.132838	-14.133337
1465.849222	-14.193011
1466.566306	-14.259853
1467.284093	-14.320879
1468.002582	-14.398278
1468.721775	-14.500392
1469.441674	-14.600284
1470.162278	-14.699680
1470.883590	-14.816355
1471.605609	-14.940042
1472.328338	-15.058140
1473.051777	-15.162485
1473.775928	-15.260324
1474.500790	-15.374255
1475.226367	-15.475991
1475.952657	-15.539034
1476.679663	-15.612861
1477.407386	-15.714841
1478.135826	-15.799831
1478.864985	-15.867089
1479.594863	-15.961585
1480.325463	-16.088386
1481.056784	-16.214949
1481.788828	-16.337859
1482.521597	-16.484237
1483.255090	-16.653973
1483.989309	-16.820983
1484.724256	-16.969587
1485.459931	-17.108367
1486.196336	-17.241157
1486.933471	-17.335297
1487.671337	-17.369595
1488.409937	-17.367657
1489.149270	-17.329847
1489.889337	-17.227977
1490.630141	-17.077470
1491.371682	-16.910539
1492.113961	-16.725589
1492.856979	-16.517105
1493.600738	-16.304243
1494.345238	-16.109653
1495.090481	-15.935753
1495.836467	-15.766570
1496.583198	-15.607984
1497.330675	-15.486573
1498.078899	-15.395281
1498.827872	-15.307961
1499.577593	-15.233780
1500.328065	-15.192055
1501.079289	-15.173124
1501.831265	-15.156981
1502.583995	-15.141849
1503.337480	-15.142620
1504.091721	-15.155354
1504.846719	-15.150237
1505.602475	-15.119220
1506.358991	-15.077103
1507.116268	-15.011352
1507.874306	-14.893505
1508.633108	-14.724617
1509.392673	-14.520357
1510.153004	-14.277756
1510.914101	-13.992086
1511.675965	-13.678744
1512.438599	-13.359605
1513.202002	-13.048237
1513.966176	-12.748733
1514.731122	-12.470586
1515.496842	-12.236721
1516.263336	-12.061678
1517.030607	-11.942041
1517.798654	-11.882805
1518.567479	-11.905773
1519.337083	-12.026439
1520.107468	-12.247431
1520.878634	-12.574383
1521.650584	-13.034418
1522.423317	-13.666540
1523.196836	-14.502371
1523.971141	-15.582125
1524.746233	-16.998857
1525.522115	-18.935467
1526.298786	-21.747198
1527.076249	-26.367109
1527.854504	-38.214241
1528.633553	-31.859646
1529.413397	-23.713091
1530.194037	-19.482005
1530.975474	-16.612346
1531.757709	-14.436946
1532.540745	-12.684969
1533.324581	-11.233813
1534.109220	-10.014616
1534.894662	-8.973144
1535.680909	-8.069558
1536.467961	-7.284881
1537.255821	-6.610166
1538.044489	-6.032352
1538.833967	-5.536595
1539.624256	-5.116560
1540.415357	-4.773320
1541.207271	-4.504183
1542.000000	-4.300871
1542.793545	-4.158417
1543.587907	-4.078127
1544.383087	-4.060639
1545.179088	-4.101589
1545.975909	-4.194979
1546.773552	-4.338451
1547.572019	-4.533304
1548.371311	-4.779103
1549.171428	-5.070661
1549.972373	-5.402328
1550.774147	-5.774893
1551.576751	-6.192365
1552.380185	-6.653344
1553.184453	-7.152344
1553.989554	-7.690748
1554.795490	-8.276242
1555.602263	-8.912019
1556.409873	-9.594993
1557.218322	-10.325979
1558.027612	-11.112924
1558.837743	-11.958926
1559.648717	-12.854242
1560.460536	-13.784097
1561.273200	-14.736582
1562.086710	-15.684568
1562.901069	-16.562328
1563.716278	-17.285603
1564.532337	-17.794723
1565.349249	-18.052628
1566.167014	-18.040443
1566.985634	-17.799333
1567.805111	-17.426262
1568.625444	-17.000532
1569.446637	-16.556215
1570.268690	-16.117211
1571.091605	-15.715822
1571.915382	-15.370691
1572.740024	-15.075312
1573.565532	-14.817980
1574.391907	-14.601077
1575.219150	-14.430957
1576.047262	-14.300825
1576.876246	-14.196192
1577.706103	-14.111027
1578.536833	-14.048545
1579.368439	-14.007996
1580.200922	-13.979151
1581.034282	-13.954082
1581.868522	-13.937099
1582.703643	-13.934021
1583.539646	-13.939183
1584.376532	-13.945060
1585.214304	-13.957501
1586.052962	-13.987427
1586.892508	-14.032940
1587.732943	-14.084348
1588.574269	-14.145643
1589.416487	-14.230222
1590.259599	-14.339278
1591.103605	-14.461022
1591.948508	-14.592999
1592.794309	-14.746038
1593.641009	-14.926574
1594.488609	-15.124598
1595.337112	-15.328311
1596.186518	-15.543887
1597.036829	-15.783900
1597.888047	-16.041478
1598.740172	-16.298679
1599.593207	-16.555435
1600.447153	-16.826323
1601.302010	-17.109568
1602.157782	-17.384642
1603.014469	-17.643753
1603.872072	-17.901281
1604.730593	-18.160738
1605.590034	-18.401075
1606.450397	-18.608810
1607.311681	-18.797188
1608.173890	-18.975163
1609.037024	-19.124811
1609.901085	-19.231013
1610.766075	-19.306764
1611.631995	-19.366691
1612.498846	-19.399290
1613.366630	-19.389374
1614.235349	-19.348908
1615.105004	-19.297938
1615.975596	-19.231044
1616.847128	-19.131337
1617.719600	-19.009398
1618.593014	-18.889207
1619.467372	-18.768521
1620.342675	-18.629262
1621.218924	-18.476879
1622.096122	-18.334313
1622.974270	-18.201702
1623.853369	-18.059844
1624.733420	-17.908199
1625.614427	-17.766300
1626.496389	-17.636997
1627.379308	-17.503251
1628.263187	-17.359355
1629.148026	-17.219058
1630.033828	-17.089575
1630.920593	-16.956897
1631.808324	-16.811538
1632.697022	-16.664605
1633.586688	-16.525377
1634.477324	-16.384163
1635.368932	-16.232813
1636.261514	-16.079457
1637.155070	-15.933584
1638.049602	-15.790161
1638.945113	-15.641579
1639.841603	-15.493431
1640.739075	-15.355863
1641.637529	-15.225741
1642.536968	-15.094834
1643.437393	-14.966794
1644.338806	-14.850502
1645.241209	-14.742964
1646.144602	-14.634658
1647.048988	-14.527182
1647.954368	-14.428873
1648.860744	-14.337914
1649.768118	-14.245195
1650.676491	-14.151050
1651.585865	-14.063586
1652.496241	-13.982875
1653.407621	-13.900827
1654.320008	-13.816245
1655.233401	-13.736842
1656.147804	-13.664332
1657.063218	-13.592868
1657.979645	-13.520244
1658.897085	-13.452762
1659.815542	-13.393477
1660.735016	-13.337356
1661.655509	-13.280701
1662.577023	-13.228029
1663.499560	-13.182048
1664.423121	-13.138033
1665.347709	-13.092877
1666.273324	-13.050328
1667.199969	-13.013233
1668.127645	-12.977572
1669.056353	-12.940858
1669.986097	-12.906793
1670.916877	-12.877471
1671.848695	-12.848871
1672.781553	-12.819528
1673.715452	-12.793245
1674.650395	-12.771664
1675.586383	-12.751441
1676.523418	-12.730582
1677.461501	-12.712266
1678.400635	-12.698562
1679.340821	-12.685193
1680.282061	-12.669814
1681.224357	-12.655847
1682.167710	-12.645484
1683.112122	-12.635169
1684.057595	-12.623317
1685.004132	-12.613289
1685.951732	-12.606913
1686.900400	-12.600662
1687.850135	-12.592858
1688.800940	-12.586872
1689.752818	-12.583565
1690.705768	-12.579767
1691.659795	-12.574348
1692.614898	-12.570572
1693.571081	-12.569266
1694.528345	-12.567334
1695.486691	-12.564244
1696.446122	-12.563013
1697.406640	-12.563971
1698.368245	-12.564120
1699.330941	-12.563218
1700.294729	-12.563995
1701.259611	-12.566621
1702.225588	-12.568126
1703.192664	-12.568829
1704.160838	-12.571201
1705.130114	-12.574838
1706.100493	-12.577668
1707.071977	-12.580083
1708.044568	-12.583943
1709.018268	-12.588615
1709.993079	-12.592379
1710.969003	-12.596029
1711.946041	-12.601294
1712.924196	-12.606955
1713.903469	-12.611698
1714.883862	-12.616918
1715.865378	-12.623666
1716.848017	-12.630161
1717.831783	-12.635747
1718.816677	-12.642305
1719.802701	-12.650655
1720.789857	-12.658453
1721.778147	-12.665892
1722.767573	-12.675239
1723.758136	-12.685913
1724.749840	-12.695688
1725.742685	-12.704955
1726.736673	-12.716308
1727.731808	-12.728246
1728.728090	-12.738614
1729.725521	-12.749648
1730.724105	-12.762654
1731.723842	-12.774988
1732.724735	-12.785763
1733.726785	-12.797466
1734.729995	-12.809995
1735.734366	-12.821034
1736.739902	-12.831230
1737.746603	-12.842907
1738.754472	-12.855280
1739.763510	-12.865627
1740.773721	-12.875333
1741.785105	-12.886562
1742.797665	-12.896736
1743.811403	-12.904839
1744.826321	-12.914093
1745.842422	-12.925049
1746.859706	-12.934784
1747.878177	-12.943537
1748.897835	-12.954097
1749.918685	-12.965237
1750.940726	-12.974358
1751.963963	-12.983637
1752.988395	-12.995360
1754.014027	-13.006767
1755.040860	-13.017118
1756.068895	-13.029145
1757.098135	-13.042628
1758.128583	-13.054616
1759.160240	-13.065939
1760.193109	-13.079166
1761.227191	-13.092436
1762.262488	-13.104309
1763.299004	-13.117338
1764.336740	-13.131598
1765.375697	-13.144259
1766.415880	-13.156371
1767.457288	-13.169856
1768.499926	-13.182894
1769.543794	-13.194973
1770.588895	-13.207970
1771.635231	-13.221464
1772.682805	-13.233716
1773.731619	-13.245708
1774.781674	-13.258632
1775.832973	-13.271295
1776.885519	-13.283350
1777.939312	-13.296242
1778.994357	-13.309679
1780.050654	-13.322043
1781.108207	-13.334540
1782.167017	-13.347988
1783.227087	-13.360726
1784.288418	-13.372970
1785.351013	-13.386235
1786.414875	-13.399850
1787.480006	-13.412432
1788.546407	-13.425453
1789.614082	-13.439295
1790.683032	-13.451995
1791.753259	-13.464347
1792.824767	-13.477897
1793.897557	-13.491313
1794.971632	-13.503871
1796.046994	-13.517085
1797.123645	-13.530585
1798.201588	-13.542827
1799.280824	-13.554984
1800.361357	-13.567698
1801.443188	-13.579779
1802.526320	-13.591184
1803.610756	-13.602911
1804.696497	-13.614301
1805.783546	-13.624618
1806.871906	-13.634944
1807.961578	-13.645132
1809.052565	-13.654444
1810.144870	-13.663690
1811.238494	-13.673189
1812.333441	-13.682013
1813.429713	-13.690372
1814.527311	-13.698939
1815.626239	-13.706995
1816.726499	-13.714558
1817.828094	-13.722654
1818.931025	-13.730891
1820.035295	-13.738697
1821.140906	-13.746498
1822.247862	-13.753943
1823.356165	-13.760831
1824.465816	-13.767933
1825.576819	-13.775632
1826.689175	-13.783750
1827.802888	-13.792574
1828.917960	-13.801849
1830.034394	-13.810528
1831.152191	-13.818716
1832.271354	-13.826714
1833.391887	-13.834258
1834.513790	-13.841921
1835.637068	-13.850048
1836.761722	-13.857747
1837.887755	-13.864913
1839.015169	-13.871951
1840.143968	-13.878330
1841.274153	-13.884130
1842.405727	-13.889815
1843.538693	-13.895085
1844.673053	-13.899846
1845.808810	-13.904423
1846.945966	-13.908315
1848.084525	-13.911267
1849.224488	-13.913918
1850.365858	-13.916260
1851.508638	-13.917879
1852.652831	-13.918966
1853.798438	-13.919115
1854.945463	-13.918058
1856.093909	-13.916681
1857.243777	-13.915284
1858.395071	-13.913640
1859.547794	-13.911899
1860.701947	-13.909545
1861.857533	-13.906238
1863.014556	-13.902554
1864.173018	-13.898837
1865.332922	-13.894903
1866.494270	-13.890993
1867.657065	-13.886925
1868.821309	-13.882409
1869.987006	-13.878120
1871.154158	-13.873838
1872.322768	-13.868780
1873.492839	-13.863355
1874.664373	-13.857474
1875.837373	-13.851197
1877.011841	-13.845167
1878.187782	-13.839106
1879.365197	-13.833070
1880.544089	-13.827249
1881.724460	-13.821030
1882.906315	-13.814638
1884.089655	-13.808340
1885.274483	-13.802034
1886.460803	-13.796364
1887.648616	-13.791003
1888.837927	-13.785167
1890.028736	-13.778720
1891.221049	-13.771634
1892.414866	-13.764461
1893.610192	-13.757516
1894.807028	-13.750441
1896.005379	-13.743014
1897.205246	-13.734937
1898.406633	-13.726222
1899.609542	-13.716832
1900.813977	-13.707047
1902.019940	-13.697621
1903.227434	-13.687838
1904.436462	-13.677461
1905.647028	-13.666423
1906.859133	-13.654060
1908.072781	-13.641764
1909.287976	-13.629830
1910.504719	-13.617444
1911.723013	-13.605217
1912.942863	-13.591869
1914.164270	-13.577558
1915.387238	-13.563750
1916.611770	-13.549500
1917.837868	-13.535253
1919.065536	-13.521313
1920.294777	-13.506387
1921.525594	-13.491298
1922.757989	-13.476249
1923.991967	-13.460742
1925.227529	-13.445671
1926.464679	-13.430579
1927.703420	-13.414969
1928.943755	-13.399495
1930.185688	-13.383999
1931.429221	-13.368712
1932.674356	-13.354565
1933.921099	-13.340919
1935.169451	-13.327155
1936.419415	-13.313576
1937.670996	-13.300013
1938.924195	-13.286636
1940.179017	-13.274208
1941.435463	-13.262419
1942.693538	-13.250582
1943.953245	-13.238488
1945.214586	-13.226066
1946.477566	-13.213563
1947.742186	-13.201742
1949.008451	-13.190520
1950.276363	-13.179018
1951.545926	-13.167078
1952.817143	-13.154931
1954.090017	-13.142768
1955.364551	-13.131388
1956.640749	-13.120838
1957.918615	-13.109803
1959.198150	-13.097850
1960.479359	-13.085542
1961.762244	-13.073196
1963.046810	-13.060966
1964.333059	-13.048524
1965.620995	-13.035003
1966.910621	-13.020327
1968.201940	-13.005317
1969.494956	-12.990792
1970.789672	-12.976699
1972.086091	-12.962527
1973.384217	-12.947776
1974.684053	-12.932297
1975.985602	-12.916376
1977.288869	-12.900787
1978.593855	-12.886188
1979.900566	-12.872505
1981.209003	-12.859061
1982.519171	-12.845757
1983.831073	-12.832853
1985.144712	-12.820626
1986.460093	-12.809109
1987.777217	-12.798068
1989.096089	-12.787477
1990.416713	-12.777476
1991.739092	-12.767723
1993.063228	-12.757981
1994.389127	-12.748622
1995.716791	-12.740064
1997.046223	-12.732399
1998.377428	-12.725316
1999.710409	-12.718578
2001.045169	-12.712120
2002.381713	-12.705892
2003.720043	-12.699980
2005.060163	-12.694514
2006.402077	-12.689574
2007.745788	-12.685171
2009.091301	-12.680847
2010.438618	-12.676355
2011.787743	-12.671754
2013.138680	-12.666879
2014.491433	-12.661847
2015.846005	-12.656956
2017.202399	-12.652091
2018.560621	-12.646743
2019.920673	-12.640631
2021.282558	-12.633934
2022.646281	-12.626793
2024.011846	-12.619222
2025.379256	-12.611417
2026.748515	-12.603801
2028.119626	-12.596466
2029.492594	-12.589149
2030.867422	-12.581590
2032.244114	-12.574189
2033.622673	-12.567498
2035.003104	-12.561607
2036.385411	-12.556381
2037.769597	-12.551635
2039.155665	-12.547362
2040.543621	-12.544030
2041.933467	-12.542027
2043.325208	-12.541094
2044.718847	-12.540600
2046.114389	-12.540332
2047.511837	-12.540555
2048.911195	-12.541725
2050.312467	-12.543803
2051.715657	-12.546519
2053.120769	-12.549734
2054.527807	-12.553448
2055.936775	-12.557742
2057.347677	-12.562511
2058.760516	-12.567432
2060.175297	-12.572451
2061.592025	-12.577939
2063.010701	-12.584174
2064.431332	-12.590666
2065.853921	-12.596724
2067.278472	-12.602623
2068.704988	-12.608746
2070.133475	-12.614970
2071.563936	-12.620799
2072.996375	-12.625705
2074.430796	-12.629793
2075.867204	-12.633515
2077.305603	-12.636871
2078.745996	-12.639879
2080.188389	-12.642793
2081.632784	-12.645507
2083.079187	-12.647801
2084.527601	-12.650172
2085.978030	-12.653350
2087.430480	-12.657266
2088.884954	-12.661691
2090.341455	-12.666846
2091.799990	-12.672704
2093.260561	-12.679329
2094.723173	-12.687108
2096.187831	-12.696032
2097.654538	-12.705673
2099.123300	-12.715773
2100.594119	-12.726264
2102.067001	-12.737688
2103.541950	-12.750630
2105.018971	-12.764835
2106.498067	-12.779686
2107.979243	-12.795127
2109.462503	-12.812107
2110.947853	-12.831374
2112.435295	-12.853045
2113.924836	-12.876557
2115.416478	-12.901388
2116.910227	-12.927880
2118.406087	-12.955652
2119.904063	-12.983375
2121.404158	-13.010473
2122.906378	-13.036822
2124.410727	-13.062053
2125.917210	-13.085341
2127.425831	-13.105888
2128.936594	-13.124198
2130.449505	-13.140255
2131.964567	-13.152818
2133.481786	-13.161606
2135.001166	-13.167615
2136.522711	-13.172038
2138.046427	-13.175276
2139.572317	-13.176974
2141.100388	-13.177208
2142.630642	-13.177151
2144.163085	-13.178778
2145.697722	-13.183242
2147.234558	-13.190142
2148.773596	-13.199699
2150.314842	-13.213554
2151.858301	-13.232616
2153.403977	-13.256328
2154.951875	-13.284541
2156.502000	-13.318602
2158.054357	-13.358891
2159.608950	-13.404101
2161.165785	-13.453116
2162.724866	-13.505888
2164.286198	-13.562751
2165.849786	-13.622455
2167.415635	-13.683356
2168.983749	-13.745168
2170.554134	-13.808410
2172.126795	-13.871699
2173.701737	-13.932519
2175.278964	-13.990261
2176.858481	-14.046021
2178.440294	-14.098997
2180.024408	-14.146488
2181.610827	-14.187767
2183.199557	-14.223877
2184.790602	-14.254907
2186.383968	-14.280206
2187.979660	-14.300407
2189.577683	-14.316389
2191.178041	-14.328135
2192.780741	-14.336104
2194.385787	-14.342651
2195.993185	-14.350446
2197.602939	-14.359745
2199.215054	-14.369909
2200.829537	-14.382555
2202.446392	-14.400010
2204.065624	-14.421702
2205.687239	-14.446429
2207.311242	-14.476420
2208.937638	-14.513320
2210.566433	-14.555234
2212.197631	-14.600522
2213.831239	-14.649978
2215.467261	-14.703963
2217.105703	-14.761412
2218.746570	-14.821780
2220.389867	-14.884920
2222.035601	-14.949908
2223.683776	-15.015525
2225.334398	-15.080948
2226.987472	-15.146985
2228.643004	-15.213471
2230.300999	-15.278357
2231.961463	-15.341365
2233.624402	-15.403141
2235.289820	-15.462765
2236.957723	-15.519393
2238.628118	-15.574516
2240.301009	-15.629461
2241.976402	-15.682998
2243.654303	-15.734621
2245.334717	-15.786209
2247.017650	-15.838003
2248.703108	-15.888239
2250.391096	-15.936578
2252.081620	-15.985152
2253.774686	-16.033701
2255.470300	-16.080845
2257.168467	-16.128986
2258.869193	-16.179857
2260.572484	-16.231771
2262.278345	-16.284644
2263.986783	-16.340569
2265.697804	-16.400930
2267.411412	-16.464131
2269.127615	-16.529417
2270.846417	-16.598543
2272.567826	-16.669973
2274.291846	-16.742122
2276.018484	-16.816183
2277.747745	-16.892730
2279.479637	-16.970841
2281.214164	-17.048939
2282.951333	-17.127934
2284.691149	-17.207604
2286.433619	-17.286380
2288.178750	-17.366197
2289.926546	-17.446551
2291.677014	-17.525279
2293.430161	-17.603846
2295.185992	-17.682448
2296.944513	-17.758853
2298.705732	-17.833036
2300.469653	-17.907124
2302.236283	-17.980812
2304.005629	-18.053386
2305.777696	-18.124465
2307.552492	-18.194988
2309.330022	-18.263361
2311.110292	-18.329894
2312.893310	-18.396670
2314.679080	-18.463046
2316.467611	-18.528683
2318.258907	-18.595247
2320.052976	-18.663690
2321.849824	-18.735595
2323.649457	-18.811120
2325.451883	-18.890132
2327.257106	-18.974779
2329.065135	-19.063840
2330.875975	-19.157526
2332.689633	-19.253722
2334.506116	-19.350896
2336.325430	-19.451478
2338.147581	-19.554940
2339.972578	-19.657163
2341.800425	-19.760575
2343.631130	-19.866760
2345.464700	-19.971615
2347.301141	-20.075275
2349.140461	-20.181080
2350.982665	-20.285754
2352.827760	-20.387571
2354.675754	-20.489259
2356.526653	-20.591403
2358.380464	-20.690278
2360.237195	-20.786214
2362.096851	-20.880685
2363.959440	-20.971744
2365.824968	-21.062111
2367.693444	-21.149952
2369.564873	-21.233301
2371.439263	-21.316857
2373.316620	-21.397731
2375.196953	-21.473067
2377.080267	-21.549291
2378.966570	-21.628594
2380.855869	-21.705695
2382.748171	-21.785466
2384.643484	-21.872889
2386.541815	-21.961180
2388.443170	-22.057015
2390.347557	-22.164817
2392.254984	-22.273408
2394.165457	-22.389304
2396.078984	-22.512666
2397.995572	-22.634965
2399.915229	-22.762438
2401.837961	-22.890735
2403.763777	-23.017556
2405.692684	-23.148707
2407.624689	-23.278290
2409.559800	-23.403443
2411.498023	-23.537276
2413.439368	-23.667792
2415.383840	-23.787603
2417.331449	-23.916704
2419.282201	-24.040701
2421.236104	-24.156843
2423.193165	-24.279104
2425.153393	-24.389704
2427.116795	-24.495296
2429.083378	-24.606328
2431.053151	-24.699972
2433.026121	-24.790803
2435.002297	-24.888774
2436.981685	-24.962811
2438.964293	-25.039324
2440.950131	-25.130149
2442.939204	-25.190873
2444.931522	-25.277075
2446.927092	-25.375135
2448.925923	-25.444704
2450.928022	-25.559802
2452.933397	-25.682840
2454.942056	-25.772032
2456.954008	-25.938726
2458.969260	-26.078084
2460.987821	-26.202417
2463.009699	-26.380905
2465.034902	-26.522967
2467.063437	-26.653780
2469.095315	-26.865666
2471.130542	-26.961869
2473.169127	-27.140478
2475.211078	-27.322048
2477.256404	-27.429442
2479.305112	-27.645945
2481.357212	-27.765004
2483.412713	-27.921453
2485.471621	-28.108135
2487.533946	-28.184434
2489.599696	-28.380007
2491.668880	-28.481199
2493.741507	-28.576601
2495.817585	-28.755453
2497.897122	-28.776120
2499.980127	-28.922397
2502.066609	-28.982760
2504.156578	-29.051921
2506.250040	-29.130560
2508.347006	-29.156583
2510.447483	-29.263465
2512.551482	-29.311799
2514.659010	-29.410167
2516.770076	-29.484712
2518.884690	-29.610392
2521.002861	-29.743961
2523.124597	-29.867577
2525.249907	-30.039522
2527.378801	-30.196760
2529.511287	-30.379286
2531.647375	-30.561850
2533.787074	-30.717316
2535.930393	-30.920320
2538.077340	-31.101161
2540.227927	-31.262266
2542.382160	-31.483897
2544.540051	-31.694637
2546.701608	-31.884454
2548.866840	-32.091399
2551.035757	-32.291247
2553.208369	-32.490576
2555.384684	-32.690900
2557.564713	-32.884604
2559.748465	-33.057098
2561.935948	-33.197463
2564.127174	-33.358317
2566.322152	-33.467761
2568.520890	-33.552919
2570.723399	-33.638737
2572.929689	-33.662439
2575.139769	-33.693908
2577.353649	-33.737112
2579.571340	-33.751002
2581.792849	-33.770011
2584.018189	-33.826952
2586.247368	-33.920812
2588.480396	-33.992009
2590.717284	-34.082396
2592.958041	-34.258933
2595.202678	-34.386918
2597.451204	-34.532302
2599.703630	-34.724624
2601.959966	-34.860716
2604.220222	-35.043421
2606.484408	-35.221419
2608.752535	-35.395238
2611.024612	-35.641581
2613.300651	-35.847215
2615.580661	-36.077596
2617.864653	-36.427958
2620.152638	-36.654618
2622.444625	-36.905450
2624.740626	-37.278410
2627.040651	-37.528814
2629.344710	-37.858644
2631.652814	-38.133099
2633.964974	-38.401780
2636.281200	-38.697802
2638.601504	-38.815098
2640.925896	-39.007134
2643.254386	-39.107552
2645.586987	-39.053407
2647.923707	-39.181366
2650.264559	-39.086161
2652.609554	-38.989643
2654.958702	-39.187637
2657.312015	-39.039140
2659.669503	-39.062707
2662.031178	-39.276228
2664.397051	-39.162322
2666.767132	-39.339927
2669.141434	-39.468911
2671.519968	-39.383216
2673.902745	-39.566239
2676.289776	-39.607126
2678.681072	-39.632314
2681.076646	-39.806612
2683.476508	-39.885113
2685.880671	-40.107198
2688.289145	-40.264809
2690.701942	-40.508701
2693.119075	-40.832175
2695.540554	-40.980593
2697.966391	-41.344593
2700.396599	-41.763056
2702.831189	-42.110611
2705.270172	-42.601701
2707.713561	-43.132381
2710.161368	-43.501297
2712.613605	-44.054891
2715.070283	-44.382466
2717.531416	-44.836248
2719.997014	-44.972759
2722.467090	-45.029253
2724.941657	-45.458251
2727.420726	-45.327005
2729.904310	-45.341655
2732.392421	-45.682047
2734.885072	-45.590609
2737.382275	-45.730762
2739.884042	-45.875025
2742.390387	-45.959940
2744.901321	-45.938763
2747.416857	-45.805369
2749.937008	-45.789481
2752.461787	-45.749612
2754.991206	-45.320114
2757.525279	-45.617222
2760.064017	-45.344289
2762.607434	-45.305033
2765.155544	-45.456156
2767.708358	-45.249080
2770.265890	-45.311578
2772.828153	-45.512826
2775.395160	-45.544416
2777.966924	-45.916092
2780.543459	-46.086809
2783.124778	-46.650061
2785.710894	-47.031862
2788.301821	-47.449155
2790.897572	-48.222916
2793.498160	-48.329286
2796.103599	-49.092078
2798.713903	-49.439419
2801.329085	-49.414978
2803.949159	-50.204889
2806.574139	-50.027878
2809.204038	-50.620939
2811.838871	-51.085646
2814.478650	-51.266744
2817.123391	-52.170639
2819.773107	-52.791086
2822.427812	-53.164175
2825.087521	-54.075550
2827.752247	-53.870848
2830.422005	-54.424535
2833.096808	-54.339908
2835.776672	-54.568159
2838.461611	-54.054577
2841.151638	-54.142821
2843.846769	-53.654221
2846.547019	-52.737049
2849.252401	-52.785012
2851.962930	-51.898174
2854.678621	-51.904210
2857.399489	-51.895697
2860.125549	-51.538194
2862.856815	-52.158230
2865.593302	-52.135317
2868.335026	-52.474774
2871.082002	-53.043792
2873.834244	-52.977627
2876.591767	-54.052789
2879.354588	-53.527381
2882.122721	-54.016631
2884.896181	-54.246258
2887.674984	-53.850611
2890.459146	-54.390619
2893.248681	-54.098741
2896.043606	-54.543756
2898.843937	-54.807255
2901.649687	-55.535267
2904.460875	-55.650495
2907.277515	-56.201066
2910.099623	-56.909305
2912.927215	-56.986978
2915.760308	-58.410286
2918.598916	-59.198787
2921.443057	-60.935192
2924.292747	-62.384753
2927.148002	-64.516436
2930.008837	-64.694239
2932.875270	-65.346071
2935.747318	-63.944068
2938.624995	-62.033856
2941.508320	-63.186240
2944.397308	-60.048006
2947.291977	-61.238944
2950.192343	-60.160330
2953.098423	-60.317750
2956.010234	-61.115967
2958.927792	-60.702207
2961.851116	-62.009206
2964.780221	-61.287523
2967.715126	-62.834793
2970.655847	-61.758822
2973.602402	-61.850131
2976.554808	-61.944030
2979.513083	-61.274808
2982.477243	-61.671092
2985.447308	-62.188311
2988.423293	-61.285314
2991.405218	-61.773209
2994.393099	-60.628785
2997.386955	-60.214350
