# 2022-03-21_14.36.04
# shape = sech2
# FWHM_ps = 0.1
# carrier_nm = 1542
# frep_MHz = 12126
# pow_mW = 8000
# GDD = 0.0
# propa_len = 0.14444444444444446
# untap_len = 0.01
# taper_len = 0.08444444444444445
# waist_len = 0.02
# uptap_len = 0.02
# untap_scale = 1.0
# waist_scale = 0.1
# workingDir = NL_20110305_12 (Spirou)
# axis = slow
# window_ps = 10.0
# steps = 200
# points = 13000
# 
# wavelength [nm]	 power spectral density [dB]
1000.248639	-25.792227
1000.582480	-25.774222
1000.916545	-25.775220
1001.250832	-25.843124
1001.585343	-25.741446
1001.920077	-25.697564
1002.255035	-25.776887
1002.590218	-25.736267
1002.925624	-25.666793
1003.261255	-25.628076
1003.597111	-25.688927
1003.933192	-25.641214
1004.269497	-25.508347
1004.606029	-25.555657
1004.942785	-25.584160
1005.279768	-25.421475
1005.616977	-25.426409
1005.954412	-25.417112
1006.292074	-25.421108
1006.629962	-25.273514
1006.968077	-25.270215
1007.306420	-25.331247
1007.644990	-25.186430
1007.983787	-25.151331
1008.322813	-25.129732
1008.662067	-25.156179
1009.001549	-25.021687
1009.341259	-24.954874
1009.681199	-25.055476
1010.021367	-24.933218
1010.361765	-24.827466
1010.702392	-24.904030
1011.043250	-24.815463
1011.384337	-24.802343
1011.725654	-24.673250
1012.067202	-24.743615
1012.408980	-24.720961
1012.750989	-24.524060
1013.093230	-24.640700
1013.435702	-24.568050
1013.778405	-24.514255
1014.121341	-24.458248
1014.464508	-24.452174
1014.807908	-24.509090
1015.151540	-24.309460
1015.495405	-24.386707
1015.839503	-24.413630
1016.183835	-24.281661
1016.528400	-24.305488
1016.873198	-24.278589
1017.218231	-24.327716
1017.563498	-24.199906
1017.908999	-24.212837
1018.254735	-24.317873
1018.600707	-24.164034
1018.946913	-24.191221
1019.293354	-24.243096
1019.640032	-24.225949
1019.986945	-24.164682
1020.334094	-24.190995
1020.681480	-24.278502
1021.029102	-24.186677
1021.376961	-24.174864
1021.725058	-24.306577
1022.073391	-24.246287
1022.421962	-24.210870
1022.770772	-24.300135
1023.119819	-24.328858
1023.469104	-24.286831
1023.818628	-24.276172
1024.168391	-24.390411
1024.518393	-24.360797
1024.868634	-24.250892
1025.219115	-24.413114
1025.569836	-24.355916
1025.920796	-24.296866
1026.271997	-24.311155
1026.623438	-24.324152
1026.975121	-24.296922
1027.327044	-24.141400
1027.679208	-24.266820
1028.031614	-24.169815
1028.384262	-24.016915
1028.737152	-24.073141
1029.090284	-23.987372
1029.443659	-23.893625
1029.797276	-23.782283
1030.151137	-23.800001
1030.505240	-23.687458
1030.859587	-23.521166
1031.214178	-23.543287
1031.569013	-23.457497
1031.924093	-23.293107
1032.279417	-23.248738
1032.634985	-23.231532
1032.990799	-23.072466
1033.346858	-22.994753
1033.703162	-22.980439
1034.059712	-22.907779
1034.416509	-22.761403
1034.773551	-22.762814
1035.130841	-22.749976
1035.488377	-22.593925
1035.846160	-22.583744
1036.204190	-22.600867
1036.562468	-22.486712
1036.920994	-22.446456
1037.279768	-22.475686
1037.638790	-22.425542
1037.998061	-22.365178
1038.357581	-22.355754
1038.717350	-22.414417
1039.077368	-22.284612
1039.437636	-22.312897
1039.798154	-22.370424
1040.158922	-22.281416
1040.519940	-22.283552
1040.881209	-22.317059
1041.242729	-22.313537
1041.604501	-22.257542
1041.966524	-22.289976
1042.328798	-22.332232
1042.691325	-22.243856
1043.054103	-22.269786
1043.417135	-22.326235
1043.780419	-22.244706
1044.143956	-22.229115
1044.507746	-22.296304
1044.871791	-22.247513
1045.236088	-22.176364
1045.600641	-22.243703
1045.965447	-22.202186
1046.330508	-22.136419
1046.695824	-22.131119
1047.061395	-22.175505
1047.427222	-22.051871
1047.793304	-22.028921
1048.159642	-22.110176
1048.526237	-21.960964
1048.893088	-21.945613
1049.260196	-21.991436
1049.627561	-21.898255
1049.995183	-21.854728
1050.363063	-21.872657
1050.731201	-21.854165
1051.099597	-21.743306
1051.468251	-21.780010
1051.837164	-21.787107
1052.206336	-21.671923
1052.575767	-21.674714
1052.945458	-21.717765
1053.315409	-21.602020
1053.685619	-21.564821
1054.056090	-21.642876
1054.426821	-21.519909
1054.797814	-21.477583
1055.169067	-21.525014
1055.540582	-21.454081
1055.912359	-21.386394
1056.284398	-21.404290
1056.656698	-21.392208
1057.029262	-21.266404
1057.402088	-21.301052
1057.775177	-21.304102
1058.148530	-21.163971
1058.522146	-21.189126
1058.896027	-21.197913
1059.270171	-21.076975
1059.644580	-21.075504
1060.019254	-21.099520
1060.394193	-20.976968
1060.769397	-20.963920
1061.144867	-20.987682
1061.520602	-20.890719
1061.896604	-20.846246
1062.272872	-20.870514
1062.649407	-20.819700
1063.026210	-20.735115
1063.403279	-20.766460
1063.780616	-20.739609
1064.158221	-20.636176
1064.536094	-20.674250
1064.914235	-20.662819
1065.292645	-20.555169
1065.671325	-20.586455
1066.050273	-20.590086
1066.429491	-20.482708
1066.808979	-20.503941
1067.188738	-20.525340
1067.568766	-20.419420
1067.949066	-20.433990
1068.329636	-20.452828
1068.710478	-20.370779
1069.091592	-20.351662
1069.472977	-20.385971
1069.854635	-20.324499
1070.236565	-20.272970
1070.618768	-20.347346
1071.001243	-20.276315
1071.383993	-20.219657
1071.767016	-20.303226
1072.150313	-20.229040
1072.533884	-20.170347
1072.917730	-20.258565
1073.301850	-20.194378
1073.686246	-20.130291
1074.070917	-20.231829
1074.455864	-20.146446
1074.841087	-20.098226
1075.226586	-20.168210
1075.612362	-20.092526
1075.998415	-20.053841
1076.384745	-20.099676
1076.771353	-20.042663
1077.158238	-19.999071
1077.545401	-20.018123
1077.932843	-19.979867
1078.320564	-19.924461
1078.708564	-19.929580
1079.096842	-19.916074
1079.485401	-19.844545
1079.874240	-19.853551
1080.263358	-19.850456
1080.652757	-19.758946
1081.042438	-19.775817
1081.432399	-19.763215
1081.822641	-19.676794
1082.213166	-19.689967
1082.603972	-19.681008
1082.995061	-19.584881
1083.386433	-19.590783
1083.778087	-19.587578
1084.170025	-19.467726
1084.562246	-19.492244
1084.954751	-19.466334
1085.347541	-19.360483
1085.740615	-19.383978
1086.133973	-19.347829
1086.527617	-19.246326
1086.921546	-19.275817
1087.315761	-19.230304
1087.710262	-19.155207
1088.105050	-19.176694
1088.500124	-19.137191
1088.895485	-19.076450
1089.291134	-19.091159
1089.687070	-19.064340
1090.083294	-19.006239
1090.479806	-19.028668
1090.876607	-18.999991
1091.273696	-18.952481
1091.671075	-18.965149
1092.068744	-18.938371
1092.466702	-18.896678
1092.864950	-18.893173
1093.263489	-18.887904
1093.662319	-18.818388
1094.061440	-18.835537
1094.460852	-18.813881
1094.860555	-18.749146
1095.260551	-18.774130
1095.660840	-18.739259
1096.061421	-18.693109
1096.462295	-18.710432
1096.863462	-18.697316
1097.264923	-18.632635
1097.666678	-18.687010
1098.068727	-18.651219
1098.471071	-18.610975
1098.873710	-18.673699
1099.276644	-18.622490
1099.679874	-18.608060
1100.083400	-18.660856
1100.487222	-18.609283
1100.891340	-18.596664
1101.295756	-18.646556
1101.700468	-18.573327
1102.105478	-18.572689
1102.510787	-18.602700
1102.916393	-18.510206
1103.322298	-18.517843
1103.728502	-18.518419
1104.135005	-18.417560
1104.541807	-18.427870
1104.948909	-18.399031
1105.356312	-18.302411
1105.764015	-18.314336
1106.172019	-18.269533
1106.580324	-18.177171
1106.988931	-18.200136
1107.397840	-18.139187
1107.807051	-18.069396
1108.216564	-18.101193
1108.626380	-18.029050
1109.036500	-17.991550
1109.446923	-18.019870
1109.857649	-17.950869
1110.268680	-17.934913
1110.680016	-17.962537
1111.091657	-17.892827
1111.503602	-17.897830
1111.915854	-17.912003
1112.328411	-17.837539
1112.741275	-17.859593
1113.154445	-17.849335
1113.567922	-17.780366
1113.981706	-17.799526
1114.395798	-17.765169
1114.810198	-17.698345
1115.224906	-17.716898
1115.639923	-17.655169
1116.055249	-17.599446
1116.470884	-17.607774
1116.886829	-17.535931
1117.303084	-17.489592
1117.719650	-17.494455
1118.136526	-17.414839
1118.553713	-17.394677
1118.971212	-17.392720
1119.389022	-17.318968
1119.807145	-17.321933
1120.225580	-17.320579
1120.644328	-17.259865
1121.063389	-17.290220
1121.482763	-17.275425
1121.902452	-17.247841
1122.322454	-17.284487
1122.742771	-17.275731
1123.163404	-17.254974
1123.584351	-17.310339
1124.005614	-17.283844
1124.427193	-17.288956
1124.849089	-17.331462
1125.271301	-17.287283
1125.693830	-17.322903
1126.116677	-17.313721
1126.539842	-17.298526
1126.963324	-17.284786
1127.387126	-17.300872
1127.811246	-17.223180
1128.235685	-17.256688
1128.660444	-17.182625
1129.085522	-17.160924
1129.510922	-17.132061
1129.936641	-17.069142
1130.362682	-17.030460
1130.789044	-16.986903
1131.215728	-16.931712
1131.642734	-16.873396
1132.070063	-16.847744
1132.497714	-16.752473
1132.925689	-16.762929
1133.353987	-16.662441
1133.782610	-16.654628
1134.211556	-16.594633
1134.640827	-16.568323
1135.070424	-16.521728
1135.500345	-16.516202
1135.930593	-16.447710
1136.361166	-16.472508
1136.792067	-16.421683
1137.223294	-16.408945
1137.654848	-16.411350
1138.086730	-16.387792
1138.518940	-16.377258
1138.951479	-16.392963
1139.384346	-16.355594
1139.817543	-16.378321
1140.251069	-16.376002
1140.684925	-16.349336
1141.119111	-16.371039
1141.553628	-16.363581
1141.988475	-16.344903
1142.423655	-16.362406
1142.859166	-16.334839
1143.295009	-16.334529
1143.731185	-16.333637
1144.167694	-16.303717
1144.604536	-16.297068
1145.041711	-16.289050
1145.479221	-16.257829
1145.917065	-16.245182
1146.355245	-16.222618
1146.793759	-16.197070
1147.232609	-16.181222
1147.671795	-16.142220
1148.111317	-16.126145
1148.551177	-16.100344
1148.991373	-16.065019
1149.431907	-16.043333
1149.872779	-16.013269
1150.313989	-15.985884
1150.755538	-15.963820
1151.197426	-15.921117
1151.639653	-15.906705
1152.082220	-15.881360
1152.525128	-15.842322
1152.968376	-15.823676
1153.411966	-15.800041
1153.855897	-15.769267
1154.300169	-15.747374
1154.744784	-15.721114
1155.189742	-15.695095
1155.635042	-15.678326
1156.080687	-15.645709
1156.526674	-15.625077
1156.973007	-15.607864
1157.419683	-15.583857
1157.866705	-15.554519
1158.314072	-15.544568
1158.761786	-15.524684
1159.209845	-15.494678
1159.658251	-15.484897
1160.107004	-15.465441
1160.556104	-15.446506
1161.005553	-15.433259
1161.455349	-15.409529
1161.905494	-15.407056
1162.355989	-15.387401
1162.806832	-15.368887
1163.258026	-15.365718
1163.709570	-15.348755
1164.161464	-15.340321
1164.613710	-15.323060
1165.066307	-15.312172
1165.519256	-15.316071
1165.972558	-15.280284
1166.426212	-15.283511
1166.880219	-15.275561
1167.334580	-15.247413
1167.789295	-15.250210
1168.244364	-15.221573
1168.699788	-15.215925
1169.155567	-15.202132
1169.611702	-15.162762
1170.068193	-15.173024
1170.525041	-15.134946
1170.982245	-15.109579
1171.439807	-15.104906
1171.897726	-15.060492
1172.356004	-15.050370
1172.814640	-15.022412
1173.273635	-14.983914
1173.732989	-14.977242
1174.192703	-14.937246
1174.652778	-14.903211
1175.113213	-14.898303
1175.574009	-14.855458
1176.035167	-14.818695
1176.496687	-14.823220
1176.958569	-14.774924
1177.420814	-14.744607
1177.883422	-14.753366
1178.346394	-14.695434
1178.809730	-14.691874
1179.273430	-14.683274
1179.737496	-14.627496
1180.201927	-14.658811
1180.666723	-14.609384
1181.131886	-14.585767
1181.597416	-14.625472
1182.063312	-14.543095
1182.529576	-14.573268
1182.996209	-14.575757
1183.463209	-14.500409
1183.930579	-14.571784
1184.398317	-14.511899
1184.866426	-14.494106
1185.334904	-14.552037
1185.803754	-14.455432
1186.272974	-14.509625
1186.742566	-14.503234
1187.212529	-14.429188
1187.682865	-14.517592
1188.153574	-14.436926
1188.624656	-14.437223
1189.096112	-14.490685
1189.567942	-14.386613
1190.040147	-14.455389
1190.512726	-14.425096
1190.985681	-14.377277
1191.459012	-14.443325
1191.932720	-14.357047
1192.406804	-14.391230
1192.881265	-14.387961
1193.356104	-14.319513
1193.831322	-14.388374
1194.306918	-14.314501
1194.782893	-14.312824
1195.259248	-14.340827
1195.735982	-14.260738
1196.213097	-14.300973
1196.690593	-14.265450
1197.168471	-14.233170
1197.646730	-14.255253
1198.125371	-14.192844
1198.604395	-14.210798
1199.083803	-14.175906
1199.563594	-14.143084
1200.043769	-14.160839
1200.524329	-14.092766
1201.005273	-14.102219
1201.486604	-14.079838
1201.968320	-14.027355
1202.450422	-14.043312
1202.932912	-13.990447
1203.415789	-13.975380
1203.899054	-13.957580
1204.382707	-13.916414
1204.866748	-13.913081
1205.351179	-13.866216
1205.836000	-13.856424
1206.321211	-13.830323
1206.806812	-13.793581
1207.292805	-13.788293
1207.779189	-13.749435
1208.265965	-13.732396
1208.753134	-13.711209
1209.240696	-13.682937
1209.728651	-13.670319
1210.217000	-13.639514
1210.705744	-13.626669
1211.194883	-13.604910
1211.684417	-13.584126
1212.174347	-13.568277
1212.664673	-13.551536
1213.155396	-13.532614
1213.646516	-13.514926
1214.138034	-13.509153
1214.629951	-13.481785
1215.122266	-13.473381
1215.614980	-13.468065
1216.108095	-13.437367
1216.601609	-13.442565
1217.095524	-13.422722
1217.589841	-13.409091
1218.084559	-13.405193
1218.579679	-13.388806
1219.075202	-13.383304
1219.571128	-13.367936
1220.067458	-13.363419
1220.564191	-13.353130
1221.061330	-13.338930
1221.558874	-13.339102
1222.056823	-13.320294
1222.555178	-13.318186
1223.053940	-13.308589
1223.553109	-13.293668
1224.052686	-13.298951
1224.552671	-13.270105
1225.053065	-13.280269
1225.553867	-13.264666
1226.055079	-13.245204
1226.556702	-13.257896
1227.058735	-13.229650
1227.561179	-13.225483
1228.064035	-13.226017
1228.567303	-13.200002
1229.070983	-13.202461
1229.575077	-13.188384
1230.079585	-13.175116
1230.584506	-13.171614
1231.089842	-13.151550
1231.595594	-13.147858
1232.101761	-13.132735
1232.608345	-13.120388
1233.115345	-13.108396
1233.622762	-13.098412
1234.130597	-13.078693
1234.638851	-13.069680
1235.147523	-13.059716
1235.656615	-13.031078
1236.166126	-13.031936
1236.676058	-13.009440
1237.186411	-12.988730
1237.697185	-12.985570
1238.208381	-12.954673
1238.719999	-12.949275
1239.232040	-12.926586
1239.744505	-12.907747
1240.257394	-12.899335
1240.770708	-12.868404
1241.284446	-12.861082
1241.798610	-12.843383
1242.313201	-12.814209
1242.828218	-12.812905
1243.343662	-12.782105
1243.859534	-12.771127
1244.375834	-12.753083
1244.892563	-12.733804
1245.409721	-12.721837
1245.927309	-12.698763
1246.445327	-12.689758
1246.963777	-12.671408
1247.482657	-12.653556
1248.001970	-12.643859
1248.521716	-12.629168
1249.041894	-12.610703
1249.562506	-12.604971
1250.083553	-12.587741
1250.605034	-12.577594
1251.126950	-12.566939
1251.649302	-12.554678
1252.172091	-12.548062
1252.695316	-12.533041
1253.218979	-12.529034
1253.743079	-12.520928
1254.267619	-12.505438
1254.792597	-12.508654
1255.318015	-12.493305
1255.843874	-12.490139
1256.370173	-12.483671
1256.896913	-12.475733
1257.424095	-12.474744
1257.951720	-12.461430
1258.479787	-12.465364
1259.008298	-12.454933
1259.537254	-12.448982
1260.066654	-12.450790
1260.596499	-12.439471
1261.126790	-12.439796
1261.657527	-12.432569
1262.188711	-12.430082
1262.720342	-12.427461
1263.252422	-12.416144
1263.784950	-12.424182
1264.317928	-12.407610
1264.851355	-12.411185
1265.385232	-12.405270
1265.919560	-12.398694
1266.454340	-12.399702
1266.989572	-12.386225
1267.525256	-12.394342
1268.061394	-12.376715
1268.597985	-12.381007
1269.135031	-12.374109
1269.672531	-12.365590
1270.210487	-12.366514
1270.748899	-12.353728
1271.287768	-12.358620
1271.827094	-12.340744
1272.366877	-12.344936
1272.907119	-12.334848
1273.447820	-12.325743
1273.988981	-12.327187
1274.530601	-12.308505
1275.072683	-12.316326
1275.615226	-12.291406
1276.158230	-12.299671
1276.701697	-12.281751
1277.245627	-12.273351
1277.790021	-12.272652
1278.334879	-12.249368
1278.880202	-12.257570
1279.425991	-12.226114
1279.972245	-12.237572
1280.518966	-12.209463
1281.066155	-12.205924
1281.613811	-12.197154
1282.161936	-12.173605
1282.710529	-12.179212
1283.259593	-12.144699
1283.809126	-12.155391
1284.359131	-12.121938
1284.909607	-12.121232
1285.460555	-12.106192
1286.011976	-12.084179
1286.563870	-12.087345
1287.116237	-12.051677
1287.669080	-12.063678
1288.222397	-12.025397
1288.776191	-12.029983
1289.330460	-12.009942
1289.885207	-11.992312
1290.440431	-11.992926
1290.996133	-11.960496
1291.552314	-11.970439
1292.108975	-11.936441
1292.666115	-11.940941
1293.223737	-11.921378
1293.781839	-11.908265
1294.340424	-11.905368
1294.899491	-11.882496
1295.459041	-11.884187
1296.019075	-11.863199
1296.579593	-11.859092
1297.140597	-11.850790
1297.702086	-11.831411
1298.264061	-11.837523
1298.826524	-11.811709
1299.389474	-11.817789
1299.952912	-11.798855
1300.516839	-11.794854
1301.081255	-11.790772
1301.646162	-11.770581
1302.211559	-11.783322
1302.777448	-11.752452
1303.343829	-11.769527
1303.910702	-11.741058
1304.478069	-11.752216
1305.045930	-11.735406
1305.614285	-11.732889
1306.183136	-11.731953
1306.752483	-11.717018
1307.322326	-11.724882
1307.892666	-11.706110
1308.463504	-11.715818
1309.034841	-11.700415
1309.606677	-11.703932
1310.179012	-11.699255
1310.751849	-11.693118
1311.325186	-11.696589
1311.899025	-11.686238
1312.473366	-11.693141
1313.048211	-11.682864
1313.623559	-11.687315
1314.199412	-11.684722
1314.775770	-11.680495
1315.352634	-11.686834
1315.930004	-11.676294
1316.507881	-11.688475
1317.086266	-11.674795
1317.665159	-11.688239
1318.244562	-11.677264
1318.824474	-11.685137
1319.404897	-11.681389
1319.985831	-11.682060
1320.567276	-11.684575
1321.149234	-11.680583
1321.731706	-11.685803
1322.314691	-11.682634
1322.898190	-11.683544
1323.482205	-11.685885
1324.066736	-11.679542
1324.651783	-11.689326
1325.237347	-11.674582
1325.823430	-11.691228
1326.410031	-11.672398
1326.997151	-11.689362
1327.584791	-11.672575
1328.172952	-11.685521
1328.761634	-11.673650
1329.350839	-11.679641
1329.940566	-11.675433
1330.530817	-11.674303
1331.121592	-11.674557
1331.712891	-11.672108
1332.304716	-11.671461
1332.897068	-11.671178
1333.489946	-11.666384
1334.083352	-11.671971
1334.677287	-11.659556
1335.271750	-11.671682
1335.866744	-11.653946
1336.462268	-11.668412
1337.058323	-11.649989
1337.654910	-11.662518
1338.252029	-11.647334
1338.849682	-11.653681
1339.447869	-11.645894
1340.046591	-11.643652
1340.645848	-11.642862
1341.245641	-11.634274
1341.845972	-11.637386
1342.446840	-11.626105
1343.048246	-11.629181
1343.650191	-11.619141
1344.252677	-11.618656
1344.855702	-11.612962
1345.459269	-11.607320
1346.063379	-11.605442
1346.668030	-11.597749
1347.273226	-11.595734
1347.878965	-11.588841
1348.485250	-11.584867
1349.092080	-11.582069
1349.699456	-11.571167
1350.307380	-11.576054
1350.915851	-11.558977
1351.524871	-11.568189
1352.134441	-11.547121
1352.744560	-11.560666
1353.355231	-11.537272
1353.966453	-11.548894
1354.578227	-11.531497
1355.190555	-11.536827
1355.803436	-11.525015
1356.416872	-11.523872
1357.030863	-11.522008
1357.645411	-11.510087
1358.260515	-11.516365
1358.876177	-11.500590
1359.492397	-11.509988
1360.109176	-11.490214
1360.726516	-11.503147
1361.344416	-11.484677
1361.962877	-11.492251
1362.581901	-11.479946
1363.201487	-11.483521
1363.821637	-11.475677
1364.442352	-11.472424
1365.063632	-11.473098
1365.685478	-11.463882
1366.307891	-11.467015
1366.930871	-11.457375
1367.554420	-11.462094
1368.178538	-11.451244
1368.803226	-11.455158
1369.428485	-11.448431
1370.054315	-11.448657
1370.680717	-11.443780
1371.307693	-11.443775
1371.935242	-11.440734
1372.563366	-11.438017
1373.192065	-11.437191
1373.821341	-11.434416
1374.451193	-11.433754
1375.081623	-11.429748
1375.712632	-11.431135
1376.344221	-11.426830
1376.976389	-11.427714
1377.609139	-11.424193
1378.242470	-11.425306
1378.876384	-11.422977
1379.510881	-11.422351
1380.145963	-11.422671
1380.781629	-11.420989
1381.417881	-11.422257
1382.054720	-11.419792
1382.692147	-11.422466
1383.330161	-11.419526
1383.968765	-11.421761
1384.607959	-11.419743
1385.247743	-11.421277
1385.888119	-11.420353
1386.529087	-11.419729
1387.170648	-11.422301
1387.812804	-11.418208
1388.455554	-11.423731
1389.098899	-11.417539
1389.742842	-11.424993
1390.387381	-11.418899
1391.032519	-11.424170
1391.678256	-11.423330
1392.324592	-11.423213
1392.971529	-11.428655
1393.619068	-11.423003
1394.267208	-11.434410
1394.915952	-11.424781
1395.565300	-11.437405
1396.215253	-11.429436
1396.865812	-11.438121
1397.516977	-11.435714
1398.168749	-11.436766
1398.821130	-11.443587
1399.474120	-11.435761
1400.127719	-11.450222
1400.781930	-11.437843
1401.436752	-11.454145
1402.092186	-11.443322
1402.748234	-11.454779
1403.404897	-11.452186
1404.062174	-11.453400
1404.720067	-11.461033
1405.378577	-11.454179
1406.037705	-11.468377
1406.697451	-11.458618
1407.357817	-11.473602
1408.018803	-11.468203
1408.680410	-11.477179
1409.342639	-11.479555
1410.005492	-11.481893
1410.668968	-11.490252
1411.333068	-11.488441
1411.997795	-11.498754
1412.663147	-11.499049
1413.329127	-11.505939
1413.995736	-11.511696
1414.662973	-11.515549
1415.330840	-11.524310
1415.999339	-11.528240
1416.668469	-11.534804
1417.338232	-11.543882
1418.008628	-11.543973
1418.679659	-11.558647
1419.351325	-11.555750
1420.023628	-11.570463
1420.696568	-11.571467
1421.370145	-11.580749
1422.044362	-11.591323
1422.719219	-11.592307
1423.394717	-11.611584
1424.070856	-11.608697
1424.747638	-11.629316
1425.425064	-11.629532
1426.103134	-11.643879
1426.781850	-11.651903
1427.461212	-11.657161
1428.141221	-11.671603
1428.821878	-11.674391
1429.503185	-11.689199
1430.185141	-11.696922
1430.867749	-11.708669
1431.551008	-11.722965
1432.234920	-11.733677
1432.919486	-11.748952
1433.604707	-11.764264
1434.290583	-11.773688
1434.977116	-11.794481
1435.664307	-11.797956
1436.352156	-11.819089
1437.040664	-11.823743
1437.729833	-11.838516
1438.419663	-11.852592
1439.110156	-11.860020
1439.801312	-11.883805
1440.493132	-11.890922
1441.185617	-11.917865
1441.878768	-11.932608
1442.572586	-11.955740
1443.267072	-11.978457
1443.962228	-11.996916
1444.658053	-12.018572
1445.354549	-12.036997
1446.051717	-12.050678
1446.749558	-12.070449
1447.448073	-12.079141
1448.147263	-12.096898
1448.847128	-12.111035
1449.547671	-12.124615
1450.248891	-12.151726
1450.950789	-12.166310
1451.653368	-12.203655
1452.356627	-12.226779
1453.060568	-12.266029
1453.765192	-12.300447
1454.470500	-12.334665
1455.176492	-12.372903
1455.883170	-12.402416
1456.590534	-12.432601
1457.298586	-12.459427
1458.007327	-12.479095
1458.716758	-12.502038
1459.426880	-12.520708
1460.137693	-12.539976
1460.849199	-12.571023
1461.561398	-12.593555
1462.274293	-12.641484
1462.987883	-12.680445
1463.702170	-12.741478
1464.417155	-12.803838
1465.132838	-12.872698
1465.849222	-12.951539
1466.566306	-13.024553
1467.284093	-13.101997
1468.002582	-13.173603
1468.721775	-13.236151
1469.441674	-13.293991
1470.162278	-13.340784
1470.883590	-13.375175
1471.605609	-13.412501
1472.328338	-13.429143
1473.051777	-13.463601
1473.775928	-13.484629
1474.500790	-13.522579
1475.226367	-13.568529
1475.952657	-13.625000
1476.679663	-13.702748
1477.407386	-13.790544
1478.135826	-13.894638
1478.864985	-14.011630
1479.594863	-14.131006
1480.325463	-14.252810
1481.056784	-14.370856
1481.788828	-14.464394
1482.521597	-14.554349
1483.255090	-14.599717
1483.989309	-14.633840
1484.724256	-14.629163
1485.459931	-14.602520
1486.196336	-14.556863
1486.933471	-14.492815
1487.671337	-14.423592
1488.409937	-14.356866
1489.149270	-14.292298
1489.889337	-14.247782
1490.630141	-14.223269
1491.371682	-14.221138
1492.113961	-14.260897
1492.856979	-14.321242
1493.600738	-14.437415
1494.345238	-14.580352
1495.090481	-14.773782
1495.836467	-15.004620
1496.583198	-15.274797
1497.330675	-15.576852
1498.078899	-15.908397
1498.827872	-16.242784
1499.577593	-16.588428
1500.328065	-16.899790
1501.079289	-17.176495
1501.831265	-17.396917
1502.583995	-17.530992
1503.337480	-17.604290
1504.091721	-17.586203
1504.846719	-17.516175
1505.602475	-17.395585
1506.358991	-17.249492
1507.116268	-17.092117
1507.874306	-16.948796
1508.633108	-16.808975
1509.392673	-16.716735
1510.153004	-16.637870
1510.914101	-16.616151
1511.675965	-16.628363
1512.438599	-16.690467
1513.202002	-16.809345
1513.966176	-16.981191
1514.731122	-17.219260
1515.496842	-17.535586
1516.263336	-17.925979
1517.030607	-18.432955
1517.798654	-19.046490
1518.567479	-19.818418
1519.337083	-20.782994
1520.107468	-21.981098
1520.878634	-23.535137
1521.650584	-25.510156
1522.423317	-28.041691
1523.196836	-30.590665
1523.971141	-30.559237
1524.746233	-27.589315
1525.522115	-24.362686
1526.298786	-21.705538
1527.076249	-19.477084
1527.854504	-17.627928
1528.633553	-16.018777
1529.413397	-14.618211
1530.194037	-13.376298
1530.975474	-12.262148
1531.757709	-11.260050
1532.540745	-10.355182
1533.324581	-9.530216
1534.109220	-8.789756
1534.894662	-8.114553
1535.680909	-7.510347
1536.467961	-6.971394
1537.255821	-6.491512
1538.044489	-6.076991
1538.833967	-5.719169
1539.624256	-5.421282
1540.415357	-5.182749
1541.207271	-4.999864
1542.000000	-4.874947
1542.793545	-4.807723
1543.587907	-4.792177
1544.383087	-4.837043
1545.179088	-4.931201
1545.975909	-5.081757
1546.773552	-5.284556
1547.572019	-5.538302
1548.371311	-5.844451
1549.171428	-6.201980
1549.972373	-6.606642
1550.774147	-7.066719
1551.576751	-7.571235
1552.380185	-8.128802
1553.184453	-8.737580
1553.989554	-9.391900
1554.795490	-10.101842
1555.602263	-10.857480
1556.409873	-11.658250
1557.218322	-12.503422
1558.027612	-13.374389
1558.837743	-14.250759
1559.648717	-15.114211
1560.460536	-15.887716
1561.273200	-16.537075
1562.086710	-16.982992
1562.901069	-17.178278
1563.716278	-17.136019
1564.532337	-16.892635
1565.349249	-16.506572
1566.167014	-16.056021
1566.985634	-15.587770
1567.805111	-15.125207
1568.625444	-14.714216
1569.446637	-14.340068
1570.268690	-14.026237
1571.091605	-13.770057
1571.915382	-13.566369
1572.740024	-13.418821
1573.565532	-13.327103
1574.391907	-13.276860
1575.219150	-13.280042
1576.047262	-13.323427
1576.876246	-13.400937
1577.706103	-13.522887
1578.536833	-13.666429
1579.368439	-13.840960
1580.200922	-14.038308
1581.034282	-14.249683
1581.868522	-14.473066
1582.703643	-14.709048
1583.539646	-14.935210
1584.376532	-15.170777
1585.214304	-15.389291
1586.052962	-15.599586
1586.892508	-15.799643
1587.732943	-15.981156
1588.574269	-16.150233
1589.416487	-16.312698
1590.259599	-16.457676
1591.103605	-16.603507
1591.948508	-16.748119
1592.794309	-16.884855
1593.641009	-17.038040
1594.488609	-17.186837
1595.337112	-17.346821
1596.186518	-17.515342
1597.036829	-17.690106
1597.888047	-17.865627
1598.740172	-18.056565
1599.593207	-18.234263
1600.447153	-18.418997
1601.302010	-18.597832
1602.157782	-18.760406
1603.014469	-18.918490
1603.872072	-19.058051
1604.730593	-19.177754
1605.590034	-19.280389
1606.450397	-19.365893
1607.311681	-19.417968
1608.173890	-19.465895
1609.037024	-19.477818
1609.901085	-19.475907
1610.766075	-19.454547
1611.631995	-19.410869
1612.498846	-19.346530
1613.366630	-19.270140
1614.235349	-19.167033
1615.105004	-19.048546
1615.975596	-18.917095
1616.847128	-18.756929
1617.719600	-18.592688
1618.593014	-18.406340
1619.467372	-18.209989
1620.342675	-18.004584
1621.218924	-17.794837
1622.096122	-17.574731
1622.974270	-17.364421
1623.853369	-17.147666
1624.733420	-16.938959
1625.614427	-16.739269
1626.496389	-16.542228
1627.379308	-16.358557
1628.263187	-16.184098
1629.148026	-16.018366
1630.033828	-15.863266
1630.920593	-15.721856
1631.808324	-15.581064
1632.697022	-15.457567
1633.586688	-15.333099
1634.477324	-15.215931
1635.368932	-15.102002
1636.261514	-14.989738
1637.155070	-14.875679
1638.049602	-14.766331
1638.945113	-14.652250
1639.841603	-14.539173
1640.739075	-14.428956
1641.637529	-14.313553
1642.536968	-14.204555
1643.437393	-14.094705
1644.338806	-13.987819
1645.241209	-13.884473
1646.144602	-13.787883
1647.048988	-13.691285
1647.954368	-13.606300
1648.860744	-13.522920
1649.768118	-13.445707
1650.676491	-13.375610
1651.585865	-13.307651
1652.496241	-13.244024
1653.407621	-13.184803
1654.320008	-13.126466
1655.233401	-13.069320
1656.147804	-13.017166
1657.063218	-12.960396
1657.979645	-12.909341
1658.897085	-12.856564
1659.815542	-12.804858
1660.735016	-12.754844
1661.655509	-12.707814
1662.577023	-12.659792
1663.499560	-12.618408
1664.423121	-12.577965
1665.347709	-12.539656
1666.273324	-12.508014
1667.199969	-12.475374
1668.127645	-12.447218
1669.056353	-12.421056
1669.986097	-12.396001
1670.916877	-12.371004
1671.848695	-12.350653
1672.781553	-12.326470
1673.715452	-12.307109
1674.650395	-12.287658
1675.586383	-12.268256
1676.523418	-12.252085
1677.461501	-12.236855
1678.400635	-12.222180
1679.340821	-12.210715
1680.282061	-12.200902
1681.224357	-12.190168
1682.167710	-12.185240
1683.112122	-12.177552
1684.057595	-12.173267
1685.004132	-12.169688
1685.951732	-12.166807
1686.900400	-12.163738
1687.850135	-12.163880
1688.800940	-12.161885
1689.752818	-12.162146
1690.705768	-12.164300
1691.659795	-12.164569
1692.614898	-12.168705
1693.571081	-12.172067
1694.528345	-12.176692
1695.486691	-12.181730
1696.446122	-12.188968
1697.406640	-12.193300
1698.368245	-12.201626
1699.330941	-12.207703
1700.294729	-12.214623
1701.259611	-12.223026
1702.225588	-12.230492
1703.192664	-12.239042
1704.160838	-12.248401
1705.130114	-12.257894
1706.100493	-12.266431
1707.071977	-12.277857
1708.044568	-12.285681
1709.018268	-12.296537
1709.993079	-12.305975
1710.969003	-12.315744
1711.946041	-12.325798
1712.924196	-12.336826
1713.903469	-12.346651
1714.883862	-12.357434
1715.865378	-12.368523
1716.848017	-12.377529
1717.831783	-12.389328
1718.816677	-12.398469
1719.802701	-12.409540
1720.789857	-12.420084
1721.778147	-12.431623
1722.767573	-12.441953
1723.758136	-12.454247
1724.749840	-12.464965
1725.742685	-12.475860
1726.736673	-12.487991
1727.731808	-12.497814
1728.728090	-12.510005
1729.725521	-12.520749
1730.724105	-12.532997
1731.723842	-12.544079
1732.724735	-12.557497
1733.726785	-12.568824
1734.729995	-12.582243
1735.734366	-12.595386
1736.739902	-12.608525
1737.746603	-12.623398
1738.754472	-12.637500
1739.763510	-12.653115
1740.773721	-12.667912
1741.785105	-12.684548
1742.797665	-12.699233
1743.811403	-12.716674
1744.826321	-12.732848
1745.842422	-12.749996
1746.859706	-12.767913
1747.878177	-12.785113
1748.897835	-12.802653
1749.918685	-12.819172
1750.940726	-12.836463
1751.963963	-12.851379
1752.988395	-12.868474
1754.014027	-12.883543
1755.040860	-12.899798
1756.068895	-12.915356
1757.098135	-12.931140
1758.128583	-12.946363
1759.160240	-12.961011
1760.193109	-12.976398
1761.227191	-12.989993
1762.262488	-13.004995
1763.299004	-13.018394
1764.336740	-13.033184
1765.375697	-13.046368
1766.415880	-13.061129
1767.457288	-13.075765
1768.499926	-13.090105
1769.543794	-13.105904
1770.588895	-13.121475
1771.635231	-13.137069
1772.682805	-13.152569
1773.731619	-13.169729
1774.781674	-13.183803
1775.832973	-13.200666
1776.885519	-13.216904
1777.939312	-13.231689
1778.994357	-13.248710
1780.050654	-13.265390
1781.108207	-13.280771
1782.167017	-13.297374
1783.227087	-13.314644
1784.288418	-13.328334
1785.351013	-13.345600
1786.414875	-13.360872
1787.480006	-13.374823
1788.546407	-13.390628
1789.614082	-13.404892
1790.683032	-13.418100
1791.753259	-13.432801
1792.824767	-13.447074
1793.897557	-13.459959
1794.971632	-13.475730
1796.046994	-13.488864
1797.123645	-13.502757
1798.201588	-13.516873
1799.280824	-13.529403
1800.361357	-13.542706
1801.443188	-13.555663
1802.526320	-13.568607
1803.610756	-13.581862
1804.696497	-13.595895
1805.783546	-13.608767
1806.871906	-13.623182
1807.961578	-13.636167
1809.052565	-13.649085
1810.144870	-13.662504
1811.238494	-13.674506
1812.333441	-13.687907
1813.429713	-13.701087
1814.527311	-13.714565
1815.626239	-13.728022
1816.726499	-13.741952
1817.828094	-13.754422
1818.931025	-13.767860
1820.035295	-13.781008
1821.140906	-13.793501
1822.247862	-13.807585
1823.356165	-13.819956
1824.465816	-13.832736
1825.576819	-13.844837
1826.689175	-13.856462
1827.802888	-13.867550
1828.917960	-13.879091
1830.034394	-13.890242
1831.152191	-13.901151
1832.271354	-13.912697
1833.391887	-13.922167
1834.513790	-13.932056
1835.637068	-13.940376
1836.761722	-13.948105
1837.887755	-13.955847
1839.015169	-13.963055
1840.143968	-13.970265
1841.274153	-13.976726
1842.405727	-13.983069
1843.538693	-13.987968
1844.673053	-13.993425
1845.808810	-13.997699
1846.945966	-14.001926
1848.084525	-14.006254
1849.224488	-14.009379
1850.365858	-14.013242
1851.508638	-14.016227
1852.652831	-14.019631
1853.798438	-14.022698
1854.945463	-14.025326
1856.093909	-14.027200
1857.243777	-14.028487
1858.395071	-14.029675
1859.547794	-14.030504
1860.701947	-14.032404
1861.857533	-14.033605
1863.014556	-14.035370
1864.173018	-14.036447
1865.332922	-14.036822
1866.494270	-14.037648
1867.657065	-14.037757
1868.821309	-14.038630
1869.987006	-14.039285
1871.154158	-14.039942
1872.322768	-14.040053
1873.492839	-14.039849
1874.664373	-14.039212
1875.837373	-14.038514
1877.011841	-14.038434
1878.187782	-14.037573
1879.365197	-14.037116
1880.544089	-14.035664
1881.724460	-14.033818
1882.906315	-14.032110
1884.089655	-14.029939
1885.274483	-14.028291
1886.460803	-14.026109
1887.648616	-14.023425
1888.837927	-14.019710
1890.028736	-14.015419
1891.221049	-14.010539
1892.414866	-14.005631
1893.610192	-14.000862
1894.807028	-13.995096
1896.005379	-13.988801
1897.205246	-13.980840
1898.406633	-13.971781
1899.609542	-13.962425
1900.813977	-13.952434
1902.019940	-13.942814
1903.227434	-13.933078
1904.436462	-13.923285
1905.647028	-13.913231
1906.859133	-13.902835
1908.072781	-13.891894
1909.287976	-13.880906
1910.504719	-13.869847
1911.723013	-13.858201
1912.942863	-13.846795
1914.164270	-13.834757
1915.387238	-13.822909
1916.611770	-13.811067
1917.837868	-13.798771
1919.065536	-13.786653
1920.294777	-13.774228
1921.525594	-13.761646
1922.757989	-13.749549
1923.991967	-13.737732
1925.227529	-13.726525
1926.464679	-13.715848
1927.703420	-13.704871
1928.943755	-13.693819
1930.185688	-13.682702
1931.429221	-13.671665
1932.674356	-13.661771
1933.921099	-13.652512
1935.169451	-13.643042
1936.419415	-13.633302
1937.670996	-13.622319
1938.924195	-13.611298
1940.179017	-13.601022
1941.435463	-13.591169
1942.693538	-13.582145
1943.953245	-13.572404
1945.214586	-13.561678
1946.477566	-13.550581
1947.742186	-13.539340
1949.008451	-13.528817
1950.276363	-13.518476
1951.545926	-13.507313
1952.817143	-13.495232
1954.090017	-13.482468
1955.364551	-13.469495
1956.640749	-13.456927
1957.918615	-13.443949
1959.198150	-13.430167
1960.479359	-13.415858
1961.762244	-13.400995
1963.046810	-13.386546
1964.333059	-13.372293
1965.620995	-13.357960
1966.910621	-13.343786
1968.201940	-13.329110
1969.494956	-13.314311
1970.789672	-13.299406
1972.086091	-13.284621
1973.384217	-13.270726
1974.684053	-13.257210
1975.985602	-13.243750
1977.288869	-13.230094
1978.593855	-13.216342
1979.900566	-13.203176
1981.209003	-13.190388
1982.519171	-13.177872
1983.831073	-13.165904
1985.144712	-13.154457
1986.460093	-13.143670
1987.777217	-13.133212
1989.096089	-13.122645
1990.416713	-13.112449
1991.739092	-13.102821
1993.063228	-13.094001
1994.389127	-13.086399
1995.716791	-13.079416
1997.046223	-13.073033
1998.377428	-13.066807
1999.710409	-13.060151
2001.045169	-13.053882
2002.381713	-13.047865
2003.720043	-13.042115
2005.060163	-13.036613
2006.402077	-13.030439
2007.745788	-13.023873
2009.091301	-13.016820
2010.438618	-13.009327
2011.787743	-13.001934
2013.138680	-12.994256
2014.491433	-12.986442
2015.846005	-12.977955
2017.202399	-12.968403
2018.560621	-12.958466
2019.920673	-12.948370
2021.282558	-12.938823
2022.646281	-12.930094
2024.011846	-12.921607
2025.379256	-12.913132
2026.748515	-12.904209
2028.119626	-12.895159
2029.492594	-12.886622
2030.867422	-12.878604
2032.244114	-12.871193
2033.622673	-12.863881
2035.003104	-12.856416
2036.385411	-12.849357
2037.769597	-12.842939
2039.155665	-12.837361
2040.543621	-12.832564
2041.933467	-12.828384
2043.325208	-12.824996
2044.718847	-12.822189
2046.114389	-12.820104
2047.511837	-12.818895
2048.911195	-12.818540
2050.312467	-12.819093
2051.715657	-12.820044
2053.120769	-12.821385
2054.527807	-12.823360
2055.936775	-12.825804
2057.347677	-12.828963
2058.760516	-12.832662
2060.175297	-12.836740
2061.592025	-12.840758
2063.010701	-12.843973
2064.431332	-12.846873
2065.853921	-12.849826
2067.278472	-12.853144
2068.704988	-12.856713
2070.133475	-12.859583
2071.563936	-12.861685
2072.996375	-12.863121
2074.430796	-12.864546
2075.867204	-12.866017
2077.305603	-12.867165
2078.745996	-12.868293
2080.188389	-12.869273
2081.632784	-12.870523
2083.079187	-12.871856
2084.527601	-12.873093
2085.978030	-12.874448
2087.430480	-12.875621
2088.884954	-12.877261
2090.341455	-12.879369
2091.799990	-12.882047
2093.260561	-12.885252
2094.723173	-12.888715
2096.187831	-12.892925
2097.654538	-12.897971
2099.123300	-12.904155
2100.594119	-12.911007
2102.067001	-12.918565
2103.541950	-12.927022
2105.018971	-12.936663
2106.498067	-12.947908
2107.979243	-12.960414
2109.462503	-12.974209
2110.947853	-12.989081
2112.435295	-13.004863
2113.924836	-13.020794
2115.416478	-13.036566
2116.910227	-13.052785
2118.406087	-13.070486
2119.904063	-13.089832
2121.404158	-13.109409
2122.906378	-13.128188
2124.410727	-13.145744
2125.917210	-13.162551
2127.425831	-13.177871
2128.936594	-13.191595
2130.449505	-13.204301
2131.964567	-13.217216
2133.481786	-13.231369
2135.001166	-13.247246
2136.522711	-13.264345
2138.046427	-13.280709
2139.572317	-13.295879
2141.100388	-13.310032
2142.630642	-13.323657
2144.163085	-13.335540
2145.697722	-13.345169
2147.234558	-13.353511
2148.773596	-13.362250
2150.314842	-13.372109
2151.858301	-13.383672
2153.403977	-13.399009
2154.951875	-13.420241
2156.502000	-13.447451
2158.054357	-13.479056
2159.608950	-13.513863
2161.165785	-13.550625
2162.724866	-13.586580
2164.286198	-13.618109
2165.849786	-13.642883
2167.415635	-13.660334
2168.983749	-13.671215
2170.554134	-13.675923
2172.126795	-13.675837
2173.701737	-13.674233
2175.278964	-13.676201
2176.858481	-13.684142
2178.440294	-13.698138
2180.024408	-13.718900
2181.610827	-13.748662
2183.199557	-13.787791
2184.790602	-13.834502
2186.383968	-13.886989
2187.979660	-13.945107
2189.577683	-14.007575
2191.178041	-14.071274
2192.780741	-14.133435
2194.385787	-14.193970
2195.993185	-14.253383
2197.602939	-14.310589
2199.215054	-14.357033
