# 2022-03-21_14.57.10
# shape = sech2
# FWHM_ps = 0.1
# carrier_nm = 1542
# frep_MHz = 12126
# pow_mW = 8000
# GDD = 0.0
# propa_len = 0.16
# untap_len = 0.01
# taper_len = 0.1
# waist_len = 0.02
# uptap_len = 0.02
# untap_scale = 1.0
# waist_scale = 0.23333333333333336
# workingDir = NL_20110305_12 (Spirou)
# axis = slow
# window_ps = 10.0
# steps = 200
# points = 13000
# 
# wavelength [nm]	 power spectral density [dB]
1000.248639	-27.423637
1000.582480	-27.489685
1000.916545	-27.483065
1001.250832	-27.372670
1001.585343	-27.278879
1001.920077	-27.296869
1002.255035	-27.388672
1002.590218	-27.410785
1002.925624	-27.296891
1003.261255	-27.168485
1003.597111	-27.163835
1003.933192	-27.262093
1004.269497	-27.313828
1004.606029	-27.231946
1004.942785	-27.108464
1005.279768	-27.093760
1005.616977	-27.186177
1005.954412	-27.231890
1006.292074	-27.140319
1006.629962	-27.018660
1006.968077	-27.007190
1007.306420	-27.108757
1007.644990	-27.173285
1007.983787	-27.079733
1008.322813	-26.923905
1008.662067	-26.884345
1009.001549	-26.970132
1009.341259	-27.031282
1009.681199	-26.973895
1010.021367	-26.873939
1010.361765	-26.867855
1010.702392	-26.965597
1011.043250	-27.016473
1011.384337	-26.926547
1011.725654	-26.823767
1012.067202	-26.854636
1012.408980	-26.986255
1012.750989	-27.045545
1013.093230	-26.943651
1013.435702	-26.813865
1013.778405	-26.823146
1014.121341	-26.936234
1014.464508	-26.968339
1014.807908	-26.852287
1015.151540	-26.733117
1015.495405	-26.754392
1015.839503	-26.854856
1016.183835	-26.846470
1016.528400	-26.702310
1016.873198	-26.601164
1017.218231	-26.657370
1017.563498	-26.775807
1017.908999	-26.764447
1018.254735	-26.614248
1018.600707	-26.522356
1018.946913	-26.587659
1019.293354	-26.675341
1019.640032	-26.620120
1019.986945	-26.468681
1020.334094	-26.404000
1020.681480	-26.477796
1021.029102	-26.528908
1021.376961	-26.422733
1021.725058	-26.270849
1022.073391	-26.247301
1022.421962	-26.335431
1022.770772	-26.349638
1023.119819	-26.212397
1023.469104	-26.086161
1023.818628	-26.115482
1024.168391	-26.217572
1024.518393	-26.194195
1024.868634	-26.031621
1025.219115	-25.928985
1025.569836	-25.985805
1025.920796	-26.059225
1026.271997	-25.975454
1026.623438	-25.805318
1026.975121	-25.751019
1027.327044	-25.839284
1027.679208	-25.880610
1028.031614	-25.755702
1028.384262	-25.607223
1028.737152	-25.617530
1029.090284	-25.738550
1029.443659	-25.752036
1029.797276	-25.612616
1030.151137	-25.512441
1030.505240	-25.569964
1030.859587	-25.675905
1031.214178	-25.641279
1031.569013	-25.499174
1031.924093	-25.448699
1032.279417	-25.513022
1032.634985	-25.530369
1032.990799	-25.419878
1033.346858	-25.306626
1033.703162	-25.329288
1034.059712	-25.406379
1034.416509	-25.356070
1034.773551	-25.211337
1035.130841	-25.152103
1035.488377	-25.223098
1035.846160	-25.270012
1036.204190	-25.167775
1036.562468	-25.044222
1036.920994	-25.051123
1037.279768	-25.114675
1037.638790	-25.068356
1037.998061	-24.917053
1038.357581	-24.844429
1038.717350	-24.909331
1039.077368	-24.936232
1039.437636	-24.805287
1039.798154	-24.652418
1040.158922	-24.640895
1040.519940	-24.720588
1040.881209	-24.703695
1041.242729	-24.564184
1041.604501	-24.477585
1041.966524	-24.505306
1042.328798	-24.508641
1042.691325	-24.397158
1043.054103	-24.276240
1043.417135	-24.271323
1043.780419	-24.304403
1044.143956	-24.218295
1044.507746	-24.052846
1044.871791	-23.981395
1045.236088	-24.026722
1045.600641	-24.031885
1045.965447	-23.922261
1046.330508	-23.820190
1046.695824	-23.831590
1047.061395	-23.863236
1047.427222	-23.787188
1047.793304	-23.675190
1048.159642	-23.665158
1048.526237	-23.720120
1048.893088	-23.682787
1049.260196	-23.544047
1049.627561	-23.465287
1049.995183	-23.511429
1050.363063	-23.531899
1050.731201	-23.434825
1051.099597	-23.330555
1051.468251	-23.334938
1051.837164	-23.384451
1052.206336	-23.325360
1052.575767	-23.220220
1052.945458	-23.205861
1053.315409	-23.257117
1053.685619	-23.231961
1054.056090	-23.097461
1054.426821	-23.024256
1054.797814	-23.065034
1055.169067	-23.076843
1055.540582	-22.982316
1055.912359	-22.884005
1056.284398	-22.897572
1056.656698	-22.942361
1057.029262	-22.878664
1057.402088	-22.780474
1057.775177	-22.766278
1058.148530	-22.804562
1058.522146	-22.761153
1058.896027	-22.642033
1059.270171	-22.592397
1059.644580	-22.613679
1060.019254	-22.578159
1060.394193	-22.450442
1060.769397	-22.375185
1061.144867	-22.394207
1061.520602	-22.397502
1061.896604	-22.295460
1062.272872	-22.193383
1062.649407	-22.196027
1063.026210	-22.198934
1063.403279	-22.133689
1063.780616	-22.032206
1064.158221	-22.021156
1064.536094	-22.022622
1064.914235	-21.930263
1065.292645	-21.822985
1065.671325	-21.792240
1066.050273	-21.848353
1066.429491	-21.811455
1066.808979	-21.714406
1067.188738	-21.664860
1067.568766	-21.678874
1067.949066	-21.665841
1068.329636	-21.582233
1068.710478	-21.554639
1069.091592	-21.569184
1069.472977	-21.535002
1069.854635	-21.421518
1070.236565	-21.363655
1070.618768	-21.397324
1071.001243	-21.415288
1071.383993	-21.341858
1071.767016	-21.275987
1072.150313	-21.293740
1072.533884	-21.303838
1072.917730	-21.267215
1073.301850	-21.218731
1073.686246	-21.245943
1074.070917	-21.234222
1074.455864	-21.155257
1074.841087	-21.095989
1075.226586	-21.112253
1075.612362	-21.142003
1075.998415	-21.062451
1076.384745	-21.003578
1076.771353	-21.006021
1077.158238	-21.036279
1077.545401	-20.988737
1077.932843	-20.931499
1078.320564	-20.949397
1078.708564	-20.947770
1079.096842	-20.885679
1079.485401	-20.800816
1079.874240	-20.808241
1080.263358	-20.807371
1080.652757	-20.741327
1081.042438	-20.667166
1081.432399	-20.659783
1081.822641	-20.659119
1082.213166	-20.579605
1082.603972	-20.521172
1082.995061	-20.521679
1083.386433	-20.526752
1083.778087	-20.446418
1084.170025	-20.388817
1084.562246	-20.412218
1084.954751	-20.418200
1085.347541	-20.339297
1085.740615	-20.252764
1086.133973	-20.268060
1086.527617	-20.278293
1086.921546	-20.220357
1087.315761	-20.142672
1087.710262	-20.112377
1088.105050	-20.080700
1088.500124	-20.010662
1088.895485	-19.998461
1089.291134	-20.024784
1089.687070	-20.005457
1090.083294	-19.915234
1090.479806	-19.898684
1090.876607	-19.983049
1091.273696	-20.025913
1091.671075	-19.975474
1092.068744	-19.914470
1092.466702	-19.919586
1092.864950	-19.911588
1093.263489	-19.885912
1093.662319	-19.869965
1094.061440	-19.840253
1094.460852	-19.755326
1094.860555	-19.687211
1095.260551	-19.717980
1095.660840	-19.753882
1096.061421	-19.707229
1096.462295	-19.645024
1096.863462	-19.667527
1097.264923	-19.701718
1097.666678	-19.674552
1098.068727	-19.662818
1098.471071	-19.716520
1098.873710	-19.731660
1099.276644	-19.651135
1099.679874	-19.595732
1100.083400	-19.628652
1100.487222	-19.638173
1100.891340	-19.553446
1101.295756	-19.447974
1101.700468	-19.385630
1102.105478	-19.340099
1102.510787	-19.311388
1102.916393	-19.298215
1103.322298	-19.244558
1103.728502	-19.158351
1104.135005	-19.147239
1104.541807	-19.236700
1104.948909	-19.269314
1105.356312	-19.192859
1105.764015	-19.142435
1106.172019	-19.195804
1106.580324	-19.231211
1106.988931	-19.181397
1107.397840	-19.125966
1107.807051	-19.101590
1108.216564	-19.062875
1108.626380	-19.011983
1109.036500	-18.983684
1109.446923	-18.925828
1109.857649	-18.832788
1110.268680	-18.784476
1110.680016	-18.800531
1111.091657	-18.773823
1111.503602	-18.701834
1111.915854	-18.695638
1112.328411	-18.764687
1112.741275	-18.800159
1113.154445	-18.788436
1113.567922	-18.807334
1113.981706	-18.843831
1114.395798	-18.858143
1114.810198	-18.873936
1115.224906	-18.897418
1115.639923	-18.860837
1116.055249	-18.799264
1116.470884	-18.797824
1116.886829	-18.811101
1117.303084	-18.735770
1117.719650	-18.630744
1118.136526	-18.593930
1118.553713	-18.574423
1118.971212	-18.509045
1119.389022	-18.447467
1119.807145	-18.426911
1120.225580	-18.401285
1120.644328	-18.381948
1121.063389	-18.404270
1121.482763	-18.422049
1121.902452	-18.393584
1122.322454	-18.388224
1122.742771	-18.426975
1123.163404	-18.429012
1123.584351	-18.390468
1124.005614	-18.390673
1124.427193	-18.404379
1124.849089	-18.358902
1125.271301	-18.302372
1125.693830	-18.283158
1126.116677	-18.240459
1126.539842	-18.152483
1126.963324	-18.093308
1127.387126	-18.056782
1127.811246	-17.987626
1128.235685	-17.924453
1128.660444	-17.915188
1129.085522	-17.897496
1129.510922	-17.845322
1129.936641	-17.826593
1130.362682	-17.843506
1130.789044	-17.833550
1131.215728	-17.822100
1131.642734	-17.854622
1132.070063	-17.879712
1132.497714	-17.875533
1132.925689	-17.900477
1133.353987	-17.942616
1133.782610	-17.936430
1134.211556	-17.921016
1134.640827	-17.937434
1135.070424	-17.927675
1135.500345	-17.880842
1135.930593	-17.868070
1136.361166	-17.867220
1136.792067	-17.817440
1137.223294	-17.762980
1137.654848	-17.741611
1138.086730	-17.694873
1138.518940	-17.624492
1138.951479	-17.590302
1139.384346	-17.565578
1139.817543	-17.509149
1140.251069	-17.474617
1140.684925	-17.471182
1141.119111	-17.438879
1141.553628	-17.393822
1141.988475	-17.385774
1142.423655	-17.372610
1142.859166	-17.338722
1143.295009	-17.335150
1143.731185	-17.345161
1144.167694	-17.317048
1144.604536	-17.298371
1145.041711	-17.311052
1145.479221	-17.293513
1145.917065	-17.249142
1146.355245	-17.237774
1146.793759	-17.226975
1147.232609	-17.188615
1147.671795	-17.167816
1148.111317	-17.159107
1148.551177	-17.112212
1148.991373	-17.066684
1149.431907	-17.049907
1149.872779	-17.011629
1150.313989	-16.957727
1150.755538	-16.940394
1151.197426	-16.922977
1151.639653	-16.879007
1152.082220	-16.854851
1152.525128	-16.845521
1152.968376	-16.807995
1153.411966	-16.778022
1153.855897	-16.776672
1154.300169	-16.759486
1154.744784	-16.736182
1155.189742	-16.746953
1155.635042	-16.748821
1156.080687	-16.722527
1156.526674	-16.718473
1156.973007	-16.723870
1157.419683	-16.702924
1157.866705	-16.699321
1158.314072	-16.714884
1158.761786	-16.701520
1159.209845	-16.683677
1159.658251	-16.686216
1160.107004	-16.666454
1160.556104	-16.631517
1161.005553	-16.620591
1161.455349	-16.603897
1161.905494	-16.563964
1162.355989	-16.539992
1162.806832	-16.520882
1163.258026	-16.469118
1163.709570	-16.422109
1164.161464	-16.393451
1164.613710	-16.343918
1165.066307	-16.293767
1165.519256	-16.271863
1165.972558	-16.229534
1166.426212	-16.174995
1166.880219	-16.148468
1167.334580	-16.110179
1167.789295	-16.056390
1168.244364	-16.034923
1168.699788	-16.012792
1169.155567	-15.971660
1169.611702	-15.954199
1170.068193	-15.943587
1170.525041	-15.909596
1170.982245	-15.885788
1171.439807	-15.883838
1171.897726	-15.864199
1172.356004	-15.849658
1172.814640	-15.869760
1173.273635	-15.863524
1173.732989	-15.840326
1174.192703	-15.860477
1174.652778	-15.858003
1175.113213	-15.840076
1175.574009	-15.868372
1176.035167	-15.869306
1176.496687	-15.851644
1176.958569	-15.872138
1177.420814	-15.862570
1177.883422	-15.832439
1178.346394	-15.832453
1178.809730	-15.819825
1179.273430	-15.793561
1179.737496	-15.780363
1180.201927	-15.758760
1180.666723	-15.711386
1181.131886	-15.678022
1181.597416	-15.654811
1182.063312	-15.596904
1182.529576	-15.558164
1182.996209	-15.536377
1183.463209	-15.471807
1183.930579	-15.431248
1184.398317	-15.396931
1184.866426	-15.325492
1185.334904	-15.294800
1185.803754	-15.264692
1186.272974	-15.215279
1186.742566	-15.192014
1187.212529	-15.154843
1187.682865	-15.125637
1188.153574	-15.100620
1188.624656	-15.071024
1189.096112	-15.076649
1189.567942	-15.049277
1190.040147	-15.035150
1190.512726	-15.055145
1190.985681	-15.005553
1191.459012	-15.012648
1191.932720	-15.039142
1192.406804	-14.982552
1192.881265	-15.020444
1193.356104	-15.034252
1193.831322	-14.973511
1194.306918	-15.022321
1194.782893	-15.004769
1195.259248	-14.957761
1195.735982	-15.013583
1196.213097	-14.976941
1196.690593	-14.947172
1197.168471	-14.972843
1197.646730	-14.916951
1198.125371	-14.898069
1198.604395	-14.894531
1199.083803	-14.855829
1199.563594	-14.835980
1200.043769	-14.803342
1200.524329	-14.780852
1201.005273	-14.735236
1201.486604	-14.705868
1201.968320	-14.705547
1202.450422	-14.635568
1202.932912	-14.636706
1203.415789	-14.626127
1203.899054	-14.534098
1204.382707	-14.568762
1204.866748	-14.525132
1205.351179	-14.459243
1205.836000	-14.524844
1206.321211	-14.435344
1206.806812	-14.412862
1207.292805	-14.463343
1207.779189	-14.351985
1208.265965	-14.393690
1208.753134	-14.402140
1209.240696	-14.308413
1209.728651	-14.381411
1210.217000	-14.322217
1210.705744	-14.274148
1211.194883	-14.340329
1211.684417	-14.249195
1212.174347	-14.263581
1212.664673	-14.278831
1213.155396	-14.185639
1213.646516	-14.235844
1214.138034	-14.193343
1214.629951	-14.145744
1215.122266	-14.202996
1215.614980	-14.120398
1216.108095	-14.120486
1216.601609	-14.136507
1217.095524	-14.043918
1217.589841	-14.089618
1218.084559	-14.062889
1218.579679	-13.996968
1219.075202	-14.052344
1219.571128	-13.976570
1220.067458	-13.954267
1220.564191	-14.000171
1221.061330	-13.910043
1221.558874	-13.935180
1222.056823	-13.938239
1222.555178	-13.847800
1223.053940	-13.899031
1223.553109	-13.856309
1224.052686	-13.801641
1224.552671	-13.858440
1225.053065	-13.777356
1225.553867	-13.762199
1226.055079	-13.791380
1226.556702	-13.705418
1227.058735	-13.736048
1227.561179	-13.727158
1228.064035	-13.657093
1228.567303	-13.696524
1229.070983	-13.649666
1229.575077	-13.617588
1230.079585	-13.648452
1230.584506	-13.591042
1231.089842	-13.589662
1231.595594	-13.591448
1232.101761	-13.544555
1232.608345	-13.560313
1233.115345	-13.547593
1233.622762	-13.523220
1234.130597	-13.529516
1234.638851	-13.504958
1235.147523	-13.489529
1235.656615	-13.487244
1236.166126	-13.471936
1236.676058	-13.456543
1237.186411	-13.447653
1237.697185	-13.431521
1238.208381	-13.413998
1238.719999	-13.417532
1239.232040	-13.397488
1239.744505	-13.380670
1240.257394	-13.382019
1240.770708	-13.345843
1241.284446	-13.341600
1241.798610	-13.335194
1242.313201	-13.297535
1242.828218	-13.306904
1243.343662	-13.278186
1243.859534	-13.253620
1244.375834	-13.270094
1244.892563	-13.231019
1245.409721	-13.230086
1245.927309	-13.226523
1246.445327	-13.183237
1246.963777	-13.198832
1247.482657	-13.173684
1248.001970	-13.150133
1248.521716	-13.163321
1249.041894	-13.120574
1249.562506	-13.121821
1250.083553	-13.119753
1250.605034	-13.083808
1251.126950	-13.098322
1251.649302	-13.069402
1252.172091	-13.049143
1252.695316	-13.056850
1253.218979	-13.017197
1253.743079	-13.019548
1254.267619	-13.009109
1254.792597	-12.976273
1255.318015	-12.988357
1255.843874	-12.962630
1256.370173	-12.951602
1256.896913	-12.956122
1257.424095	-12.919879
1257.951720	-12.921004
1258.479787	-12.907863
1259.008298	-12.881175
1259.537254	-12.888924
1260.066654	-12.861535
1260.596499	-12.849635
1261.126790	-12.852222
1261.657527	-12.825106
1262.188711	-12.828377
1262.720342	-12.815485
1263.252422	-12.791424
1263.784950	-12.797022
1264.317928	-12.773610
1264.851355	-12.764828
1265.385232	-12.765813
1265.919560	-12.739338
1266.454340	-12.742914
1266.989572	-12.732169
1267.525256	-12.714171
1268.061394	-12.720409
1268.597985	-12.693650
1269.135031	-12.685426
1269.672531	-12.682112
1270.210487	-12.656090
1270.748899	-12.662284
1271.287768	-12.644257
1271.827094	-12.629923
1272.366877	-12.637017
1272.907119	-12.612299
1273.447820	-12.614067
1273.988981	-12.601861
1274.530601	-12.579030
1275.072683	-12.587230
1275.615226	-12.562446
1276.158230	-12.557647
1276.701697	-12.552515
1277.245627	-12.527123
1277.790021	-12.534513
1278.334879	-12.510308
1278.880202	-12.497543
1279.425991	-12.491381
1279.972245	-12.458782
1280.518966	-12.461514
1281.066155	-12.437858
1281.613811	-12.422246
1282.161936	-12.421335
1282.710529	-12.390936
1283.259593	-12.395371
1283.809126	-12.374822
1284.359131	-12.357657
1284.909607	-12.357986
1285.460555	-12.326277
1286.011976	-12.332555
1286.563870	-12.315843
1287.116237	-12.299719
1287.669080	-12.304993
1288.222397	-12.274953
1288.776191	-12.279906
1289.330460	-12.259527
1289.885207	-12.238086
1290.440431	-12.239120
1290.996133	-12.204546
1291.552314	-12.207008
1292.108975	-12.185620
1292.666115	-12.165350
1293.223737	-12.166307
1293.781839	-12.132003
1294.340424	-12.133369
1294.899491	-12.109358
1295.459041	-12.091825
1296.019075	-12.092637
1296.579593	-12.063394
1297.140597	-12.072023
1297.702086	-12.051974
1298.264061	-12.042856
1298.826524	-12.044088
1299.389474	-12.018189
1299.952912	-12.026768
1300.516839	-12.003228
1301.081255	-12.000773
1301.646162	-12.001284
1302.211559	-11.981498
1302.777448	-11.993547
1303.343829	-11.970295
1303.910702	-11.973042
1304.478069	-11.966685
1305.045930	-11.948631
1305.614285	-11.957346
1306.183136	-11.933974
1306.752483	-11.943673
1307.322326	-11.933528
1307.892666	-11.922750
1308.463504	-11.929404
1309.034841	-11.907001
1309.606677	-11.916547
1310.179012	-11.899542
1310.751849	-11.897367
1311.325186	-11.900925
1311.899025	-11.885361
1312.473366	-11.898485
1313.048211	-11.880100
1313.623559	-11.884504
1314.199412	-11.879379
1314.775770	-11.869217
1315.352634	-11.879514
1315.930004	-11.862882
1316.507881	-11.876258
1317.086266	-11.868687
1317.665159	-11.869075
1318.244562	-11.872250
1318.824474	-11.857476
1319.404897	-11.870940
1319.985831	-11.856842
1320.567276	-11.862954
1321.149234	-11.860164
1321.731706	-11.856208
1322.314691	-11.864787
1322.898190	-11.845756
1323.482205	-11.854027
1324.066736	-11.842173
1324.651783	-11.842101
1325.237347	-11.840199
1325.823430	-11.828895
1326.410031	-11.839139
1326.997151	-11.821842
1327.584791	-11.825047
1328.172952	-11.813718
1328.761634	-11.809689
1329.350839	-11.810823
1329.940566	-11.796976
1330.530817	-11.806709
1331.121592	-11.792901
1331.712891	-11.795401
1332.304716	-11.786936
1332.897068	-11.780673
1333.489946	-11.781973
1334.083352	-11.768010
1334.677287	-11.777178
1335.271750	-11.764485
1335.866744	-11.765220
1336.462268	-11.756892
1337.058323	-11.749421
1337.654910	-11.748607
1338.252029	-11.731924
1338.849682	-11.738125
1339.447869	-11.725509
1340.046591	-11.725747
1340.645848	-11.715206
1341.245641	-11.707634
1341.845972	-11.707612
1342.446840	-11.691916
1343.048246	-11.696953
1343.650191	-11.686353
1344.252677	-11.691326
1344.855702	-11.682413
1345.459269	-11.677679
1346.063379	-11.679023
1346.668030	-11.668483
1347.273226	-11.674652
1347.878965	-11.664144
1348.485250	-11.672063
1349.092080	-11.664232
1349.699456	-11.661923
1350.307380	-11.658776
1350.915851	-11.650926
1351.524871	-11.656073
1352.134441	-11.644358
1352.744560	-11.651389
1353.355231	-11.641941
1353.966453	-11.643998
1354.578227	-11.636883
1355.190555	-11.633465
1355.803436	-11.638130
1356.416872	-11.632429
1357.030863	-11.641272
1357.645411	-11.633225
1358.260515	-11.643280
1358.876177	-11.636495
1359.492397	-11.641525
1360.109176	-11.644592
1360.726516	-11.648701
1361.344416	-11.657921
1361.962877	-11.654297
1362.581901	-11.667634
1363.201487	-11.661893
1363.821637	-11.674788
1364.442352	-11.673605
1365.063632	-11.686678
1365.685478	-11.691059
1366.307891	-11.694563
1366.930871	-11.703411
1367.554420	-11.702147
1368.178538	-11.716679
1368.803226	-11.714340
1369.428485	-11.733725
1370.054315	-11.732496
1370.680717	-11.745694
1371.307693	-11.747076
1371.935242	-11.757600
1372.563366	-11.767458
1373.192065	-11.774217
1373.821341	-11.792003
1374.451193	-11.794394
1375.081623	-11.812446
1375.712632	-11.811021
1376.344221	-11.833256
1376.976389	-11.837533
1377.609139	-11.858115
1378.242470	-11.865211
1378.876384	-11.880462
1379.510881	-11.890204
1380.145963	-11.898967
1380.781629	-11.917446
1381.417881	-11.925389
1382.054720	-11.947399
1382.692147	-11.948911
1383.330161	-11.970947
1383.968765	-11.971271
1384.607959	-11.994202
1385.247743	-11.999709
1385.888119	-12.022831
1386.529087	-12.029520
1387.170648	-12.044228
1387.812804	-12.055915
1388.455554	-12.068869
1389.098899	-12.088786
1389.742842	-12.099901
1390.387381	-12.124287
1391.032519	-12.128533
1391.678256	-12.153621
1392.324592	-12.158917
1392.971529	-12.189759
1393.619068	-12.197586
1394.267208	-12.226906
1394.915952	-12.233862
1395.565300	-12.257700
1396.215253	-12.269033
1396.865812	-12.295169
1397.516977	-12.313900
1398.168749	-12.333812
1398.821130	-12.352711
1399.474120	-12.365789
1400.127719	-12.388177
1400.781930	-12.401547
1401.436752	-12.430748
1402.092186	-12.439863
1402.748234	-12.466886
1403.404897	-12.472646
1404.062174	-12.503171
1404.720067	-12.511889
1405.378577	-12.545456
1406.037705	-12.553228
1406.697451	-12.581157
1407.357817	-12.587382
1408.018803	-12.617869
1408.680410	-12.631250
1409.342639	-12.660947
1410.005492	-12.674406
1410.668968	-12.698383
1411.333068	-12.714420
1411.997795	-12.741898
1412.663147	-12.768738
1413.329127	-12.795090
1413.995736	-12.820784
1414.662973	-12.840719
1415.330840	-12.869359
1415.999339	-12.890870
1416.668469	-12.926921
1417.338232	-12.946053
1418.008628	-12.979153
1418.679659	-12.994644
1419.351325	-13.033953
1420.023628	-13.052956
1420.696568	-13.094674
1421.370145	-13.109333
1422.044362	-13.147045
1422.719219	-13.161518
1423.394717	-13.207798
1424.070856	-13.228170
1424.747638	-13.273057
1425.425064	-13.286769
1426.103134	-13.326654
1426.781850	-13.340625
1427.461212	-13.385894
1428.141221	-13.402744
1428.821878	-13.444713
1429.503185	-13.459817
1430.185141	-13.506655
1430.867749	-13.530107
1431.551008	-13.581403
1432.234920	-13.601112
1432.919486	-13.643254
1433.604707	-13.659862
1434.290583	-13.709020
1434.977116	-13.735783
1435.664307	-13.790020
1436.352156	-13.816692
1437.040664	-13.870468
1437.729833	-13.901083
1438.419663	-13.959543
1439.110156	-13.985633
1439.801312	-14.031603
1440.493132	-14.049062
1441.185617	-14.099205
1441.878768	-14.130526
1442.572586	-14.194312
1443.267072	-14.228918
1443.962228	-14.290592
1444.658053	-14.324069
1445.354549	-14.385407
1446.051717	-14.409797
1446.749558	-14.454448
1447.448073	-14.462624
1448.147263	-14.506835
1448.847128	-14.530487
1449.547671	-14.594297
1450.248891	-14.626424
1450.950789	-14.691643
1451.653368	-14.722457
1452.356627	-14.785260
1453.060568	-14.803640
1453.765192	-14.841412
1454.470500	-14.832742
1455.176492	-14.861833
1455.883170	-14.865717
1456.590534	-14.915775
1457.298586	-14.938739
1458.007327	-15.003880
1458.716758	-15.044803
1459.426880	-15.123787
1460.137693	-15.160052
1460.849199	-15.203990
1461.561398	-15.196142
1462.274293	-15.201767
1462.987883	-15.178022
1463.702170	-15.177074
1464.417155	-15.162995
1465.132838	-15.184571
1465.849222	-15.223547
1466.566306	-15.299403
1467.284093	-15.378427
1468.002582	-15.453865
1468.721775	-15.514129
1469.441674	-15.547797
1470.162278	-15.563513
1470.883590	-15.533076
1471.605609	-15.500631
1472.328338	-15.450452
1473.051777	-15.449302
1473.775928	-15.450366
1474.500790	-15.511156
1475.226367	-15.567636
1475.952657	-15.687844
1476.679663	-15.787590
1477.407386	-15.914667
1478.135826	-15.973708
1478.864985	-16.033021
1479.594863	-16.022987
1480.325463	-16.010889
1481.056784	-15.938810
1481.788828	-15.870672
1482.521597	-15.792699
1483.255090	-15.753940
1483.989309	-15.742317
1484.724256	-15.771029
1485.459931	-15.855593
1486.196336	-15.992087
1486.933471	-16.199987
1487.671337	-16.416714
1488.409937	-16.662264
1489.149270	-16.846133
1489.889337	-16.988011
1490.630141	-16.961687
1491.371682	-16.806584
1492.113961	-16.468889
1492.856979	-16.060537
1493.600738	-15.588349
1494.345238	-15.134425
1495.090481	-14.721198
1495.836467	-14.397602
1496.583198	-14.186513
1497.330675	-14.080602
1498.078899	-14.094708
1498.827872	-14.205052
1499.577593	-14.436077
1500.328065	-14.717136
1501.079289	-15.048665
1501.831265	-15.331514
1502.583995	-15.567006
1503.337480	-15.649952
1504.091721	-15.595117
1504.846719	-15.385387
1505.602475	-15.105938
1506.358991	-14.812346
1507.116268	-14.555559
1507.874306	-14.394837
1508.633108	-14.354390
1509.392673	-14.500180
1510.153004	-14.813627
1510.914101	-15.358380
1511.675965	-16.117280
1512.438599	-17.157128
1513.202002	-18.375023
1513.966176	-19.589215
1514.731122	-20.227072
1515.496842	-19.690309
1516.263336	-18.179452
1517.030607	-16.302872
1517.798654	-14.526136
1518.567479	-12.944233
1519.337083	-11.604441
1520.107468	-10.460423
1520.878634	-9.495653
1521.650584	-8.689073
1522.423317	-8.022700
1523.196836	-7.482835
1523.971141	-7.047439
1524.746233	-6.723887
1525.522115	-6.493682
1526.298786	-6.362793
1527.076249	-6.314563
1527.854504	-6.367202
1528.633553	-6.508922
1529.413397	-6.751075
1530.194037	-7.091270
1530.975474	-7.548886
1531.757709	-8.129094
1532.540745	-8.841447
1533.324581	-9.711341
1534.109220	-10.753674
1534.894662	-11.992314
1535.680909	-13.406468
1536.467961	-14.966314
1537.255821	-16.403786
1538.044489	-17.224012
1538.833967	-16.932786
1539.624256	-15.774458
1540.415357	-14.281212
1541.207271	-12.857814
1542.000000	-11.602333
1542.793545	-10.549508
1543.587907	-9.669531
1544.383087	-8.966988
1545.179088	-8.403932
1545.975909	-7.973340
1546.773552	-7.659686
1547.572019	-7.457615
1548.371311	-7.354840
1549.171428	-7.341583
1549.972373	-7.424727
1550.774147	-7.588746
1551.576751	-7.838813
1552.380185	-8.163985
1553.184453	-8.576362
1553.989554	-9.061146
1554.795490	-9.619332
1555.602263	-10.252492
1556.409873	-10.948179
1557.218322	-11.701267
1558.027612	-12.479051
1558.837743	-13.276653
1559.648717	-14.033171
1560.460536	-14.697368
1561.273200	-15.215894
1562.086710	-15.534393
1562.901069	-15.650274
1563.716278	-15.554784
1564.532337	-15.322645
1565.349249	-15.003130
1566.167014	-14.634253
1566.985634	-14.263213
1567.805111	-13.902018
1568.625444	-13.582889
1569.446637	-13.289349
1570.268690	-13.037068
1571.091605	-12.831355
1571.915382	-12.659562
1572.740024	-12.530411
1573.565532	-12.433370
1574.391907	-12.382937
1575.219150	-12.360984
1576.047262	-12.372820
1576.876246	-12.425758
1577.706103	-12.504471
1578.536833	-12.617975
1579.368439	-12.755578
1580.200922	-12.927044
1581.034282	-13.118228
1581.868522	-13.324920
1582.703643	-13.558593
1583.539646	-13.794959
1584.376532	-14.040487
1585.214304	-14.284336
1586.052962	-14.523782
1586.892508	-14.750615
1587.732943	-14.947061
1588.574269	-15.129845
1589.416487	-15.271571
1590.259599	-15.373289
1591.103605	-15.441724
1591.948508	-15.465121
1592.794309	-15.454566
1593.641009	-15.402532
1594.488609	-15.330978
1595.337112	-15.237687
1596.186518	-15.120896
1597.036829	-15.009250
1597.888047	-14.891146
1598.740172	-14.775416
1599.593207	-14.670670
1600.447153	-14.575128
1601.302010	-14.496612
1602.157782	-14.423798
1603.014469	-14.373156
1603.872072	-14.338771
1604.730593	-14.308719
1605.590034	-14.302427
1606.450397	-14.303743
1607.311681	-14.311623
1608.173890	-14.327799
1609.037024	-14.344019
1609.901085	-14.361616
1610.766075	-14.365966
1611.631995	-14.366613
1612.498846	-14.357291
1613.366630	-14.324480
1614.235349	-14.288439
1615.105004	-14.236802
1615.975596	-14.169755
1616.847128	-14.101453
1617.719600	-14.024865
1618.593014	-13.947632
1619.467372	-13.870174
1620.342675	-13.798687
1621.218924	-13.735225
1622.096122	-13.673451
1622.974270	-13.629854
1623.853369	-13.595544
1624.733420	-13.567073
1625.614427	-13.560591
1626.496389	-13.560410
1627.379308	-13.568462
1628.263187	-13.591265
1629.148026	-13.615724
1630.033828	-13.643985
1630.920593	-13.673745
1631.808324	-13.701502
1632.697022	-13.725412
1633.586688	-13.742078
1634.477324	-13.759443
1635.368932	-13.768978
1636.261514	-13.774427
1637.155070	-13.787683
1638.049602	-13.795659
1638.945113	-13.808509
1639.841603	-13.834510
1640.739075	-13.858392
1641.637529	-13.893039
1642.536968	-13.938679
1643.437393	-13.983030
1644.338806	-14.035893
1645.241209	-14.093102
1646.144602	-14.147420
1647.048988	-14.204050
1647.954368	-14.259624
1648.860744	-14.312328
1649.768118	-14.361975
1650.676491	-14.410803
1651.585865	-14.458462
1652.496241	-14.501747
1653.407621	-14.549168
1654.320008	-14.598391
1655.233401	-14.644817
1656.147804	-14.701044
1657.063218	-14.758522
1657.979645	-14.812903
1658.897085	-14.877429
1659.815542	-14.937101
1660.735016	-14.991758
1661.655509	-15.053504
1662.577023	-15.105016
1663.499560	-15.151870
1664.423121	-15.204593
1665.347709	-15.245228
1666.273324	-15.285597
1667.199969	-15.331450
1668.127645	-15.366398
1669.056353	-15.404853
1669.986097	-15.447162
1670.916877	-15.478281
1671.848695	-15.514294
1672.781553	-15.549433
1673.715452	-15.572673
1674.650395	-15.600434
1675.586383	-15.622942
1676.523418	-15.635136
1677.461501	-15.652169
1678.400635	-15.662472
1679.340821	-15.665585
1680.282061	-15.674906
1681.224357	-15.676553
1682.167710	-15.674550
1683.112122	-15.678458
1684.057595	-15.672308
1685.004132	-15.665106
1685.951732	-15.660184
1686.900400	-15.644230
1687.850135	-15.629118
1688.800940	-15.614575
1689.752818	-15.590456
1690.705768	-15.570173
1691.659795	-15.549264
1692.614898	-15.520353
1693.571081	-15.497450
1694.528345	-15.470370
1695.486691	-15.437164
1696.446122	-15.409269
1697.406640	-15.374544
1698.368245	-15.337255
1699.330941	-15.304588
1700.294729	-15.265102
1701.259611	-15.226405
1702.225588	-15.190114
1703.192664	-15.148699
1704.160838	-15.109801
1705.130114	-15.071810
1706.100493	-15.030629
1707.071977	-14.991450
1708.044568	-14.951881
1709.018268	-14.911510
1709.993079	-14.872812
1710.969003	-14.834101
1711.946041	-14.796253
1712.924196	-14.757336
1713.903469	-14.718893
1714.883862	-14.681861
1715.865378	-14.641676
1716.848017	-14.604151
1717.831783	-14.566498
1718.816677	-14.525214
1719.802701	-14.488795
1720.789857	-14.451345
1721.778147	-14.412143
1722.767573	-14.377897
1723.758136	-14.340334
1724.749840	-14.302758
1725.742685	-14.267968
1726.736673	-14.231050
1727.731808	-14.195654
1728.728090	-14.160705
1729.725521	-14.126416
1730.724105	-14.092892
1731.723842	-14.058657
1732.724735	-14.027345
1733.726785	-13.993322
1734.729995	-13.959937
1735.734366	-13.928923
1736.739902	-13.894251
1737.746603	-13.863253
1738.754472	-13.832458
1739.763510	-13.799898
1740.773721	-13.771254
1741.785105	-13.741091
1742.797665	-13.711714
1743.811403	-13.683703
1744.826321	-13.655399
1745.842422	-13.629178
1746.859706	-13.600887
1747.878177	-13.575144
1748.897835	-13.549443
1749.918685	-13.522724
1750.940726	-13.500165
1751.963963	-13.475701
1752.988395	-13.453180
1754.014027	-13.431515
1755.040860	-13.409121
1756.068895	-13.388638
1757.098135	-13.366134
1758.128583	-13.346002
1759.160240	-13.324868
1760.193109	-13.304227
1761.227191	-13.286497
1762.262488	-13.266772
1763.299004	-13.249816
1764.336740	-13.232366
1765.375697	-13.216151
1766.415880	-13.200614
1767.457288	-13.184292
1768.499926	-13.171684
1769.543794	-13.156541
1770.588895	-13.143640
1771.635231	-13.131218
1772.682805	-13.118171
1773.731619	-13.108051
1774.781674	-13.096846
1775.832973	-13.088071
1776.885519	-13.077039
1777.939312	-13.067437
1778.994357	-13.058700
1780.050654	-13.048127
1781.108207	-13.040774
1782.167017	-13.031831
1783.227087	-13.024722
1784.288418	-13.016818
1785.351013	-13.010631
1786.414875	-13.005851
1787.480006	-12.998512
1788.546407	-12.992681
1789.614082	-12.985454
1790.683032	-12.979806
1791.753259	-12.973837
1792.824767	-12.970611
1793.897557	-12.967179
1794.971632	-12.962573
1796.046994	-12.959315
1797.123645	-12.955012
1798.201588	-12.953928
1799.280824	-12.949386
1800.361357	-12.947651
1801.443188	-12.944541
1802.526320	-12.942015
1803.610756	-12.942572
1804.696497	-12.939875
1805.783546	-12.941097
1806.871906	-12.938510
1807.961578	-12.939708
1809.052565	-12.939934
1810.144870	-12.939237
1811.238494	-12.941566
1812.333441	-12.941558
1813.429713	-12.944709
1814.527311	-12.945443
1815.626239	-12.947969
1816.726499	-12.950817
1817.828094	-12.952752
1818.931025	-12.955560
1820.035295	-12.957959
1821.140906	-12.960383
1822.247862	-12.963851
1823.356165	-12.966719
1824.465816	-12.970948
1825.576819	-12.973659
1826.689175	-12.976339
1827.802888	-12.980438
1828.917960	-12.982791
1830.034394	-12.987339
1831.152191	-12.988627
1832.271354	-12.993522
1833.391887	-12.996021
1834.513790	-12.999482
1835.637068	-13.001980
1836.761722	-13.003392
1837.887755	-13.006388
1839.015169	-13.007904
1840.143968	-13.013233
1841.274153	-13.016103
1842.405727	-13.021080
1843.538693	-13.023966
1844.673053	-13.029846
1845.808810	-13.035683
1846.945966	-13.042470
1848.084525	-13.048103
1849.224488	-13.053843
1850.365858	-13.060147
1851.508638	-13.066850
1852.652831	-13.074298
1853.798438	-13.081441
1854.945463	-13.089270
1856.093909	-13.096538
1857.243777	-13.105413
1858.395071	-13.113399
1859.547794	-13.122749
1860.701947	-13.130755
1861.857533	-13.140676
1863.014556	-13.149247
1864.173018	-13.159793
1865.332922	-13.168677
1866.494270	-13.179254
1867.657065	-13.187886
1868.821309	-13.197852
1869.987006	-13.206189
1871.154158	-13.215993
1872.322768	-13.224659
1873.492839	-13.234066
1874.664373	-13.242026
1875.837373	-13.250168
1877.011841	-13.257604
1878.187782	-13.265827
1879.365197	-13.274266
1880.544089	-13.283103
1881.724460	-13.291435
1882.906315	-13.299700
1884.089655	-13.308149
1885.274483	-13.317052
1886.460803	-13.326323
1887.648616	-13.335596
1888.837927	-13.344864
1890.028736	-13.354378
1891.221049	-13.364766
1892.414866	-13.375740
1893.610192	-13.386619
1894.807028	-13.397065
1896.005379	-13.407051
1897.205246	-13.417217
1898.406633	-13.427845
1899.609542	-13.439438
1900.813977	-13.451458
1902.019940	-13.463689
1903.227434	-13.475257
1904.436462	-13.487066
1905.647028	-13.498499
1906.859133	-13.510893
1908.072781	-13.523137
1909.287976	-13.536264
1910.504719	-13.548180
1911.723013	-13.560305
1912.942863	-13.571005
1914.164270	-13.582335
1915.387238	-13.592648
1916.611770	-13.603396
1917.837868	-13.612141
1919.065536	-13.620913
1920.294777	-13.628749
1921.525594	-13.637851
1922.757989	-13.646188
1923.991967	-13.654961
1925.227529	-13.662874
1926.464679	-13.671700
1927.703420	-13.680237
1928.943755	-13.688916
1930.185688	-13.695655
1931.429221	-13.701221
1932.674356	-13.706141
1933.921099	-13.711449
1935.169451	-13.716880
1936.419415	-13.721835
1937.670996	-13.726168
1938.924195	-13.729759
1940.179017	-13.734048
1941.435463	-13.738321
1942.693538	-13.743362
1943.953245	-13.747315
1945.214586	-13.751399
1946.477566	-13.754316
1947.742186	-13.757477
1949.008451	-13.759867
1950.276363	-13.762717
1951.545926	-13.765226
1952.817143	-13.767552
1954.090017	-13.769147
1955.364551	-13.769723
1956.640749	-13.770299
1957.918615	-13.769975
1959.198150	-13.770620
1960.479359	-13.770591
1961.762244	-13.770805
1963.046810	-13.768847
1964.333059	-13.766775
1965.620995	-13.763364
1966.910621	-13.759133
1968.201940	-13.754339
1969.494956	-13.749148
1970.789672	-13.743726
1972.086091	-13.736532
1973.384217	-13.729030
1974.684053	-13.720124
1975.985602	-13.710983
1977.288869	-13.700656
1978.593855	-13.690421
1979.900566	-13.680134
1981.209003	-13.668994
1982.519171	-13.657608
1983.831073	-13.645976
1985.144712	-13.635549
1986.460093	-13.624668
1987.777217	-13.613583
1989.096089	-13.602437
1990.416713	-13.591419
1991.739092	-13.581570
1993.063228	-13.571901
1994.389127	-13.563445
1995.716791	-13.554775
1997.046223	-13.546637
1998.377428	-13.538543
1999.710409	-13.530312
2001.045169	-13.521930
2002.381713	-13.513240
2003.720043	-13.505517
2005.060163	-13.497232
2006.402077	-13.487433
2007.745788	-13.476269
2009.091301	-13.464385
2010.438618	-13.452891
2011.787743	-13.440374
2013.138680	-13.425809
2014.491433	-13.408940
2015.846005	-13.391422
2017.202399	-13.375234
2018.560621	-13.359039
2019.920673	-13.340999
2021.282558	-13.319410
2022.646281	-13.297221
2024.011846	-13.277265
2025.379256	-13.259513
2026.748515	-13.240920
2028.119626	-13.219058
2029.492594	-13.195374
2030.867422	-13.173056
2032.244114	-13.155000
2033.622673	-13.139801
2035.003104	-13.123529
2036.385411	-13.104564
2037.769597	-13.084201
2039.155665	-13.066055
2040.543621	-13.051547
2041.933467	-13.040155
2043.325208	-13.030188
2044.718847	-13.019057
2046.114389	-13.005473
2047.511837	-12.990138
2048.911195	-12.976045
2050.312467	-12.965339
2051.715657	-12.956521
2053.120769	-12.946863
2054.527807	-12.934724
2055.936775	-12.919400
2057.347677	-12.902354
2058.760516	-12.886528
2060.175297	-12.875348
2061.592025	-12.868267
2063.010701	-12.861953
2064.431332	-12.851907
2065.853921	-12.833428
2067.278472	-12.805763
2068.704988	-12.772015
2070.133475	-12.738668
2071.563936	-12.713686
2072.996375	-12.701627
2074.430796	-12.702015
2075.867204	-12.710721
2077.305603	-12.720059
2078.745996	-12.722453
2080.188389	-12.711505
2081.632784	-12.684209
2083.079187	-12.643984
2084.527601	-12.598098
2085.978030	-12.556506
2087.430480	-12.527243
2088.884954	-12.515778
2090.341455	-12.523638
2091.799990	-12.547633
2093.260561	-12.579818
2094.723173	-12.611575
2096.187831	-12.634990
2097.654538	-12.644284
2099.123300	-12.636852
2100.594119	-12.614972
2102.067001	-12.583964
2103.541950	-12.548594
2105.018971	-12.514105
2106.498067	-12.484632
2107.979243	-12.462411
2109.462503	-12.449349
2110.947853	-12.445031
2112.435295	-12.447135
2113.924836	-12.454471
2115.416478	-12.465244
2116.910227	-12.476535
2118.406087	-12.488165
2119.904063	-12.499650
2121.404158	-12.509791
2122.906378	-12.519170
2124.410727	-12.527526
2125.917210	-12.535244
2127.425831	-12.544036
2128.936594	-12.552211
2130.449505	-12.559254
2131.964567	-12.566621
2133.481786	-12.573705
2135.001166	-12.580941
2136.522711	-12.588429
2138.046427	-12.596105
2139.572317	-12.604691
2141.100388	-12.613040
2142.630642	-12.620893
2144.163085	-12.627099
2145.697722	-12.629792
2147.234558	-12.629489
2148.773596	-12.625067
2150.314842	-12.615597
2151.858301	-12.601310
2153.403977	-12.584557
2154.951875	-12.568217
2156.502000	-12.553092
2158.054357	-12.542411
2159.608950	-12.539911
2161.165785	-12.548664
2162.724866	-12.569745
2164.286198	-12.600853
2165.849786	-12.639903
2167.415635	-12.680908
2168.983749	-12.717068
2170.554134	-12.742062
2172.126795	-12.751940
2173.701737	-12.745968
2175.278964	-12.728843
2176.858481	-12.710240
2178.440294	-12.697999
2180.024408	-12.699580
2181.610827	-12.719760
2183.199557	-12.758168
2184.790602	-12.809011
2186.383968	-12.863714
2187.979660	-12.912435
2189.577683	-12.948743
2191.178041	-12.969846
2192.780741	-12.980950
2194.385787	-12.989774
2195.993185	-13.004192
2197.602939	-13.027947
2199.215054	-13.053246
