# 2022-03-22_01.25.59
# shape = sech2
# FWHM_ps = 0.1
# carrier_nm = 1542
# frep_MHz = 12126
# pow_mW = 8000
# GDD = 0.0
# propa_len = 0.15311111111111111
# untap_len = 0.01
# taper_len = 0.09311111111111112
# waist_len = 0.02
# uptap_len = 0.02
# untap_scale = 1.0
# waist_scale = 0.13157894736842107
# workingDir = NL_20110305_12 (Spirou)
# axis = slow
# window_ps = 10.0
# steps = 200
# points = 21700
# 
# wavelength [nm]	 power spectral density [dB]
600.043425	-93.615131
600.163550	-92.292388
600.283723	-87.678184
600.403943	-106.364065
600.524212	-86.879216
600.644529	-96.121555
600.764895	-87.917308
600.885308	-89.239718
601.005770	-88.913303
601.126280	-87.901340
601.246839	-92.279740
601.367446	-85.731110
601.488101	-94.471860
601.608804	-86.496064
601.729557	-93.274353
601.850357	-88.106450
601.971206	-89.601578
602.092104	-89.668159
602.213050	-89.669819
602.334045	-92.320067
602.455089	-91.386613
602.576181	-100.750832
602.697322	-91.026474
602.818511	-100.761374
602.939749	-96.047098
603.061036	-98.577580
603.182372	-100.515571
603.303757	-97.248784
603.425191	-110.191798
603.546673	-96.224901
603.668204	-106.308788
603.789785	-99.539578
603.911414	-89.737034
604.033092	-107.867166
604.154820	-88.640137
604.276596	-103.056575
604.398422	-87.422378
604.520297	-96.722797
604.642220	-87.185486
604.764193	-97.432868
604.886216	-86.836593
605.008287	-101.835957
605.130408	-90.528639
605.252578	-102.338260
605.374798	-88.845520
605.497066	-100.257790
605.619385	-93.019979
605.741752	-94.584609
605.864169	-91.218843
605.986636	-93.326003
606.109152	-89.335095
606.231718	-90.249958
606.354333	-88.077483
606.476998	-86.735097
606.599712	-85.768838
606.722476	-87.271017
606.845290	-87.812953
606.968154	-85.876769
607.091067	-89.764549
607.214030	-87.942490
607.337043	-93.818074
607.460106	-89.381012
607.583219	-94.426203
607.706381	-97.081919
607.829594	-93.303848
607.952856	-95.238106
608.076169	-93.526710
608.199531	-91.354304
608.322944	-98.070369
608.446407	-91.404160
608.569920	-97.353733
608.693483	-89.567635
608.817096	-99.541184
608.940759	-93.969726
609.064473	-97.033995
609.188237	-94.428574
609.312051	-91.091044
609.435916	-97.549227
609.559831	-88.991628
609.683796	-93.320735
609.807812	-87.923036
609.931878	-91.214688
610.055995	-91.143642
610.180162	-93.541076
610.304380	-91.295818
610.428648	-94.403014
610.552967	-93.506288
610.677337	-99.008679
610.801757	-94.883836
610.926228	-90.424807
611.050750	-95.749701
611.175323	-89.536984
611.299946	-89.799156
611.424620	-84.545029
611.549345	-86.070376
611.674121	-82.539766
611.798948	-85.475118
611.923826	-82.496642
612.048755	-90.538102
612.173734	-85.075664
612.298765	-84.883492
612.423847	-83.871181
612.548980	-89.572554
612.674165	-89.857786
612.799400	-86.099840
612.924687	-90.998990
613.050025	-87.469704
613.175414	-94.599723
613.300854	-89.216707
613.426346	-95.820875
613.551889	-87.705277
613.677484	-97.829581
613.803130	-90.058759
613.928827	-92.576199
614.054576	-96.329073
614.180377	-85.965141
614.306229	-91.359698
614.432132	-86.075914
614.558087	-95.452429
614.684094	-86.427197
614.810153	-87.723402
614.936263	-87.718452
615.062425	-86.219190
615.188639	-90.046215
615.314904	-84.748918
615.441222	-89.475617
615.567591	-83.968452
615.694012	-100.600145
615.820486	-89.888219
615.947011	-95.463508
616.073588	-93.090344
616.200217	-89.715404
616.326898	-96.325627
616.453632	-87.291936
616.580417	-91.135431
616.707255	-83.774987
616.834144	-88.991756
616.961086	-85.012295
617.088081	-86.751138
617.215127	-86.381412
617.342226	-87.198252
617.469378	-84.744058
617.596581	-85.100831
617.723837	-86.339725
617.851146	-84.427174
617.978507	-87.534534
618.105920	-87.335856
618.233386	-92.201053
618.360905	-87.609779
618.488476	-99.333607
618.616100	-103.464379
618.743777	-96.588251
618.871506	-89.903122
618.999288	-88.263725
619.127123	-94.170230
619.255011	-86.595126
619.382951	-100.709177
619.510945	-86.051027
619.638991	-98.597869
619.767090	-83.634236
619.895243	-99.944399
620.023448	-91.330921
620.151706	-87.288165
620.280017	-83.776660
620.408382	-90.982716
620.536799	-89.077037
620.665270	-91.433667
620.793794	-91.260116
620.922371	-90.534926
621.051002	-90.616035
621.179686	-89.673329
621.308423	-82.480501
621.437213	-83.578238
621.566057	-82.948955
621.694954	-85.248459
621.823905	-81.445723
621.952909	-81.939618
622.081967	-82.774567
622.211079	-83.295303
622.340244	-81.907296
622.469462	-81.622861
622.598735	-80.431221
622.728061	-78.760229
622.857441	-79.169724
622.986874	-78.985644
623.116361	-79.604910
623.245903	-78.818222
623.375498	-79.661377
623.505147	-80.235044
623.634850	-79.618522
623.764606	-78.908703
623.894417	-79.869367
624.024282	-81.031352
624.154201	-80.628413
624.284174	-84.575923
624.414202	-85.619147
624.544283	-84.290367
624.674419	-84.199164
624.804609	-91.094033
624.934853	-88.841312
625.065151	-88.198221
625.195504	-86.114598
625.325911	-90.702833
625.456373	-85.689376
625.586889	-84.359002
625.717460	-86.639917
625.848085	-85.340754
625.978764	-93.766011
626.109498	-86.479789
626.240287	-92.244935
626.371131	-83.734309
626.502029	-90.935016
626.632982	-85.338484
626.763989	-93.064123
626.895052	-83.713392
627.026169	-84.149688
627.157341	-85.982948
627.288568	-81.363913
627.419850	-83.744855
627.551187	-81.164453
627.682579	-88.819194
627.814026	-85.040150
627.945528	-90.789471
628.077085	-83.547468
628.208697	-85.919065
628.340364	-82.654258
628.472087	-85.512688
628.603865	-93.361104
628.735698	-88.460953
628.867586	-91.059314
628.999530	-84.143414
629.131529	-89.109455
629.263584	-82.133576
629.395694	-89.310814
629.527859	-88.936235
629.660080	-89.946177
629.792357	-84.050440
629.924689	-84.730464
630.057077	-81.815180
630.189520	-80.895091
630.322019	-84.649223
630.454574	-83.096604
630.587184	-87.223048
630.719851	-81.906949
630.852573	-90.205005
630.985351	-85.657370
631.118185	-89.931940
631.251075	-101.464045
631.384021	-86.521468
631.517023	-92.558562
631.650081	-84.054028
631.783195	-81.041135
631.916365	-78.382603
632.049592	-77.641703
632.182874	-77.723386
632.316213	-77.959588
632.449608	-75.454823
632.583059	-77.011613
632.716567	-75.925082
632.850131	-79.456899
632.983751	-78.577316
633.117428	-87.255894
633.251161	-82.416631
633.384951	-91.274406
633.518797	-81.708959
633.652700	-89.085191
633.786660	-91.147005
633.920676	-100.562811
634.054749	-89.124621
634.188879	-112.486775
634.323065	-82.288628
634.457308	-91.727248
634.591608	-81.600585
634.725965	-89.863940
634.860379	-82.566530
634.994850	-95.115245
635.129377	-99.622230
635.263962	-82.546962
635.398604	-83.636256
635.533303	-77.526372
635.668058	-78.998025
635.802872	-75.856863
635.937742	-77.013597
636.072669	-75.569335
636.207654	-78.066425
636.342696	-78.775236
636.477796	-76.649128
636.612953	-80.011952
636.748167	-75.537207
636.883439	-76.866549
637.018768	-74.962747
637.154155	-75.492138
637.289599	-77.819659
637.425101	-77.007731
637.560660	-86.196348
637.696277	-77.121859
637.831952	-84.783090
637.967685	-78.335291
638.103475	-79.157966
638.239324	-78.216927
638.375230	-77.719023
638.511194	-80.450588
638.647215	-79.758807
638.783295	-92.241336
638.919433	-79.677687
639.055629	-82.916421
639.191883	-78.402104
639.328195	-79.166811
639.464565	-77.995679
639.600994	-78.468737
639.737481	-80.328292
639.874025	-77.956194
640.010629	-85.028817
640.147290	-82.496716
640.284010	-79.836776
640.420789	-78.112369
640.557625	-73.736977
640.694521	-78.534643
640.831474	-75.996804
640.968487	-83.534381
641.105558	-77.670703
641.242687	-95.301324
641.379876	-90.096619
641.517123	-86.801271
641.654429	-93.242668
641.791793	-103.704248
641.929216	-87.849088
642.066699	-82.458090
642.204240	-83.134034
642.341840	-77.432256
642.479499	-77.749291
642.617217	-73.832386
642.754994	-74.700558
642.892830	-74.011779
643.030726	-75.606971
643.168680	-75.647740
643.306694	-76.486439
643.444767	-74.959759
643.582899	-77.288746
643.721091	-75.691533
643.859342	-79.176647
643.997652	-77.937713
644.136022	-80.093457
644.274451	-79.730976
644.412940	-79.277694
644.551488	-81.572202
644.690096	-76.935486
644.828763	-76.971036
644.967490	-73.860680
645.106277	-74.497604
645.245124	-72.453675
645.384030	-72.677751
645.522997	-74.160016
645.662023	-74.144202
645.801109	-74.244335
645.940255	-72.704492
646.079460	-75.819570
646.218726	-77.225796
646.358052	-95.847455
646.497438	-89.497751
646.636884	-92.446478
646.776391	-86.698754
646.915957	-89.677049
647.055584	-87.561555
647.195271	-82.377657
647.335019	-87.855453
647.474826	-85.834805
647.614695	-89.918626
647.754623	-89.128209
647.894612	-79.983878
648.034662	-82.796375
648.174772	-82.156318
648.314943	-85.094729
648.455174	-87.046555
648.595466	-88.099394
648.735819	-85.784462
648.876233	-84.373073
649.016707	-78.072817
649.157242	-78.887261
649.297838	-75.636944
649.438495	-77.847713
649.579213	-78.251860
649.719992	-79.779221
649.860832	-82.180386
650.001733	-81.406067
650.142695	-83.674812
650.283718	-79.553592
650.424803	-80.996383
650.565949	-77.492324
650.707156	-80.922126
650.848424	-78.788321
650.989754	-80.620388
651.131145	-79.698686
651.272597	-77.289820
651.414111	-81.512258
651.555687	-81.583443
651.697324	-86.830854
651.839022	-85.073263
651.980782	-82.790884
652.122604	-89.978310
652.264488	-86.646224
652.406433	-80.087565
652.548441	-90.696553
652.690510	-80.146423
652.832640	-88.219589
652.974833	-84.876546
653.117088	-79.099010
653.259405	-90.553233
653.401784	-78.379244
653.544224	-88.145565
653.686727	-80.329734
653.829293	-86.120395
653.971920	-80.091545
654.114609	-83.752517
654.257361	-83.156784
654.400175	-77.909430
654.543052	-86.855908
654.685991	-75.500985
654.828992	-83.522925
654.972056	-79.631192
655.115183	-79.065224
655.258372	-102.735087
655.401623	-80.273923
655.544937	-84.536555
655.688314	-88.261114
655.831754	-78.900563
655.975256	-86.542894
656.118822	-83.438850
656.262450	-84.384050
656.406141	-90.864633
656.549894	-87.584500
656.693711	-80.275500
656.837591	-88.269733
656.981534	-86.106279
657.125540	-78.754728
657.269610	-88.300086
657.413742	-78.037170
657.557938	-76.186539
657.702196	-79.056018
657.846519	-73.892490
657.990904	-84.676278
658.135353	-81.079591
658.279866	-78.737041
658.424441	-81.037012
658.569081	-75.274775
658.713784	-81.778833
658.858550	-80.513287
659.003381	-101.646609
659.148274	-85.177753
659.293232	-85.157374
659.438253	-89.153579
659.583339	-80.281903
659.728488	-83.883929
659.873701	-78.928874
660.018978	-85.626014
660.164318	-88.880135
660.309723	-79.937539
660.455192	-75.896247
660.600725	-77.739435
660.746323	-75.408961
660.891984	-90.993725
661.037710	-90.778912
661.183500	-76.422707
661.329354	-85.652934
661.475272	-81.180603
661.621255	-79.967594
661.767303	-81.146231
661.913415	-77.400236
662.059591	-75.543308
662.205833	-79.364045
662.352138	-74.880234
662.498509	-76.167433
662.644944	-77.738505
662.791443	-73.931827
662.938008	-82.946131
663.084638	-85.588437
663.231332	-79.025886
663.378091	-81.004578
663.524915	-74.717123
663.671804	-90.224133
663.818759	-90.765378
663.965778	-79.199741
664.112863	-82.071602
664.260012	-79.254599
664.407227	-84.229051
664.554507	-79.775846
664.701853	-78.738916
664.849264	-74.892844
664.996740	-87.185836
665.144282	-75.635173
665.291889	-76.891341
665.439561	-83.830029
665.587300	-75.202545
665.735103	-87.472885
665.882973	-80.715623
666.030908	-81.972537
666.178909	-75.878894
666.326976	-77.964284
666.475109	-78.032743
666.623307	-81.202500
666.771571	-77.187490
666.919902	-77.071173
667.068298	-87.635552
667.216761	-80.411193
667.365289	-78.064392
667.513884	-87.983776
667.662545	-79.402290
667.811272	-77.604476
667.960065	-78.317457
668.108925	-73.806765
668.257851	-80.401967
668.406843	-83.213962
668.555902	-82.731855
668.705027	-85.939751
668.854219	-88.148100
669.003478	-78.927573
669.152803	-78.311158
669.302195	-81.466569
669.451653	-74.945002
669.601179	-75.992290
669.750771	-74.772599
669.900430	-85.268470
670.050156	-82.190725
670.199949	-76.414838
670.349808	-76.154273
670.499735	-85.086256
670.649729	-84.188459
670.799790	-73.042293
670.949918	-77.477331
671.100114	-71.488170
671.250377	-75.583063
671.400707	-86.535243
671.551104	-76.240763
671.701569	-75.302004
671.852101	-76.905954
672.002700	-74.389955
672.153368	-85.679974
672.304102	-92.054280
672.454905	-76.245807
672.605775	-75.909063
672.756713	-85.873643
672.907718	-77.244064
673.058791	-73.267770
673.209933	-73.476503
673.361142	-70.794460
673.512419	-74.560388
673.663764	-74.066136
673.815177	-73.342912
673.966658	-78.511130
674.118207	-73.293323
674.269825	-72.481686
674.421510	-82.075731
674.573264	-82.687331
674.725086	-75.011772
674.876977	-79.173481
675.028936	-75.723675
675.180963	-92.490158
675.333059	-80.436568
675.485224	-78.157545
675.637457	-76.334252
675.789758	-78.733716
675.942129	-80.693739
676.094568	-82.426326
676.247075	-73.853421
676.399652	-75.988081
676.552298	-83.916962
676.705012	-87.141628
676.857795	-71.451310
677.010648	-73.261914
677.163569	-72.408776
677.316560	-72.931202
677.469619	-73.201837
677.622748	-68.655245
677.775946	-67.847879
677.929214	-70.372773
678.082551	-72.325851
678.235957	-85.462679
678.389432	-84.237378
678.542977	-77.942723
678.696592	-85.826081
678.850276	-85.692834
679.004030	-78.781024
679.157853	-71.117877
679.311746	-73.836558
679.465709	-70.951980
679.619742	-82.999744
679.773844	-85.367318
679.928017	-76.298488
680.082259	-76.172217
680.236571	-83.078600
680.390954	-76.470352
680.545406	-76.402494
680.699929	-74.473209
680.854522	-72.136018
681.009185	-81.330184
681.163918	-75.729038
681.318722	-77.473464
681.473596	-76.632824
681.628540	-75.311633
681.783555	-70.329279
681.938641	-77.143567
682.093797	-78.210898
682.249023	-70.879605
682.404321	-71.940052
682.559689	-72.834475
682.715128	-74.817813
682.870637	-78.179548
683.026218	-77.961567
683.181869	-71.961612
683.337591	-71.169321
683.493385	-69.073984
683.649249	-74.213888
683.805185	-82.917244
683.961191	-74.022457
684.117269	-73.562841
684.273418	-77.567233
684.429639	-83.504714
684.585930	-81.515880
684.742294	-76.168155
684.898728	-71.182983
685.055234	-71.515964
685.211812	-70.304580
685.368461	-72.813397
685.525182	-82.755426
685.681975	-75.811162
685.838839	-73.823543
685.995775	-84.876767
686.152783	-78.843096
686.309863	-77.751675
686.467014	-72.577770
686.624238	-74.532804
686.781534	-77.997488
686.938902	-74.899173
687.096342	-76.124305
687.253854	-81.808207
687.411438	-85.825195
687.569095	-80.460457
687.726824	-74.800986
687.884626	-72.225184
688.042499	-69.317840
688.200446	-70.178010
688.358465	-74.087653
688.516556	-74.935537
688.674720	-73.285234
688.832957	-75.948119
688.991266	-78.165010
689.149649	-89.259291
689.308104	-88.729296
689.466632	-76.099743
689.625233	-71.030445
689.783906	-74.404620
689.942653	-72.458209
690.101473	-74.248902
690.260367	-77.254590
690.419333	-74.910734
690.578372	-74.660743
690.737485	-73.249377
690.896672	-79.799226
691.055931	-79.898039
691.215264	-78.099876
691.374671	-73.614135
691.534151	-79.589280
691.693704	-80.603290
691.853332	-75.579273
692.013033	-80.409081
692.172807	-93.072580
692.332656	-100.925448
692.492578	-89.131911
692.652575	-77.610271
692.812645	-77.610824
692.972789	-78.702719
693.133007	-77.132446
693.293300	-73.599066
693.453666	-73.775114
693.614107	-76.995826
693.774622	-72.736474
693.935211	-75.041999
694.095875	-79.384411
694.256613	-87.705277
694.417426	-76.358597
694.578313	-74.215338
694.739274	-75.495352
694.900311	-93.210675
695.061421	-81.739949
695.222607	-75.106342
695.383868	-72.626161
695.545203	-82.934986
695.706613	-87.709438
695.868098	-79.343719
696.029658	-72.726885
696.191293	-76.168619
696.353003	-78.817941
696.514789	-76.556588
696.676649	-83.349611
696.838585	-85.398423
697.000596	-95.681723
697.162682	-79.201798
697.324844	-78.793910
697.487081	-88.212219
697.649394	-81.015148
697.811782	-83.324163
697.974246	-72.727718
698.136786	-71.910523
698.299401	-78.868672
698.462092	-76.354315
698.624859	-76.978432
698.787702	-72.211394
698.950621	-74.427272
699.113616	-75.034315
699.276686	-76.039146
699.439833	-90.466801
699.603056	-81.953812
699.766355	-78.588635
699.929731	-84.430701
700.093183	-77.004683
700.256711	-83.738314
700.420315	-77.292994
700.583996	-74.399691
700.747754	-73.537062
700.911588	-71.713947
701.075499	-74.350002
701.239486	-88.907388
701.403550	-73.913028
701.567691	-71.112537
701.731909	-81.359359
701.896203	-76.248866
702.060575	-76.180354
702.225024	-76.627139
702.389549	-68.900842
702.554152	-68.976196
702.718832	-71.236408
702.883589	-68.011451
703.048424	-70.880308
703.213335	-77.236801
703.378324	-74.609349
703.543391	-70.481100
703.708535	-69.466309
703.873757	-70.465948
704.039056	-74.313778
704.204433	-73.124080
704.369887	-77.329707
704.535420	-77.226305
704.701030	-74.762497
704.866718	-75.837327
705.032484	-83.508542
705.198328	-80.940546
705.364250	-68.511609
705.530250	-66.661274
705.696328	-70.593437
705.862485	-69.879705
706.028720	-79.287328
706.195033	-71.312210
706.361424	-69.198926
706.527894	-68.208037
706.694442	-66.042443
706.861069	-69.635413
707.027775	-89.123574
707.194559	-81.526215
707.361422	-70.893807
707.528363	-66.188727
707.695384	-72.272265
707.862483	-81.275683
708.029661	-78.031822
708.196918	-68.567705
708.364254	-68.116274
708.531670	-68.979171
708.699164	-72.729066
708.866738	-72.025559
709.034391	-71.302486
709.202123	-68.680082
709.369935	-66.138106
709.537826	-64.248685
709.705796	-65.402985
709.873847	-66.803648
710.041976	-70.123735
710.210186	-71.310160
710.378475	-69.444876
710.546844	-66.065150
710.715292	-65.095105
710.883821	-68.113416
711.052429	-78.486248
711.221118	-80.987685
711.389887	-70.279796
711.558735	-64.220306
711.727664	-66.729299
711.896673	-72.339542
712.065763	-70.989908
712.234932	-63.677058
712.404183	-61.776314
712.573513	-63.368346
712.742924	-63.296782
712.912416	-63.335655
713.081988	-67.497967
713.251641	-75.852573
713.421375	-75.697382
713.591190	-65.121431
713.761085	-64.940347
713.931061	-68.617950
714.101119	-74.499953
714.271257	-70.444560
714.441476	-65.261493
714.611777	-64.392722
714.782159	-63.689181
714.952622	-62.705862
715.123166	-63.617823
715.293792	-70.163697
715.464499	-84.504690
715.635288	-71.476088
715.806158	-64.783951
715.977110	-64.660290
716.148143	-65.912183
716.319259	-65.024397
716.490456	-64.052181
716.661735	-63.978135
716.833096	-64.515631
717.004538	-62.695747
717.176063	-60.648074
717.347670	-63.208181
717.519359	-70.178459
717.691130	-86.470676
717.862984	-67.919301
718.034920	-63.302983
718.206938	-62.982242
718.379039	-65.091181
718.551222	-64.277042
718.723488	-66.930368
718.895836	-66.793723
719.068267	-66.707131
719.240781	-63.768008
719.413377	-60.972597
719.586057	-61.408875
719.758819	-64.883990
719.931664	-68.354363
720.104593	-69.020838
720.277604	-63.227831
720.450699	-60.657227
720.623876	-61.967854
720.797137	-61.258737
720.970482	-60.062031
721.143910	-63.056355
721.317421	-71.074705
721.491016	-75.926281
721.664694	-69.366557
721.838456	-64.331662
722.012302	-66.342003
722.186231	-66.459456
722.360244	-64.762966
722.534342	-62.743775
722.708523	-63.800814
722.882788	-64.237533
723.057137	-64.931904
723.231570	-63.803338
723.406088	-64.081204
723.580689	-64.823571
723.755375	-66.119505
723.930146	-67.777795
724.105000	-63.158525
724.279940	-59.362880
724.454963	-59.528024
724.630072	-62.529684
724.805265	-64.015742
724.980543	-64.225630
725.155905	-63.950490
725.331353	-64.738392
725.506885	-64.678687
725.682503	-63.890983
725.858205	-62.365018
726.033993	-62.053522
726.209865	-61.888267
726.385823	-61.745742
726.561866	-62.225160
726.737995	-63.364172
726.914209	-65.971119
727.090508	-64.983876
727.266893	-63.129241
727.443364	-61.643179
727.619920	-62.441369
727.796562	-62.607220
727.973290	-62.223524
728.150103	-60.446681
728.327003	-60.979928
728.503988	-63.665619
728.681060	-68.453034
728.858218	-68.080809
729.035461	-61.836741
729.212791	-59.972947
729.390208	-60.660744
729.567710	-63.634823
729.745299	-63.037606
729.922975	-62.999538
730.100737	-62.061063
730.278586	-63.042803
730.456521	-65.457103
730.634543	-66.967606
730.812652	-62.094065
730.990848	-59.600746
731.169130	-60.433992
731.347500	-61.690681
731.525957	-60.929823
731.704500	-59.214760
731.883131	-63.000624
732.061850	-66.900318
732.240655	-67.670877
732.419548	-62.942100
732.598528	-60.527603
732.777596	-58.672919
732.956751	-60.854127
733.135994	-63.747944
733.315325	-61.946877
733.494744	-60.928533
733.674250	-62.103533
733.853844	-64.651829
734.033526	-63.411718
734.213296	-61.589700
734.393154	-58.053112
734.573101	-58.257748
734.753135	-60.535867
734.933258	-64.251853
735.113469	-65.770212
735.293769	-62.931988
735.474157	-61.053379
735.654633	-61.101687
735.835198	-61.514852
736.015852	-62.101051
736.196594	-61.215585
736.377426	-62.764472
736.558346	-64.483031
736.739355	-65.087552
736.920453	-63.414812
737.101640	-61.251340
737.282916	-60.726319
737.464282	-61.815720
737.645736	-64.078422
737.827280	-65.736732
738.008914	-63.817863
738.190637	-59.604868
738.372449	-59.564851
738.554351	-62.408840
738.736342	-66.471063
738.918424	-65.968546
739.100595	-61.796704
739.282855	-58.653781
739.465206	-59.106333
739.647647	-61.145889
739.830178	-65.016965
740.012799	-62.803412
740.195510	-59.894799
740.378311	-60.048849
740.561203	-59.637035
740.744185	-60.468245
740.927258	-61.981405
741.110421	-63.000993
741.293674	-62.043785
741.477018	-64.262581
741.660453	-64.815921
741.843979	-63.426895
742.027596	-60.607629
742.211303	-59.748754
742.395102	-60.773091
742.578991	-61.959310
742.762972	-65.067852
742.947044	-64.567700
743.131207	-61.158790
743.315461	-58.970023
743.499807	-59.299779
743.684244	-62.418664
743.868773	-66.441633
744.053394	-64.072945
744.238106	-62.652095
744.422910	-61.603280
744.607805	-60.280713
744.792793	-61.003434
744.977872	-62.919008
745.163044	-62.711867
745.348307	-60.307765
745.533663	-60.829360
745.719111	-61.623239
745.904651	-64.444808
746.090283	-66.323920
746.276008	-64.937822
746.461826	-60.151962
746.647735	-59.875548
746.833738	-64.282445
747.019833	-65.106717
747.206021	-63.952323
747.392302	-62.928019
747.578676	-62.530504
747.765143	-61.324650
747.951703	-62.400110
748.138356	-64.919224
748.325102	-63.291759
748.511941	-61.015691
748.698874	-64.075117
748.885900	-62.112970
749.073019	-61.814155
749.260232	-65.325210
749.447539	-66.730535
749.634939	-62.682513
749.822433	-61.482507
750.010021	-62.727871
750.197703	-64.100762
750.385479	-66.698547
750.573348	-64.087235
750.761312	-62.455835
750.949370	-61.336283
751.137523	-60.752532
751.325769	-61.133221
751.514110	-62.958440
751.702545	-66.485921
751.891075	-65.123821
752.079700	-62.247502
752.268419	-60.995081
752.457233	-61.123376
752.646142	-64.281887
752.835145	-66.069662
753.024244	-65.468407
753.213437	-66.075167
753.402726	-63.803134
753.592110	-63.208300
753.781589	-62.647592
753.971163	-65.623182
754.160833	-66.995200
754.350598	-70.089631
754.540459	-64.203254
754.730415	-60.014031
754.920467	-60.283955
755.110615	-61.632111
755.300858	-61.856889
755.491198	-61.212706
755.681633	-61.795515
755.872164	-63.486805
756.062792	-62.746836
756.253515	-64.152767
756.444335	-63.952494
756.635252	-64.370173
756.826264	-67.122371
757.017373	-63.795659
757.208579	-61.289864
757.399881	-60.442630
757.591280	-62.525786
757.782776	-63.539189
757.974368	-63.749305
758.166058	-66.015637
758.357844	-66.273298
758.549728	-64.378265
758.741708	-62.595427
758.933786	-62.223549
759.125961	-62.370964
759.318233	-63.156198
759.510603	-63.230872
759.703071	-62.784980
759.895635	-62.280000
760.088298	-62.033765
760.281058	-61.185953
760.473916	-62.456603
760.666872	-63.200194
760.859926	-62.833271
761.053078	-59.887659
761.246328	-60.575886
761.439676	-60.791597
761.633122	-58.535586
761.826667	-60.419910
762.020310	-63.071702
762.214052	-61.401252
762.407892	-60.994132
762.601831	-61.296951
762.795868	-59.800597
762.990004	-58.806922
763.184239	-62.133403
763.378573	-61.054934
763.573006	-59.738811
763.767538	-60.039157
763.962169	-59.944288
764.156900	-58.767660
764.351729	-58.619861
764.546658	-62.039164
764.741687	-60.587715
764.936815	-60.754856
765.132042	-58.887306
765.327370	-57.361069
765.522797	-56.527677
765.718324	-58.306456
765.913950	-58.107495
766.109677	-59.019068
766.305504	-59.360812
766.501431	-59.144223
766.697458	-58.288472
766.893586	-56.998864
767.089814	-59.134344
767.286142	-57.969037
767.482571	-57.081751
767.679100	-57.594461
767.875730	-56.132118
768.072461	-56.513334
768.269293	-58.166006
768.466225	-57.737235
768.663259	-58.047375
768.860393	-57.666765
769.057629	-56.192358
769.254966	-55.130579
769.452404	-56.338167
769.649944	-56.839634
769.847585	-56.965790
770.045328	-55.777670
770.243172	-55.296437
770.441118	-54.727970
770.639166	-55.273128
770.837315	-54.750316
771.035567	-55.030347
771.233920	-56.144068
771.432376	-56.984292
771.630934	-55.320504
771.829594	-54.556579
772.028356	-55.474460
772.227220	-56.782248
772.426188	-55.225712
772.625257	-54.309007
772.824430	-54.225842
773.023705	-53.942873
773.223083	-53.983000
773.422563	-54.513280
773.622147	-53.679735
773.821834	-55.212458
774.021624	-55.763937
774.221517	-53.511920
774.421513	-53.222650
774.621613	-53.640843
774.821816	-53.657783
775.022122	-52.997393
775.222532	-53.610955
775.423046	-52.759399
775.623664	-54.132463
775.824385	-53.273025
776.025211	-53.514700
776.226140	-54.804207
776.427173	-53.370897
776.628311	-52.743385
776.829553	-54.812278
777.030899	-52.842674
777.232350	-51.576899
777.433905	-52.534398
777.635564	-52.631132
777.837328	-51.657152
778.039197	-52.982133
778.241171	-53.570634
778.443250	-52.526739
778.645433	-51.801210
778.847722	-51.960081
779.050116	-51.899208
779.252615	-51.201102
779.455219	-51.348627
779.657929	-55.248692
779.860744	-54.739765
780.063665	-51.052492
780.266691	-51.506284
780.469823	-52.400038
780.673061	-50.947168
780.876405	-50.811161
781.079855	-51.406883
781.283410	-51.245761
781.487072	-51.448878
781.690840	-51.859119
781.894715	-52.276569
782.098695	-51.101774
782.302783	-50.511500
782.506976	-51.795996
782.711277	-50.348436
782.915684	-50.236116
783.120198	-51.155068
783.324818	-50.768247
783.529546	-52.870135
783.734381	-52.806965
783.939322	-50.127302
784.144372	-50.215891
784.349528	-51.222684
784.554792	-50.059969
784.760163	-51.361972
784.965642	-49.848674
785.171228	-49.691154
785.376922	-50.450942
785.582724	-50.661696
785.788634	-50.698421
785.994651	-51.196249
786.200777	-50.144963
786.407011	-49.884149
786.613353	-49.956219
786.819804	-49.907777
787.026363	-50.382108
787.233030	-49.413624
787.439806	-50.307483
787.646691	-52.038669
787.853684	-50.497695
788.060786	-49.986522
788.267997	-51.205626
788.475317	-51.195845
788.682746	-50.178750
788.890285	-50.027274
789.097932	-49.271413
789.305689	-48.725772
789.513555	-48.386089
789.721531	-49.779358
789.929617	-49.570733
790.137812	-49.331939
790.346117	-50.447022
790.554531	-50.441602
790.763056	-49.516934
790.971691	-50.832771
791.180436	-49.636124
791.389291	-49.010350
791.598256	-49.452294
791.807332	-49.918787
792.016518	-50.346054
792.225815	-49.417736
792.435222	-47.959040
792.644740	-48.956534
792.854369	-50.036366
793.064109	-49.172799
793.273960	-50.093364
793.483922	-49.331589
793.693995	-49.300360
793.904180	-50.166033
794.114475	-48.883977
794.324882	-51.701181
794.535401	-49.819323
794.746031	-47.857084
794.956774	-47.658632
795.167627	-49.001173
795.378593	-49.339823
795.589671	-48.794167
795.800861	-48.493199
796.012162	-50.366562
796.223577	-48.367236
796.435103	-47.436221
796.646742	-49.032864
796.858493	-49.828676
797.070357	-49.322706
797.282334	-49.261852
797.494423	-49.449255
797.706626	-50.357000
797.918941	-47.924815
798.131369	-48.604989
798.343911	-49.133911
798.556566	-48.277627
798.769334	-49.377207
798.982215	-48.243184
799.195210	-47.516027
799.408319	-49.842605
799.621541	-49.044012
799.834877	-48.648046
800.048327	-48.712316
800.261890	-48.104561
800.475568	-49.786519
800.689360	-48.522992
800.903266	-47.369827
801.117287	-50.700435
801.331422	-47.831965
801.545671	-47.417351
801.760036	-47.961887
801.974514	-48.465794
802.189108	-49.257275
802.403816	-47.458322
802.618640	-47.359426
802.833578	-48.882115
803.048632	-47.829630
803.263800	-47.729050
803.479085	-48.034971
803.694484	-48.306758
803.909999	-48.253464
804.125630	-47.580216
804.341376	-47.968523
804.557239	-48.079599
804.773217	-47.857936
804.989311	-47.386407
805.205521	-46.946370
805.421847	-48.151633
805.638290	-48.196262
805.854849	-48.114690
806.071524	-47.911297
806.288316	-47.386481
806.505225	-48.069284
806.722250	-47.505568
806.939393	-46.920792
807.156652	-48.708119
807.374028	-47.759729
807.591521	-47.548136
807.809132	-48.636291
808.026859	-46.862372
808.244705	-47.716467
808.462667	-47.628485
808.680748	-46.255940
808.898946	-47.712724
809.117261	-47.242574
809.335695	-47.604946
809.554246	-47.673983
809.772916	-45.702164
809.991704	-47.413109
810.210610	-47.060983
810.429634	-46.197404
810.648777	-47.464150
810.868039	-46.917252
811.087419	-46.733052
811.306918	-46.818473
811.526535	-45.092671
811.746272	-47.049884
811.966127	-47.310245
812.186102	-45.857258
812.406196	-46.865952
812.626409	-46.814944
812.846742	-46.402194
813.067194	-46.075976
813.287766	-45.378783
813.508457	-46.994562
813.729269	-47.081696
813.950200	-45.344940
814.171251	-47.318990
814.392422	-45.877318
814.613714	-46.505205
814.835126	-46.037298
815.056658	-44.995713
815.278311	-47.890753
815.500084	-45.197613
815.721978	-44.738073
815.943993	-46.470785
816.166128	-44.998961
816.388385	-46.292962
816.610762	-45.232694
816.833261	-45.106313
817.055881	-45.428781
817.278623	-44.401179
817.501486	-44.933783
817.724471	-45.504584
817.947577	-45.201685
818.170805	-46.156544
818.394155	-44.739509
818.617627	-45.043467
818.841221	-45.545038
819.064937	-44.535734
819.288775	-45.436968
819.512736	-44.965108
819.736819	-45.203303
819.961025	-45.318790
820.185354	-45.108524
820.409805	-44.856284
820.634379	-45.771433
820.859076	-44.822900
821.083897	-45.381028
821.308840	-44.957071
821.533907	-45.061456
821.759097	-45.081213
821.984411	-44.670032
822.209848	-44.976244
822.435409	-45.331044
822.661093	-44.439396
822.886902	-45.295636
823.112834	-44.066445
823.338891	-44.674455
823.565072	-44.637625
823.791377	-44.030872
824.017807	-44.990569
824.244361	-43.845891
824.471039	-43.891965
824.697843	-44.177688
824.924771	-43.853793
825.151824	-44.461865
825.379002	-44.674315
825.606306	-43.926282
825.833734	-44.266793
826.061288	-43.058186
826.288967	-44.115901
826.516772	-43.516318
826.744703	-43.681876
826.972759	-44.063716
827.200941	-43.478786
827.429249	-43.300791
827.657683	-43.780538
827.886243	-43.202160
828.114930	-44.436360
828.343743	-43.281145
828.572682	-43.114308
828.801748	-44.177409
829.030941	-42.449742
829.260260	-43.639884
829.489706	-43.430535
829.719280	-42.815799
829.948980	-44.324788
830.178808	-42.909503
830.408763	-43.050446
830.638845	-43.957678
830.869055	-42.359868
831.099393	-43.581711
831.329858	-43.773381
831.560451	-42.777003
831.791173	-44.346226
832.022022	-42.038505
832.252999	-42.987147
832.484105	-43.093576
832.715339	-42.576112
832.946702	-43.635689
833.178193	-42.935578
833.409813	-42.731577
833.641561	-43.108638
833.873439	-42.686786
834.105445	-42.980234
834.337581	-43.294690
834.569846	-42.411786
834.802241	-42.894306
835.034764	-42.746110
835.267418	-43.218047
835.500201	-42.509729
835.733114	-43.031118
835.966157	-42.160936
836.199329	-42.814141
836.432632	-43.019282
836.666065	-42.353983
836.899629	-43.308921
837.133323	-42.035174
837.367147	-42.391015
837.601102	-42.961614
837.835188	-42.374596
838.069405	-43.008886
838.303752	-42.034806
838.538231	-42.156057
838.772841	-42.432837
839.007582	-42.555714
839.242455	-42.389279
839.477459	-42.624642
839.712595	-42.170367
839.947863	-42.242886
840.183263	-42.233957
840.418794	-42.582434
840.654458	-42.288309
840.890254	-42.522763
841.126182	-41.835615
841.362242	-42.182424
841.598435	-42.229096
841.834761	-41.921535
842.071220	-42.703727
842.307811	-41.828569
842.544536	-42.284350
842.781393	-42.097824
843.018384	-41.331332
843.255508	-42.898800
843.492765	-41.875130
843.730156	-42.396174
843.967681	-42.278800
844.205339	-41.570493
844.443132	-42.491875
844.681058	-41.829587
844.919118	-42.474294
845.157313	-42.575697
845.395642	-41.419408
845.634105	-42.040190
845.872703	-41.574902
846.111436	-42.251524
846.350303	-41.900345
846.589306	-41.694025
846.828443	-41.860634
847.067716	-41.626509
847.307124	-41.591043
847.546667	-41.984931
847.786345	-41.705915
848.026160	-41.476622
848.266110	-41.484869
848.506195	-41.508646
848.746417	-41.555075
848.986775	-41.330532
849.227269	-41.234672
849.467899	-41.220051
849.708666	-41.189987
849.949569	-41.017008
850.190609	-41.123521
850.431785	-40.600767
850.673099	-40.837830
850.914549	-40.802571
851.156137	-40.714273
851.397861	-41.311204
851.639723	-40.412100
851.881723	-40.917785
852.123860	-40.098624
852.366135	-41.052964
852.608547	-40.435132
852.851098	-40.505011
853.093786	-40.785986
853.336613	-40.246987
853.579578	-40.593901
853.822681	-40.173979
854.065923	-40.598906
854.309304	-40.361196
854.552823	-39.837875
854.796481	-40.304369
855.040278	-39.827069
855.284215	-40.515981
855.528290	-39.778802
855.772505	-40.421301
856.016859	-40.024159
856.261353	-39.647000
856.505987	-39.698917
856.750760	-39.293837
856.995673	-39.526309
857.240727	-39.276408
857.485920	-39.377269
857.731254	-39.533432
857.976729	-39.246334
858.222343	-39.272502
858.468099	-38.964006
858.713995	-39.479363
858.960032	-38.765385
859.206211	-38.955394
859.452530	-38.831724
859.698991	-39.300155
859.945593	-38.860188
860.192336	-38.684879
860.439222	-39.070255
860.686248	-38.401871
860.933417	-38.374341
861.180728	-38.282241
861.428181	-38.744060
861.675776	-38.430772
861.923514	-37.991971
862.171394	-38.613477
862.419417	-38.433225
862.667582	-38.126981
862.915890	-37.650983
863.164342	-38.096549
863.412936	-38.396302
863.661674	-37.683033
863.910555	-37.621047
864.159579	-37.582770
864.408747	-37.784420
864.658059	-37.383501
864.907515	-37.640043
865.157114	-37.960399
865.406858	-37.612688
865.656746	-37.258173
865.906778	-37.138170
866.156955	-37.671249
866.407277	-37.162796
866.657743	-36.849974
866.908354	-36.819411
867.159110	-37.330672
867.410011	-37.027142
867.661057	-36.657815
867.912249	-36.902392
868.163586	-36.851387
868.415069	-36.821218
868.666697	-36.262045
868.918472	-36.761055
869.170392	-36.458716
869.422458	-36.482145
869.674671	-36.186104
869.927030	-36.332581
870.179536	-36.517251
870.432188	-36.208486
870.684987	-36.312321
870.937933	-36.018679
871.191026	-36.066375
871.444266	-35.925903
871.697653	-35.704789
871.951188	-36.033962
872.204870	-35.837536
872.458700	-35.919055
872.712677	-35.380916
872.966803	-35.693762
873.221076	-35.533598
873.475498	-35.542432
873.730068	-35.391149
873.984787	-35.365674
874.239654	-35.590764
874.494669	-35.227902
874.749834	-35.155665
875.005147	-34.851014
875.260610	-35.247493
875.516222	-35.177316
875.771983	-35.045062
876.027894	-34.910373
876.283954	-34.976528
876.540164	-34.883339
876.796524	-34.516673
877.053033	-34.753774
877.309693	-34.706747
877.566503	-34.895703
877.823464	-34.523741
878.080575	-34.387322
878.337837	-34.505474
878.595249	-34.566993
878.852813	-34.537189
879.110528	-34.223742
879.368393	-34.259431
879.626410	-34.240657
879.884579	-34.249669
880.142899	-33.901835
880.401371	-34.201292
880.659994	-34.067695
880.918770	-34.197211
881.177698	-33.710685
881.436778	-33.849322
881.696010	-33.854821
881.955395	-33.941714
882.214933	-33.796651
882.474623	-33.522229
882.734467	-33.723879
882.994463	-33.632778
883.254613	-33.586508
883.514916	-33.505383
883.775372	-33.515426
884.035982	-33.477708
884.296746	-33.389601
884.557664	-33.286130
884.818735	-33.345386
885.079961	-33.397260
885.341341	-33.336255
885.602876	-33.212135
885.864565	-33.047565
886.126409	-33.245761
886.388407	-32.992420
886.650561	-33.220488
886.912870	-32.904559
887.175334	-33.236656
887.437953	-32.884927
887.700728	-32.950481
887.963658	-32.822138
888.226745	-32.860685
888.489987	-33.008859
888.753385	-32.767812
889.016940	-32.847989
889.280651	-32.654939
889.544518	-32.775140
889.808543	-32.724752
890.072723	-32.632353
890.337061	-32.518450
890.601556	-32.648975
890.866208	-32.526786
891.131017	-32.725520
891.395984	-32.371931
891.661109	-32.490603
891.926391	-32.411698
892.191831	-32.499112
892.457429	-32.445849
892.723186	-32.252556
892.989100	-32.429952
893.255173	-32.212672
893.521405	-32.509436
893.787796	-32.131464
894.054345	-32.271842
894.321053	-32.108386
894.587921	-32.267765
894.854948	-32.174734
895.122134	-32.157887
895.389480	-32.023389
895.656986	-32.174114
895.924651	-31.953707
896.192477	-32.230217
896.460463	-31.975442
896.728609	-32.045622
896.996915	-31.972360
897.265382	-31.973950
897.534010	-32.049541
897.802799	-31.849318
898.071749	-32.114306
898.340860	-31.709053
898.610132	-32.046388
898.879566	-31.758277
899.149162	-31.986241
899.418919	-31.779089
899.688838	-31.982987
899.958919	-31.771722
900.229162	-31.858561
900.499568	-31.832076
900.770136	-31.814261
901.040867	-31.740552
901.311761	-31.806363
901.582817	-31.702265
901.854037	-31.758407
902.125420	-31.773133
902.396966	-31.680190
902.668676	-31.792408
902.940550	-31.499193
903.212587	-31.914450
903.484788	-31.431098
903.757153	-31.763568
904.029683	-31.447265
904.302377	-31.604915
904.575236	-31.481214
904.848259	-31.753357
905.121447	-31.356239
905.394800	-31.676394
905.668319	-31.307379
905.942002	-31.677449
906.215852	-31.236678
906.489866	-31.652974
906.764047	-31.308810
907.038393	-31.520334
907.312906	-31.370555
907.587584	-31.474898
907.862429	-31.246218
908.137441	-31.482263
908.412619	-31.210600
908.687964	-31.502004
908.963476	-31.147220
909.239155	-31.447489
909.515002	-31.195781
909.791015	-31.233368
910.067197	-31.378323
910.343546	-31.099944
910.620063	-31.327795
910.896748	-31.156213
911.173601	-31.187818
911.450623	-31.257175
911.727813	-31.127629
912.005171	-31.258740
912.282699	-31.192695
912.560395	-31.044310
912.838261	-31.470311
913.116296	-30.788515
913.394500	-31.505392
913.672874	-30.859815
913.951418	-31.298311
914.230131	-31.075184
914.509015	-31.109331
914.788068	-31.087128
915.067292	-31.173956
915.346687	-30.803416
915.626252	-31.372885
915.905988	-30.727506
916.185895	-31.267687
916.465973	-30.862394
916.746223	-31.088640
917.026644	-30.955466
917.307236	-31.181754
917.588000	-30.765165
917.868937	-31.251119
918.150045	-30.651403
918.431325	-31.427353
918.712778	-30.748317
918.994404	-31.117094
919.276202	-30.918078
919.558173	-31.024064
919.840317	-30.950195
920.122634	-31.203492
920.405125	-30.620735
920.687789	-31.262677
920.970627	-30.738801
921.253639	-31.208274
921.536824	-30.781495
921.820184	-31.153196
922.103718	-30.704028
922.387427	-31.220904
922.671310	-30.648506
922.955368	-31.221535
923.239601	-30.738071
923.524009	-31.098993
923.808592	-30.855137
924.093351	-31.059298
924.378285	-30.694663
924.663396	-31.279437
924.948682	-30.529650
925.234144	-31.322521
925.519782	-30.650623
925.805597	-31.097414
926.091589	-30.677301
926.377757	-31.097858
926.664102	-30.520819
926.950624	-31.262199
927.237323	-30.384931
927.524200	-31.202593
927.811255	-30.386687
928.098487	-31.067970
928.385897	-30.382592
928.673485	-31.012791
928.961251	-30.397639
929.249196	-30.928018
929.537319	-30.470470
929.825621	-30.718780
930.114102	-30.634990
930.402762	-30.590499
930.691601	-30.629811
930.980620	-30.658976
931.269818	-30.503095
931.559196	-30.713502
931.848753	-30.525899
932.138491	-30.563685
932.428409	-30.705239
932.718508	-30.343671
933.008787	-30.681934
933.299246	-30.395447
933.589887	-30.545916
933.880709	-30.460780
934.171712	-30.505944
934.462896	-30.261558
934.754262	-30.600396
935.045810	-30.170160
935.337539	-30.387532
935.629451	-30.451770
935.921545	-30.071283
936.213822	-30.612865
936.506281	-29.959448
936.798922	-30.410708
937.091747	-30.046052
937.384755	-30.310239
937.677946	-30.038583
937.971321	-30.359311
938.264879	-30.046666
938.558621	-30.057340
938.852547	-30.114343
939.146657	-29.897118
939.440952	-30.086386
939.735431	-30.064841
940.030095	-29.781273
940.324943	-30.080402
940.619977	-29.666618
940.915196	-29.873646
941.210600	-29.761573
941.506189	-29.729776
941.801965	-29.857261
942.097926	-29.514999
942.394074	-29.983825
942.690407	-29.304089
942.986927	-30.006072
943.283634	-29.287503
943.580527	-29.731556
943.877608	-29.598503
944.174875	-29.481000
944.472330	-29.729415
944.769972	-29.431351
945.067802	-29.683574
945.365820	-29.535996
945.664026	-29.521409
945.962420	-29.546406
946.261002	-29.574452
946.559773	-29.437651
946.858733	-29.605332
947.157881	-29.292676
947.457219	-29.692836
947.756746	-29.296301
948.056462	-29.584361
948.356368	-29.283906
948.656464	-29.312436
948.956749	-29.488425
949.257225	-29.121400
949.557891	-29.390904
949.858748	-29.248024
950.159796	-29.109903
950.461034	-29.217587
950.762463	-29.218073
951.064084	-28.890973
951.365896	-29.313682
951.667900	-28.951931
951.970095	-28.944327
952.272483	-29.150584
952.575063	-28.825360
952.877835	-28.975644
953.180799	-28.969432
953.483956	-28.855771
953.787307	-28.769926
954.090850	-28.962785
954.394586	-28.677182
954.698516	-28.826815
955.002640	-28.746600
955.306957	-28.643970
955.611469	-28.660604
955.916174	-28.655368
956.221074	-28.504244
956.526169	-28.524077
956.831458	-28.517004
957.136942	-28.392108
957.442622	-28.317927
957.748496	-28.486821
958.054567	-28.116581
958.360833	-28.334711
958.667294	-28.151050
958.973952	-28.171593
959.280806	-28.015527
959.587857	-28.212150
959.895104	-27.872020
960.202548	-28.018028
960.510189	-27.958376
960.818027	-27.871148
961.126062	-27.805143
961.434295	-27.913102
961.742726	-27.742680
962.051355	-27.661267
962.360182	-27.859201
962.669207	-27.528762
962.978431	-27.760570
963.287854	-27.491530
963.597475	-27.704690
963.907296	-27.350531
964.217315	-27.643809
964.527535	-27.342641
964.837954	-27.468544
965.148573	-27.329819
965.459392	-27.279923
965.770411	-27.379527
966.081630	-27.149302
966.393051	-27.294865
966.704672	-27.062526
967.016494	-27.236810
967.328517	-26.998971
967.640742	-27.162637
967.953169	-26.939905
968.265797	-27.101974
968.578627	-26.832018
968.891660	-27.140804
969.204895	-26.735379
969.518332	-26.990220
969.831972	-26.817587
970.145816	-26.889947
970.459862	-26.714026
970.774112	-26.845960
971.088565	-26.762032
971.403223	-26.651109
971.718084	-26.715751
972.033149	-26.763312
972.348419	-26.506001
972.663893	-26.660479
972.979572	-26.589455
973.295456	-26.552487
973.611546	-26.439259
973.927840	-26.578269
974.244340	-26.355921
974.561046	-26.428021
974.877958	-26.345194
975.195076	-26.368615
975.512401	-26.181484
975.829932	-26.309414
976.147670	-26.229466
976.465615	-26.040844
976.783767	-26.206617
977.102126	-26.056307
977.420693	-25.979625
977.739468	-26.077778
978.058451	-25.898512
978.377642	-25.903452
978.697041	-25.835733
979.016649	-25.915747
979.336466	-25.688648
979.656492	-25.709773
979.976727	-25.790993
980.297171	-25.620638
980.617825	-25.477612
980.938689	-25.725847
981.259763	-25.432473
981.581048	-25.426832
981.902542	-25.492507
982.224248	-25.375533
982.546164	-25.305873
982.868291	-25.261830
983.190630	-25.325747
983.513180	-25.170881
983.835942	-25.074137
984.158916	-25.271703
984.482101	-24.954423
984.805500	-25.068494
985.129110	-25.032863
985.452934	-24.877897
985.776970	-24.936957
986.101220	-24.880868
986.425683	-24.831651
986.750359	-24.749670
987.075250	-24.775592
987.400354	-24.768105
987.725673	-24.539867
988.051206	-24.705804
988.376954	-24.662260
988.702916	-24.428008
989.029094	-24.562999
989.355487	-24.535345
989.682095	-24.439748
990.008919	-24.334443
990.335959	-24.414288
990.663216	-24.423030
990.990688	-24.150462
991.318377	-24.348215
991.646283	-24.239541
991.974406	-24.215367
992.302746	-24.106030
992.631304	-24.161467
992.960079	-24.186672
993.289072	-23.954601
993.618283	-24.132837
993.947713	-23.987585
994.277361	-24.017723
994.607227	-23.949665
994.937313	-23.927883
995.267618	-23.986074
995.598142	-23.812866
995.928886	-23.930410
996.259849	-23.831882
996.591033	-23.806155
996.922437	-23.789597
997.254061	-23.835320
997.585906	-23.714221
997.917972	-23.666295
998.250260	-23.806582
998.582768	-23.639640
998.915498	-23.627761
999.248450	-23.576964
999.581624	-23.713720
999.915020	-23.515208
1000.248639	-23.402886
1000.582480	-23.640590
1000.916545	-23.476521
1001.250832	-23.312078
1001.585343	-23.416648
1001.920077	-23.422141
1002.255035	-23.282414
1002.590218	-23.224205
1002.925624	-23.259114
1003.261255	-23.287644
1003.597111	-23.057184
1003.933192	-23.108823
1004.269497	-23.217483
1004.606029	-22.918899
1004.942785	-23.041387
1005.279768	-23.010809
1005.616977	-22.902004
1005.954412	-22.904484
1006.292074	-22.855473
1006.629962	-22.872131
1006.968077	-22.805176
1007.306420	-22.685317
1007.644990	-22.834783
1007.983787	-22.713375
1008.322813	-22.598122
1008.662067	-22.718079
1009.001549	-22.589914
1009.341259	-22.642753
1009.681199	-22.523553
1010.021367	-22.489555
1010.361765	-22.635805
1010.702392	-22.399685
1011.043250	-22.459980
1011.384337	-22.405785
1011.725654	-22.464913
1012.067202	-22.339422
1012.408980	-22.269684
1012.750989	-22.418964
1013.093230	-22.225537
1013.435702	-22.256345
1013.778405	-22.212969
1014.121341	-22.258592
1014.464508	-22.162334
1014.807908	-22.045765
1015.151540	-22.240812
1015.495405	-22.082132
1015.839503	-22.023114
1016.183835	-22.052842
1016.528400	-22.090810
1016.873198	-21.988368
1017.218231	-21.937862
1017.563498	-22.003063
1017.908999	-21.976224
1018.254735	-21.950152
1018.600707	-21.849862
1018.946913	-21.932026
1019.293354	-21.933706
1019.640032	-21.863853
1019.986945	-21.815878
1020.334094	-21.878429
1020.681480	-21.902472
1021.029102	-21.758459
1021.376961	-21.772357
1021.725058	-21.856668
1022.073391	-21.855257
1022.421962	-21.645045
1022.770772	-21.733801
1023.119819	-21.884491
1023.469104	-21.653988
1023.818628	-21.621306
1024.168391	-21.741078
1024.518393	-21.749222
1024.868634	-21.568829
1025.219115	-21.602155
1025.569836	-21.640483
1025.920796	-21.578370
1026.271997	-21.610050
1026.623438	-21.498792
1026.975121	-21.504032
1027.327044	-21.521427
1027.679208	-21.530382
1028.031614	-21.414990
1028.384262	-21.370944
1028.737152	-21.522195
1029.090284	-21.369419
1029.443659	-21.287713
1029.797276	-21.410854
1030.151137	-21.394661
1030.505240	-21.148006
1030.859587	-21.274696
1031.214178	-21.442211
1031.569013	-21.128978
1031.924093	-21.120114
1032.279417	-21.236302
1032.634985	-21.203963
1032.990799	-21.140747
1033.346858	-21.067726
1033.703162	-21.021174
1034.059712	-21.089695
1034.416509	-21.180701
1034.773551	-20.919511
1035.130841	-20.861506
1035.488377	-21.044976
1035.846160	-21.004248
1036.204190	-20.911661
1036.562468	-20.830377
1036.920994	-20.846154
1037.279768	-20.892790
1037.638790	-20.915471
1037.998061	-20.768525
1038.357581	-20.707034
1038.717350	-20.864009
1039.077368	-20.799166
1039.437636	-20.749676
1039.798154	-20.761883
1040.158922	-20.709243
1040.519940	-20.714323
1040.881209	-20.751981
1041.242729	-20.782518
1041.604501	-20.661355
1041.966524	-20.666498
1042.328798	-20.703038
1042.691325	-20.723751
1043.054103	-20.738896
1043.417135	-20.625658
1043.780419	-20.622876
1044.143956	-20.693705
1044.507746	-20.721518
1044.871791	-20.652306
1045.236088	-20.604696
1045.600641	-20.619064
1045.965447	-20.645668
1046.330508	-20.689481
1046.695824	-20.575637
1047.061395	-20.551182
1047.427222	-20.639201
1047.793304	-20.623946
1048.159642	-20.540481
1048.526237	-20.508693
1048.893088	-20.610716
1049.260196	-20.572634
1049.627561	-20.483435
1049.995183	-20.461362
1050.363063	-20.517581
1050.731201	-20.585581
1051.099597	-20.424794
1051.468251	-20.363804
1051.837164	-20.430386
1052.206336	-20.485622
1052.575767	-20.433550
1052.945458	-20.311257
1053.315409	-20.294517
1053.685619	-20.327198
1054.056090	-20.393330
1054.426821	-20.292140
1054.797814	-20.177972
1055.169067	-20.208573
1055.540582	-20.243927
1055.912359	-20.245579
1056.284398	-20.121274
1056.656698	-20.085128
1057.029262	-20.148463
1057.402088	-20.128615
1057.775177	-20.042035
1058.148530	-19.976148
1058.522146	-20.079660
1058.896027	-20.048589
1059.270171	-19.926524
1059.644580	-19.909543
1060.019254	-19.953771
1060.394193	-19.996578
1060.769397	-19.895363
1061.144867	-19.838840
1061.520602	-19.869298
1061.896604	-19.896664
1062.272872	-19.876122
1062.649407	-19.823439
1063.026210	-19.842540
1063.403279	-19.813732
1063.780616	-19.783162
1064.158221	-19.825077
1064.536094	-19.814571
1064.914235	-19.803153
1065.292645	-19.741168
1065.671325	-19.754876
1066.050273	-19.781837
1066.429491	-19.786283
1066.808979	-19.753107
1067.188738	-19.717109
1067.568766	-19.764904
1067.949066	-19.755082
1068.329636	-19.718640
1068.710478	-19.726102
1069.091592	-19.739109
1069.472977	-19.751823
1069.854635	-19.693208
1070.236565	-19.665292
1070.618768	-19.680438
1071.001243	-19.727951
1071.383993	-19.708941
1071.767016	-19.605242
1072.150313	-19.601095
1072.533884	-19.613553
1072.917730	-19.649595
1073.301850	-19.618039
1073.686246	-19.539903
1074.070917	-19.513369
1074.455864	-19.514640
1074.841087	-19.532579
1075.226586	-19.510166
1075.612362	-19.455258
1075.998415	-19.414844
1076.384745	-19.376504
1076.771353	-19.407371
1077.158238	-19.381031
1077.545401	-19.320667
1077.932843	-19.258815
1078.320564	-19.251697
1078.708564	-19.260776
1079.096842	-19.209775
1079.485401	-19.145058
1079.874240	-19.106698
1080.263358	-19.118408
1080.652757	-19.113668
1081.042438	-19.033572
1081.432399	-19.015785
1081.822641	-18.966718
1082.213166	-18.990117
1082.603972	-18.974695
1082.995061	-18.941628
1083.386433	-18.891454
1083.778087	-18.854645
1084.170025	-18.866281
1084.562246	-18.887563
1084.954751	-18.833403
1085.347541	-18.796663
1085.740615	-18.739640
1086.133973	-18.792761
1086.527617	-18.785264
1086.921546	-18.753175
1087.315761	-18.688331
1087.710262	-18.697498
1088.105050	-18.726519
1088.500124	-18.722594
1088.895485	-18.687627
1089.291134	-18.662689
1089.687070	-18.666178
1090.083294	-18.688374
1090.479806	-18.680456
1090.876607	-18.676951
1091.273696	-18.632156
1091.671075	-18.636831
1092.068744	-18.616715
1092.466702	-18.637026
1092.864950	-18.622791
1093.263489	-18.569901
1093.662319	-18.548735
1094.061440	-18.530624
1094.460852	-18.522732
1094.860555	-18.528521
1095.260551	-18.470847
1095.660840	-18.443584
1096.061421	-18.414922
1096.462295	-18.437607
1096.863462	-18.412220
1097.264923	-18.386476
1097.666678	-18.346001
1098.068727	-18.318929
1098.471071	-18.337549
1098.873710	-18.326469
1099.276644	-18.288829
1099.679874	-18.230764
1100.083400	-18.189500
1100.487222	-18.184877
1100.891340	-18.166920
1101.295756	-18.130816
1101.700468	-18.064707
1102.105478	-17.984268
1102.510787	-17.952819
1102.916393	-17.927016
1103.322298	-17.916018
1103.728502	-17.853637
1104.135005	-17.795703
1104.541807	-17.721511
1104.948909	-17.725910
1105.356312	-17.721342
1105.764015	-17.712247
1106.172019	-17.671533
1106.580324	-17.626940
1106.988931	-17.621118
1107.397840	-17.636076
1107.807051	-17.644922
1108.216564	-17.638660
1108.626380	-17.603039
1109.036500	-17.588413
1109.446923	-17.592370
1109.857649	-17.600461
1110.268680	-17.598811
1110.680016	-17.546883
1111.091657	-17.516400
1111.503602	-17.485355
1111.915854	-17.500334
1112.328411	-17.476343
1112.741275	-17.441115
1113.154445	-17.378178
1113.567922	-17.338180
1113.981706	-17.337374
1114.395798	-17.346982
1114.810198	-17.319099
1115.224906	-17.278852
1115.639923	-17.244339
1116.055249	-17.242515
1116.470884	-17.271759
1116.886829	-17.279845
1117.303084	-17.260348
1117.719650	-17.244286
1118.136526	-17.264391
1118.553713	-17.255290
1118.971212	-17.294496
1119.389022	-17.282916
1119.807145	-17.272151
1120.225580	-17.256269
1120.644328	-17.240464
1121.063389	-17.231469
1121.482763	-17.224073
1121.902452	-17.204115
1122.322454	-17.135811
1122.742771	-17.082900
1123.163404	-17.040583
1123.584351	-17.020205
1124.005614	-16.977700
1124.427193	-16.922817
1124.849089	-16.845140
1125.271301	-16.779409
1125.693830	-16.738465
1126.116677	-16.716056
1126.539842	-16.680670
1126.963324	-16.636345
1127.387126	-16.584806
1127.811246	-16.536899
1128.235685	-16.526248
1128.660444	-16.506605
1129.085522	-16.507880
1129.510922	-16.478828
1129.936641	-16.455602
1130.362682	-16.434800
1130.789044	-16.429161
1131.215728	-16.437580
1131.642734	-16.414182
1132.070063	-16.402906
1132.497714	-16.369849
1132.925689	-16.362403
1133.353987	-16.353889
1133.782610	-16.341538
1134.211556	-16.312914
1134.640827	-16.267066
1135.070424	-16.239127
1135.500345	-16.205609
1135.930593	-16.201386
1136.361166	-16.173493
1136.792067	-16.142191
1137.223294	-16.094614
1137.654848	-16.052268
1138.086730	-16.031908
1138.518940	-16.021870
1138.951479	-16.015100
1139.384346	-15.990832
1139.817543	-15.959077
1140.251069	-15.936294
1140.684925	-15.921844
1141.119111	-15.917867
1141.553628	-15.928262
1141.988475	-15.937012
1142.423655	-15.930063
1142.859166	-15.910531
1143.295009	-15.895653
1143.731185	-15.894905
1144.167694	-15.910344
1144.604536	-15.926853
1145.041711	-15.909873
1145.479221	-15.889978
1145.917065	-15.873360
1146.355245	-15.872400
1146.793759	-15.868417
1147.232609	-15.850842
1147.671795	-15.818350
1148.111317	-15.777832
1148.551177	-15.757427
1148.991373	-15.728751
1149.431907	-15.703862
1149.872779	-15.662335
1150.313989	-15.605401
1150.755538	-15.564261
1151.197426	-15.520268
1151.639653	-15.499008
1152.082220	-15.464691
1152.525128	-15.415831
1152.968376	-15.357694
1153.411966	-15.286701
1153.855897	-15.250951
1154.300169	-15.220720
1154.744784	-15.217434
1155.189742	-15.194689
1155.635042	-15.153408
1156.080687	-15.103610
1156.526674	-15.053871
1156.973007	-15.039606
1157.419683	-15.035226
1157.866705	-15.034904
1158.314072	-15.022482
1158.761786	-14.986313
1159.209845	-14.970228
1159.658251	-14.954669
1160.107004	-14.971229
1160.556104	-14.979363
1161.005553	-14.977368
1161.455349	-14.969851
1161.905494	-14.952127
1162.355989	-14.957388
1162.806832	-14.961798
1163.258026	-14.970243
1163.709570	-14.971215
1164.161464	-14.958227
1164.613710	-14.955391
1165.066307	-14.954965
1165.519256	-14.966572
1165.972558	-14.970116
1166.426212	-14.955667
1166.880219	-14.929436
1167.334580	-14.896394
1167.789295	-14.882864
1168.244364	-14.878790
1168.699788	-14.874544
1169.155567	-14.859957
1169.611702	-14.819828
1170.068193	-14.783933
1170.525041	-14.746422
1170.982245	-14.720050
1171.439807	-14.697050
1171.897726	-14.663171
1172.356004	-14.626939
1172.814640	-14.585020
1173.273635	-14.555963
1173.732989	-14.528508
1174.192703	-14.502868
1174.652778	-14.462611
1175.113213	-14.412058
1175.574009	-14.365740
1176.035167	-14.347813
1176.496687	-14.340846
1176.958569	-14.349439
1177.420814	-14.315765
1177.883422	-14.270415
1178.346394	-14.210940
1178.809730	-14.179283
1179.273430	-14.191104
1179.737496	-14.210158
1180.201927	-14.228591
1180.666723	-14.209574
1181.131886	-14.164136
1181.597416	-14.129900
1182.063312	-14.108314
1182.529576	-14.124985
1182.996209	-14.149754
1183.463209	-14.153973
1183.930579	-14.150475
1184.398317	-14.123113
1184.866426	-14.113766
1185.334904	-14.110993
1185.803754	-14.110958
1186.272974	-14.110822
1186.742566	-14.096763
1187.212529	-14.083683
1187.682865	-14.079528
1188.153574	-14.079148
1188.624656	-14.086284
1189.096112	-14.081657
1189.567942	-14.056861
1190.040147	-14.031690
1190.512726	-14.004801
1190.985681	-13.994157
1191.459012	-14.000884
1191.932720	-13.997633
1192.406804	-14.000035
1192.881265	-13.979622
1193.356104	-13.953703
1193.831322	-13.927292
1194.306918	-13.899332
1194.782893	-13.895646
1195.259248	-13.884780
1195.735982	-13.882876
1196.213097	-13.874813
1196.690593	-13.852378
1197.168471	-13.830280
1197.646730	-13.797750
1198.125371	-13.767622
1198.604395	-13.754056
1199.083803	-13.736456
1199.563594	-13.728469
1200.043769	-13.716753
1200.524329	-13.686899
1201.005273	-13.659019
1201.486604	-13.621724
1201.968320	-13.589851
1202.450422	-13.576404
1202.932912	-13.561586
1203.415789	-13.548767
1203.899054	-13.531046
1204.382707	-13.495576
1204.866748	-13.467903
1205.351179	-13.443630
1205.836000	-13.420567
1206.321211	-13.415286
1206.806812	-13.401074
1207.292805	-13.384260
1207.779189	-13.371095
1208.265965	-13.339203
1208.753134	-13.322324
1209.240696	-13.309442
1209.728651	-13.295732
1210.217000	-13.298573
1210.705744	-13.284159
1211.194883	-13.265755
1211.684417	-13.250020
1212.174347	-13.233093
1212.664673	-13.226486
1213.155396	-13.224387
1213.646516	-13.217275
1214.138034	-13.208537
1214.629951	-13.197092
1215.122266	-13.177343
1215.614980	-13.173696
1216.108095	-13.169991
1216.601609	-13.163804
1217.095524	-13.164061
1217.589841	-13.144468
1218.084559	-13.135773
1218.579679	-13.131360
1219.075202	-13.120920
1219.571128	-13.123317
1220.067458	-13.113640
1220.564191	-13.099412
1221.061330	-13.090467
1221.558874	-13.080928
1222.056823	-13.076752
1222.555178	-13.075401
1223.053940	-13.060607
1223.553109	-13.041614
1224.052686	-13.031723
1224.552671	-13.018293
1225.053065	-13.016179
1225.553867	-13.012700
1226.055079	-12.989210
1226.556702	-12.970509
1227.058735	-12.948967
1227.561179	-12.933353
1228.064035	-12.933327
1228.567303	-12.924580
1229.070983	-12.899950
1229.575077	-12.874691
1230.079585	-12.847724
1230.584506	-12.828023
1231.089842	-12.828683
1231.595594	-12.816216
1232.101761	-12.792383
1232.608345	-12.767328
1233.115345	-12.732706
1233.622762	-12.717040
1234.130597	-12.713362
1234.638851	-12.700807
1235.147523	-12.683904
1235.656615	-12.657122
1236.166126	-12.625629
1236.676058	-12.610328
1237.186411	-12.606226
1237.697185	-12.596703
1238.208381	-12.585966
1238.719999	-12.562841
1239.232040	-12.534563
1239.744505	-12.522792
1240.257394	-12.519704
1240.770708	-12.513598
1241.284446	-12.509099
1241.798610	-12.489909
1242.313201	-12.464130
1242.828218	-12.458582
1243.343662	-12.455803
1243.859534	-12.452351
1244.375834	-12.453558
1244.892563	-12.434976
1245.409721	-12.413261
1245.927309	-12.411722
1246.445327	-12.410137
1246.963777	-12.408413
1247.482657	-12.409691
1248.001970	-12.392874
1248.521716	-12.375176
1249.041894	-12.374061
1249.562506	-12.374587
1250.083553	-12.373582
1250.605034	-12.372166
1251.126950	-12.356562
1251.649302	-12.340658
1252.172091	-12.344726
1252.695316	-12.342193
1253.218979	-12.339675
1253.743079	-12.339060
1254.267619	-12.323302
1254.792597	-12.309671
1255.318015	-12.313715
1255.843874	-12.316171
1256.370173	-12.307945
1256.896913	-12.303485
1257.424095	-12.294787
1257.951720	-12.282594
1258.479787	-12.284102
1259.008298	-12.289000
1259.537254	-12.278524
1260.066654	-12.270853
1260.596499	-12.266766
1261.126790	-12.254516
1261.657527	-12.256890
1262.188711	-12.259707
1262.720342	-12.247097
1263.252422	-12.237377
1263.784950	-12.235596
1264.317928	-12.225754
1264.851355	-12.222257
1265.385232	-12.226035
1265.919560	-12.211369
1266.454340	-12.198035
1266.989572	-12.197153
1267.525256	-12.191170
1268.061394	-12.182905
1268.597985	-12.180029
1269.135031	-12.169535
1269.672531	-12.153934
1270.210487	-12.150412
1270.748899	-12.148725
1271.287768	-12.136074
1271.827094	-12.127913
1272.366877	-12.121095
1272.907119	-12.105196
1273.447820	-12.099775
1273.988981	-12.099802
1274.530601	-12.086265
1275.072683	-12.073761
1275.615226	-12.069140
1276.158230	-12.057071
1276.701697	-12.049696
1277.245627	-12.050963
1277.790021	-12.039373
1278.334879	-12.022376
1278.880202	-12.019706
1279.425991	-12.017485
1279.972245	-12.009732
1280.518966	-12.003043
1281.066155	-11.995544
1281.613811	-11.983605
1282.161936	-11.979534
1282.710529	-11.984120
1283.259593	-11.971551
1283.809126	-11.959990
1284.359131	-11.959429
1284.909607	-11.953981
1285.460555	-11.945242
1286.011976	-11.943462
1286.563870	-11.941467
1287.116237	-11.927865
1287.669080	-11.919181
1288.222397	-11.922931
1288.776191	-11.919988
1289.330460	-11.904189
1289.885207	-11.902595
1290.440431	-11.898549
1290.996133	-11.887197
1291.552314	-11.884257
1292.108975	-11.885853
1292.666115	-11.873040
1293.223737	-11.860764
1293.781839	-11.863075
1294.340424	-11.861272
1294.899491	-11.847904
1295.459041	-11.846307
1296.019075	-11.843106
1296.579593	-11.830270
1297.140597	-11.828736
1297.702086	-11.830624
1298.264061	-11.823080
1298.826524	-11.811763
1299.389474	-11.811350
1299.952912	-11.812725
1300.516839	-11.805109
1301.081255	-11.799954
1301.646162	-11.803981
1302.211559	-11.795068
1302.777448	-11.787843
1303.343829	-11.793371
1303.910702	-11.796321
1304.478069	-11.782787
1305.045930	-11.778540
1305.614285	-11.787643
1306.183136	-11.783159
1306.752483	-11.776530
1307.322326	-11.778912
1307.892666	-11.779778
1308.463504	-11.773029
1309.034841	-11.769598
1309.606677	-11.777774
1310.179012	-11.777764
1310.751849	-11.765215
1311.325186	-11.765523
1311.899025	-11.777588
1312.473366	-11.772141
1313.048211	-11.767511
1313.623559	-11.769051
1314.199412	-11.774260
1314.775770	-11.771823
1315.352634	-11.770569
1315.930004	-11.778769
1316.507881	-11.780533
1317.086266	-11.771928
1317.665159	-11.780644
1318.244562	-11.792842
1318.824474	-11.789813
1319.404897	-11.786629
1319.985831	-11.795242
1320.567276	-11.806656
1321.149234	-11.805927
1321.731706	-11.808118
1322.314691	-11.820200
1322.898190	-11.822205
1323.482205	-11.823507
1324.066736	-11.837541
1324.651783	-11.845591
1325.237347	-11.843971
1325.823430	-11.847592
1326.410031	-11.860977
1326.997151	-11.874595
1327.584791	-11.872645
1328.172952	-11.872895
1328.761634	-11.887867
1329.350839	-11.901334
1329.940566	-11.901467
1330.530817	-11.905113
1331.121592	-11.918179
1331.712891	-11.928686
1332.304716	-11.929921
1332.897068	-11.940851
1333.489946	-11.954726
1334.083352	-11.958115
1334.677287	-11.961862
1335.271750	-11.977061
1335.866744	-11.991640
1336.462268	-11.996370
1337.058323	-11.996582
1337.654910	-12.010629
1338.252029	-12.031556
1338.849682	-12.034815
1339.447869	-12.033645
1340.046591	-12.048611
1340.645848	-12.065482
1341.245641	-12.071601
1341.845972	-12.074905
1342.446840	-12.084758
1343.048246	-12.098343
1343.650191	-12.105659
1344.252677	-12.111344
1344.855702	-12.124151
1345.459269	-12.132838
1346.063379	-12.134546
1346.668030	-12.148679
1347.273226	-12.163833
1347.878965	-12.166158
1348.485250	-12.167266
1349.092080	-12.182935
1349.699456	-12.199929
1350.307380	-12.203492
1350.915851	-12.201141
1351.524871	-12.214467
1352.134441	-12.233685
1352.744560	-12.239591
1353.355231	-12.235510
1353.966453	-12.244550
1354.578227	-12.262898
1355.190555	-12.272899
1355.803436	-12.270630
1356.416872	-12.273163
1357.030863	-12.289966
1357.645411	-12.305933
1358.260515	-12.301831
1358.876177	-12.301320
1359.492397	-12.321866
1360.109176	-12.332041
1360.726516	-12.331673
1361.344416	-12.337555
1361.962877	-12.347302
1362.581901	-12.358551
1363.201487	-12.366564
1363.821637	-12.364442
1364.442352	-12.377194
1365.063632	-12.390495
1365.685478	-12.390580
1366.307891	-12.398195
1366.930871	-12.405850
1367.554420	-12.420911
1368.178538	-12.421253
1368.803226	-12.426370
1369.428485	-12.441834
1370.054315	-12.449157
1370.680717	-12.456590
1371.307693	-12.456915
1371.935242	-12.473179
1372.563366	-12.488557
1373.192065	-12.487686
1373.821341	-12.494722
1374.451193	-12.507556
1375.081623	-12.521948
1375.712632	-12.532897
1376.344221	-12.531200
1376.976389	-12.542381
1377.609139	-12.565083
1378.242470	-12.573498
1378.876384	-12.576891
1379.510881	-12.584738
1380.145963	-12.603160
1380.781629	-12.622066
1381.417881	-12.626669
1382.054720	-12.629931
1382.692147	-12.647727
1383.330161	-12.669003
1383.968765	-12.680923
1384.607959	-12.681497
1385.247743	-12.693261
1385.888119	-12.721071
1386.529087	-12.735520
1387.170648	-12.737250
1387.812804	-12.749712
1388.455554	-12.773526
1389.098899	-12.793375
1389.742842	-12.802592
1390.387381	-12.808614
1391.032519	-12.830168
1391.678256	-12.854781
1392.324592	-12.866696
1392.971529	-12.872762
1393.619068	-12.889100
1394.267208	-12.914288
1394.915952	-12.934246
1395.565300	-12.939805
1396.215253	-12.951004
1396.865812	-12.976874
1397.516977	-13.000258
1398.168749	-13.012087
1398.821130	-13.019973
1399.474120	-13.039854
1400.127719	-13.070964
1400.781930	-13.088770
1401.436752	-13.092373
1402.092186	-13.111538
1402.748234	-13.140536
1403.404897	-13.159748
1404.062174	-13.169753
1404.720067	-13.181360
1405.378577	-13.204454
1406.037705	-13.230538
1406.697451	-13.242393
1407.357817	-13.251545
1408.018803	-13.272796
1408.680410	-13.296685
1409.342639	-13.314383
1410.005492	-13.324794
1410.668968	-13.338292
1411.333068	-13.363131
1411.997795	-13.385785
1412.663147	-13.397786
1413.329127	-13.412116
1413.995736	-13.430427
1414.662973	-13.452564
1415.330840	-13.478196
1415.999339	-13.488446
1416.668469	-13.490896
1417.338232	-13.516029
1418.008628	-13.547832
1418.679659	-13.555132
1419.351325	-13.559232
1420.023628	-13.578807
1420.696568	-13.600666
1421.370145	-13.620809
1422.044362	-13.639029
1422.719219	-13.642159
1423.394717	-13.646081
1424.070856	-13.673501
1424.747638	-13.702262
1425.425064	-13.705050
1426.103134	-13.700113
1426.781850	-13.714606
1427.461212	-13.747308
1428.141221	-13.774141
1428.821878	-13.774425
1429.503185	-13.769723
1430.185141	-13.790943
1430.867749	-13.824680
1431.551008	-13.836094
1432.234920	-13.828096
1432.919486	-13.828661
1433.604707	-13.850349
1434.290583	-13.873999
1434.977116	-13.879316
1435.664307	-13.878607
1436.352156	-13.893142
1437.040664	-13.917221
1437.729833	-13.932073
1438.419663	-13.933809
1439.110156	-13.934848
1439.801312	-13.945790
1440.493132	-13.956040
1441.185617	-13.955357
1441.878768	-13.950721
1442.572586	-13.951371
1443.267072	-13.959566
1443.962228	-13.976171
1444.658053	-13.990603
1445.354549	-13.991800
1446.051717	-13.993763
1446.749558	-14.012118
1447.448073	-14.034627
1448.147263	-14.037817
1448.847128	-14.023642
1449.547671	-14.010375
1450.248891	-14.007916
1450.950789	-14.012577
1451.653368	-14.014685
1452.356627	-14.007271
1453.060568	-13.996404
1453.765192	-14.000113
1454.470500	-14.025073
1455.176492	-14.057068
1455.883170	-14.074835
1456.590534	-14.074467
1457.298586	-14.071217
1458.007327	-14.076483
1458.716758	-14.083203
1459.426880	-14.078997
1460.137693	-14.056486
1460.849199	-14.019948
1461.561398	-13.988770
1462.274293	-13.979730
1462.987883	-13.988857
1463.702170	-13.998768
1464.417155	-14.000705
1465.132838	-14.004328
1465.849222	-14.026605
1466.566306	-14.070252
1467.284093	-14.114914
1468.002582	-14.131232
1468.721775	-14.114351
1469.441674	-14.091259
1470.162278	-14.079987
1470.883590	-14.060686
1471.605609	-14.004165
1472.328338	-13.917734
1473.051777	-13.838982
1473.775928	-13.792020
1474.500790	-13.760901
1475.226367	-13.722300
1475.952657	-13.679351
1476.679663	-13.655931
1477.407386	-13.665878
1478.135826	-13.694687
1478.864985	-13.711018
1479.594863	-13.702055
1480.325463	-13.679318
1481.056784	-13.651215
1481.788828	-13.605729
1482.521597	-13.524598
1483.255090	-13.404314
1483.989309	-13.261693
1484.724256	-13.115452
1485.459931	-12.967041
1486.196336	-12.815254
1486.933471	-12.672381
1487.671337	-12.556411
1488.409937	-12.475140
1489.149270	-12.426203
1489.889337	-12.407345
1490.630141	-12.423775
1491.371682	-12.486073
1492.113961	-12.594773
1492.856979	-12.729569
1493.600738	-12.871821
1494.345238	-13.022547
1495.090481	-13.185855
1495.836467	-13.345558
1496.583198	-13.470033
1497.330675	-13.537153
1498.078899	-13.551318
1498.827872	-13.532432
1499.577593	-13.483608
1500.328065	-13.388814
1501.079289	-13.250963
1501.831265	-13.105649
1502.583995	-12.985877
1503.337480	-12.893961
1504.091721	-12.815726
1504.846719	-12.752559
1505.602475	-12.726743
1506.358991	-12.755504
1507.116268	-12.826412
1507.874306	-12.911047
1508.633108	-12.997600
1509.392673	-13.091991
1510.153004	-13.188191
1510.914101	-13.250922
1511.675965	-13.238639
1512.438599	-13.132780
1513.202002	-12.936503
1513.966176	-12.649117
1514.731122	-12.261997
1515.496842	-11.782493
1516.263336	-11.244278
1517.030607	-10.684968
1517.798654	-10.122635
1518.567479	-9.564356
1519.337083	-9.025565
1520.107468	-8.526288
1520.878634	-8.078160
1521.650584	-7.682129
1522.423317	-7.336214
1523.196836	-7.042836
1523.971141	-6.810697
1524.746233	-6.644737
1525.522115	-6.541374
1526.298786	-6.496644
1527.076249	-6.513713
1527.854504	-6.599037
1528.633553	-6.757479
1529.413397	-6.988391
1530.194037	-7.288613
1530.975474	-7.661078
1531.757709	-8.115393
1532.540745	-8.657327
1533.324581	-9.285321
1534.109220	-9.994268
1534.894662	-10.777922
1535.680909	-11.630754
1536.467961	-12.537759
1537.255821	-13.452398
1538.044489	-14.295538
1538.833967	-14.966349
1539.624256	-15.374129
1540.415357	-15.479594
1541.207271	-15.305835
1542.000000	-14.925581
1542.793545	-14.431904
1543.587907	-13.901717
1544.383087	-13.393638
1545.179088	-12.943193
1545.975909	-12.558806
1546.773552	-12.237623
1547.572019	-11.978682
1548.371311	-11.784920
1549.171428	-11.659557
1549.972373	-11.596705
1550.774147	-11.582936
1551.576751	-11.612344
1552.380185	-11.686438
1553.184453	-11.805825
1553.989554	-11.963011
1554.795490	-12.144202
1555.602263	-12.340599
1556.409873	-12.556720
1557.218322	-12.796086
1558.027612	-13.048785
1558.837743	-13.302388
1559.648717	-13.554039
1560.460536	-13.812999
1561.273200	-14.089150
1562.086710	-14.374684
1562.901069	-14.654536
1563.716278	-14.934089
1564.532337	-15.228120
1565.349249	-15.540106
1566.167014	-15.855163
1566.985634	-16.154809
1567.805111	-16.442077
1568.625444	-16.730525
1569.446637	-17.001780
1570.268690	-17.218900
1571.091605	-17.370225
1571.915382	-17.465356
1572.740024	-17.496774
1573.565532	-17.435891
1574.391907	-17.278938
1575.219150	-17.052528
1576.047262	-16.777662
1576.876246	-16.451867
1577.706103	-16.081803
1578.536833	-15.697819
1579.368439	-15.321253
1580.200922	-14.949758
1581.034282	-14.584189
1581.868522	-14.238495
1582.703643	-13.924146
1583.539646	-13.639772
1584.376532	-13.377273
1585.214304	-13.141382
1586.052962	-12.941849
1586.892508	-12.774942
1587.732943	-12.630772
1588.574269	-12.511517
1589.416487	-12.423626
1590.259599	-12.363975
1591.103605	-12.323706
1591.948508	-12.300469
1592.794309	-12.299271
1593.641009	-12.320469
1594.488609	-12.351755
1595.337112	-12.388113
1596.186518	-12.436750
1597.036829	-12.497420
1597.888047	-12.559579
1598.740172	-12.617405
1599.593207	-12.675244
1600.447153	-12.738285
1601.302010	-12.798559
1602.157782	-12.846355
1603.014469	-12.887963
1603.872072	-12.932980
1604.730593	-12.973384
1605.590034	-13.003525
1606.450397	-13.028932
1607.311681	-13.059241
1608.173890	-13.091847
1609.037024	-13.119313
1609.901085	-13.146146
1610.766075	-13.183141
1611.631995	-13.230067
1612.498846	-13.275132
1613.366630	-13.326360
1614.235349	-13.392915
1615.105004	-13.470820
1615.975596	-13.551325
1616.847128	-13.638215
1617.719600	-13.741488
1618.593014	-13.855166
1619.467372	-13.967660
1620.342675	-14.084503
1621.218924	-14.214990
1622.096122	-14.347896
1622.974270	-14.472742
1623.853369	-14.598011
1624.733420	-14.727652
1625.614427	-14.849841
1626.496389	-14.958167
1627.379308	-15.061573
1628.263187	-15.164345
1629.148026	-15.253751
1630.033828	-15.327969
1630.920593	-15.402029
1631.808324	-15.473721
1632.697022	-15.531243
1633.586688	-15.582439
1634.477324	-15.638749
1635.368932	-15.691792
1636.261514	-15.735793
1637.155070	-15.781143
1638.049602	-15.832728
1638.945113	-15.879824
1639.841603	-15.919520
1640.739075	-15.963975
1641.637529	-16.008982
1642.536968	-16.041698
1643.437393	-16.068639
1644.338806	-16.095978
1645.241209	-16.113446
1646.144602	-16.115761
1647.048988	-16.113288
1647.954368	-16.108783
1648.860744	-16.088024
1649.768118	-16.056928
1650.676491	-16.030731
1651.585865	-15.996518
1652.496241	-15.951007
1653.407621	-15.910382
1654.320008	-15.873070
1655.233401	-15.827250
1656.147804	-15.781008
1657.063218	-15.743315
1657.979645	-15.701655
1658.897085	-15.653993
1659.815542	-15.610589
1660.735016	-15.567235
1661.655509	-15.516046
1662.577023	-15.462628
1663.499560	-15.412272
1664.423121	-15.356571
1665.347709	-15.295369
1666.273324	-15.237855
1667.199969	-15.180098
1668.127645	-15.116921
1669.056353	-15.057268
1669.986097	-15.001645
1670.916877	-14.941817
1671.848695	-14.884449
1672.781553	-14.832392
1673.715452	-14.777472
1674.650395	-14.722203
1675.586383	-14.670862
1676.523418	-14.617971
1677.461501	-14.562485
1678.400635	-14.510098
1679.340821	-14.458451
1680.282061	-14.404220
1681.224357	-14.352275
1682.167710	-14.303422
1683.112122	-14.252607
1684.057595	-14.203581
1685.004132	-14.159055
1685.951732	-14.112866
1686.900400	-14.067592
1687.850135	-14.026378
1688.800940	-13.983138
1689.752818	-13.939646
1690.705768	-13.899714
1691.659795	-13.858409
1692.614898	-13.816992
1693.571081	-13.779462
1694.528345	-13.742311
1695.486691	-13.705177
1696.446122	-13.671725
1697.406640	-13.639057
1698.368245	-13.605302
1699.330941	-13.574329
1700.294729	-13.544159
1701.259611	-13.512263
1702.225588	-13.482706
1703.192664	-13.454216
1704.160838	-13.424153
1705.130114	-13.396635
1706.100493	-13.370747
1707.071977	-13.343618
1708.044568	-13.318970
1709.018268	-13.295367
1709.993079	-13.270024
1710.969003	-13.246488
1711.946041	-13.222906
1712.924196	-13.198167
1713.903469	-13.175505
1714.883862	-13.152875
1715.865378	-13.130184
1716.848017	-13.109562
1717.831783	-13.088650
1718.816677	-13.068295
1719.802701	-13.049590
1720.789857	-13.030358
1721.778147	-13.012319
1722.767573	-12.995749
1723.758136	-12.978958
1724.749840	-12.963685
1725.742685	-12.949518
1726.736673	-12.935265
1727.731808	-12.922755
1728.728090	-12.911208
1729.725521	-12.899835
1730.724105	-12.890127
1731.723842	-12.880707
1732.724735	-12.871134
1733.726785	-12.862661
1734.729995	-12.853877
1735.734366	-12.845173
1736.739902	-12.837913
1737.746603	-12.830633
1738.754472	-12.823970
1739.763510	-12.818594
1740.773721	-12.812504
1741.785105	-12.806937
1742.797665	-12.802039
1743.811403	-12.796267
1744.826321	-12.791793
1745.842422	-12.787961
1746.859706	-12.784136
1747.878177	-12.782213
1748.897835	-12.780112
1749.918685	-12.778595
1750.940726	-12.778613
1751.963963	-12.777804
1752.988395	-12.778287
1754.014027	-12.779258
1755.040860	-12.779538
1756.068895	-12.781649
1757.098135	-12.783368
1758.128583	-12.785620
1759.160240	-12.789455
1760.193109	-12.792604
1761.227191	-12.797087
1762.262488	-12.801519
1763.299004	-12.805284
1764.336740	-12.809905
1765.375697	-12.813619
1766.415880	-12.818224
1767.457288	-12.823246
1768.499926	-12.827983
1769.543794	-12.834026
1770.588895	-12.839360
1771.635231	-12.845102
1772.682805	-12.850991
1773.731619	-12.856166
1774.781674	-12.862388
1775.832973	-12.867915
1776.885519	-12.874381
1777.939312	-12.881667
1778.994357	-12.888589
1780.050654	-12.897130
1781.108207	-12.904893
1782.167017	-12.913161
1783.227087	-12.921778
1784.288418	-12.929732
1785.351013	-12.939112
1786.414875	-12.948047
1787.480006	-12.958204
1788.546407	-12.969341
1789.614082	-12.979915
1790.683032	-12.992313
1791.753259	-13.003934
1792.824767	-13.016335
1793.897557	-13.029706
1794.971632	-13.042592
1796.046994	-13.057390
1797.123645	-13.071490
1798.201588	-13.086738
1799.280824	-13.103112
1800.361357	-13.118946
1801.443188	-13.136527
1802.526320	-13.153010
1803.610756	-13.170012
1804.696497	-13.186913
1805.783546	-13.203528
1806.871906	-13.221642
1807.961578	-13.239339
1809.052565	-13.258224
1810.144870	-13.276500
1811.238494	-13.294651
1812.333441	-13.312470
1813.429713	-13.329515
1814.527311	-13.347404
1815.626239	-13.364808
1816.726499	-13.383076
1817.828094	-13.401270
1818.931025	-13.419722
1820.035295	-13.438365
1821.140906	-13.456191
1822.247862	-13.474464
1823.356165	-13.492032
1824.465816	-13.510291
1825.576819	-13.528745
1826.689175	-13.547564
1827.802888	-13.567054
1828.917960	-13.586113
1830.034394	-13.605498
1831.152191	-13.624430
1832.271354	-13.643494
1833.391887	-13.662796
1834.513790	-13.682236
1835.637068	-13.702763
1836.761722	-13.723282
1837.887755	-13.744566
1839.015169	-13.764745
1840.143968	-13.785193
1841.274153	-13.804448
1842.405727	-13.823968
1843.538693	-13.843534
1844.673053	-13.863521
1845.808810	-13.884542
1846.945966	-13.904864
1848.084525	-13.926434
1849.224488	-13.946856
1850.365858	-13.968198
1851.508638	-13.988570
1852.652831	-14.009755
1853.798438	-14.030661
1854.945463	-14.052552
1856.093909	-14.074462
1857.243777	-14.096642
1858.395071	-14.118191
1859.547794	-14.139474
1860.701947	-14.159983
1861.857533	-14.180381
1863.014556	-14.200592
1864.173018	-14.221470
1865.332922	-14.241866
1866.494270	-14.262009
1867.657065	-14.280883
1868.821309	-14.298970
1869.987006	-14.316528
1871.154158	-14.334516
1872.322768	-14.352776
1873.492839	-14.370898
1874.664373	-14.388425
1875.837373	-14.404930
1877.011841	-14.420476
1878.187782	-14.434881
1879.365197	-14.448955
1880.544089	-14.462220
1881.724460	-14.475071
1882.906315	-14.487163
1884.089655	-14.499000
1885.274483	-14.509918
1886.460803	-14.519879
1887.648616	-14.528480
1888.837927	-14.536215
1890.028736	-14.543139
1891.221049	-14.549732
1892.414866	-14.555953
1893.610192	-14.561652
1894.807028	-14.566507
1896.005379	-14.570223
1897.205246	-14.572832
1898.406633	-14.574417
1899.609542	-14.575673
1900.813977	-14.576864
1902.019940	-14.578126
1903.227434	-14.578538
1904.436462	-14.578458
1905.647028	-14.577594
1906.859133	-14.576802
1908.072781	-14.575828
1909.287976	-14.575124
1910.504719	-14.573817
1911.723013	-14.571843
1912.942863	-14.569060
1914.164270	-14.566055
1915.387238	-14.562558
1916.611770	-14.558512
1917.837868	-14.554056
1919.065536	-14.548794
1920.294777	-14.542681
1921.525594	-14.535569
1922.757989	-14.527942
1923.991967	-14.519325
1925.227529	-14.510006
1926.464679	-14.499524
1927.703420	-14.488086
1928.943755	-14.475322
1930.185688	-14.461871
1931.429221	-14.447244
1932.674356	-14.431617
1933.921099	-14.414605
1935.169451	-14.396848
1936.419415	-14.378155
1937.670996	-14.358202
1938.924195	-14.336437
1940.179017	-14.313517
1941.435463	-14.289739
1942.693538	-14.265865
1943.953245	-14.241760
1945.214586	-14.217342
1946.477566	-14.192066
1947.742186	-14.165815
1949.008451	-14.139061
1950.276363	-14.112383
1951.545926	-14.085776
1952.817143	-14.058967
1954.090017	-14.031922
1955.364551	-14.004415
1956.640749	-13.976845
1957.918615	-13.949124
1959.198150	-13.921644
1960.479359	-13.894229
1961.762244	-13.867293
1963.046810	-13.840441
1964.333059	-13.813949
1965.620995	-13.787655
1966.910621	-13.761815
1968.201940	-13.736428
1969.494956	-13.711642
1970.789672	-13.687013
1972.086091	-13.662242
1973.384217	-13.637170
1974.684053	-13.612250
1975.985602	-13.587640
1977.288869	-13.563424
1978.593855	-13.539166
1979.900566	-13.514344
1981.209003	-13.488520
1982.519171	-13.462305
1983.831073	-13.435973
1985.144712	-13.409210
1986.460093	-13.381555
1987.777217	-13.353102
1989.096089	-13.324070
1990.416713	-13.294585
1991.739092	-13.264947
1993.063228	-13.235345
1994.389127	-13.205521
1995.716791	-13.175010
1997.046223	-13.143875
1998.377428	-13.112869
1999.710409	-13.082766
2001.045169	-13.053386
2002.381713	-13.024106
2003.720043	-12.994658
2005.060163	-12.965047
2006.402077	-12.935705
2007.745788	-12.907296
2009.091301	-12.879983
2010.438618	-12.853462
2011.787743	-12.827015
2013.138680	-12.800538
2014.491433	-12.774499
2015.846005	-12.749581
2017.202399	-12.725943
2018.560621	-12.703385
2019.920673	-12.681251
2021.282558	-12.659275
2022.646281	-12.638261
2024.011846	-12.618865
2025.379256	-12.600768
2026.748515	-12.583068
2028.119626	-12.565277
2029.492594	-12.547627
2030.867422	-12.530907
2032.244114	-12.515330
2033.622673	-12.500087
2035.003104	-12.484007
2036.385411	-12.467228
2037.769597	-12.450632
2039.155665	-12.434520
2040.543621	-12.418330
2041.933467	-12.401505
2043.325208	-12.383831
2044.718847	-12.365402
2046.114389	-12.346534
2047.511837	-12.327644
2048.911195	-12.308778
2050.312467	-12.289684
2051.715657	-12.270376
2053.120769	-12.251428
2054.527807	-12.232926
2055.936775	-12.214878
2057.347677	-12.197335
2058.760516	-12.180171
2060.175297	-12.163368
2061.592025	-12.147667
2063.010701	-12.133549
2064.431332	-12.120440
2065.853921	-12.107813
2067.278472	-12.096093
2068.704988	-12.085631
2070.133475	-12.076157
2071.563936	-12.067328
2072.996375	-12.059335
2074.430796	-12.052431
2075.867204	-12.046432
2077.305603	-12.041133
2078.745996	-12.036353
2080.188389	-12.032163
2081.632784	-12.028801
2083.079187	-12.026288
2084.527601	-12.024581
2085.978030	-12.023784
2087.430480	-12.023944
2088.884954	-12.024526
2090.341455	-12.025362
2091.799990	-12.026922
2093.260561	-12.029068
2094.723173	-12.030752
2096.187831	-12.031112
2097.654538	-12.030239
2099.123300	-12.028599
2100.594119	-12.026601
2102.067001	-12.024353
2103.541950	-12.021619
2105.018971	-12.018294
2106.498067	-12.014713
2107.979243	-12.011459
2109.462503	-12.008726
2110.947853	-12.006506
2112.435295	-12.004908
2113.924836	-12.004608
2115.416478	-12.006020
2116.910227	-12.008657
2118.406087	-12.011363
2119.904063	-12.014131
2121.404158	-12.017784
2122.906378	-12.022502
2124.410727	-12.027671
2125.917210	-12.033209
2127.425831	-12.039485
2128.936594	-12.046741
2130.449505	-12.055179
2131.964567	-12.064897
2133.481786	-12.076709
2135.001166	-12.091235
2136.522711	-12.107921
2138.046427	-12.126519
2139.572317	-12.147405
2141.100388	-12.170168
2142.630642	-12.194412
2144.163085	-12.220010
2145.697722	-12.246358
2147.234558	-12.272472
2148.773596	-12.297823
2150.314842	-12.322616
2151.858301	-12.346761
2153.403977	-12.369526
2154.951875	-12.390105
2156.502000	-12.409141
2158.054357	-12.427759
2159.608950	-12.444842
2161.165785	-12.459443
2162.724866	-12.472733
2164.286198	-12.486066
2165.849786	-12.500165
2167.415635	-12.514521
2168.983749	-12.528798
2170.554134	-12.543394
2172.126795	-12.559341
2173.701737	-12.577547
2175.278964	-12.597453
2176.858481	-12.618065
2178.440294	-12.639992
2180.024408	-12.664966
2181.610827	-12.692965
2183.199557	-12.722475
2184.790602	-12.753738
2186.383968	-12.788466
2187.979660	-12.827154
2189.577683	-12.868252
2191.178041	-12.910369
2192.780741	-12.954807
2194.385787	-13.002906
2195.993185	-13.052897
2197.602939	-13.103481
2199.215054	-13.154475
2200.829537	-13.205511
2202.446392	-13.256570
2204.065624	-13.306472
2205.687239	-13.353257
2207.311242	-13.397400
2208.937638	-13.439669
2210.566433	-13.479288
2212.197631	-13.516146
2213.831239	-13.550513
2215.467261	-13.583354
2217.105703	-13.616059
2218.746570	-13.648168
2220.389867	-13.679950
2222.035601	-13.713804
2223.683776	-13.750202
2225.334398	-13.788973
2226.987472	-13.830132
2228.643004	-13.873933
2230.300999	-13.921067
2231.961463	-13.971251
2233.624402	-14.024150
2235.289820	-14.079823
2236.957723	-14.138918
2238.628118	-14.201599
2240.301009	-14.267476
2241.976402	-14.335936
2243.654303	-14.405276
2245.334717	-14.480924
2247.017650	-14.552784
2248.703108	-14.632366
2250.391096	-14.704388
2252.081620	-14.784114
2253.774686	-14.861284
2255.470300	-14.935292
2257.168467	-15.014315
2258.869193	-15.086370
2260.572484	-15.161874
2262.278345	-15.234537
2263.986783	-15.306949
2265.697804	-15.374597
2267.411412	-15.443515
2269.127615	-15.513408
2270.846417	-15.575565
2272.567826	-15.641966
2274.291846	-15.705531
2276.018484	-15.768453
2277.747745	-15.833344
2279.479637	-15.896889
2281.214164	-15.967544
2282.951333	-16.037379
2284.691149	-16.109623
2286.433619	-16.189649
2288.178750	-16.268363
2289.926546	-16.352829
2291.677014	-16.441367
2293.430161	-16.528169
2295.185992	-16.625515
2296.944513	-16.723397
2298.705732	-16.820204
2300.469653	-16.926478
2302.236283	-17.027418
2304.005629	-17.131315
2305.777696	-17.242341
2307.552492	-17.347276
2309.330022	-17.455878
2311.110292	-17.564971
2312.893310	-17.667038
2314.679080	-17.776348
2316.467611	-17.885414
2318.258907	-17.986389
2320.052976	-18.095281
2321.849824	-18.201448
2323.649457	-18.296568
2325.451883	-18.396978
2327.257106	-18.499266
2329.065135	-18.590228
2330.875975	-18.685779
2332.689633	-18.775447
2334.506116	-18.863120
2336.325430	-18.955296
2338.147581	-19.041047
2339.972578	-19.126810
2341.800425	-19.233474
2343.631130	-19.339995
2345.464700	-19.430908
2347.301141	-19.544422
2349.140461	-19.673527
2350.982665	-19.795864
2352.827760	-19.916567
2354.675754	-20.041998
2356.526653	-20.182225
2358.380464	-20.324791
2360.237195	-20.450975
2362.096851	-20.580988
2363.959440	-20.737569
2365.824968	-20.879748
2367.693444	-21.003988
2369.564873	-21.152905
2371.439263	-21.297937
2373.316620	-21.427154
2375.196953	-21.567323
2377.080267	-21.702484
2378.966570	-21.820730
2380.855869	-21.961704
2382.748171	-22.097342
2384.643484	-22.193003
2386.541815	-22.311660
2388.443170	-22.445266
2390.347557	-22.540212
2392.254984	-22.628661
2394.165457	-22.742059
2396.078984	-22.846359
2397.995572	-22.932769
2399.915229	-23.028901
2401.837961	-23.141409
2403.763777	-23.265158
2405.692684	-23.378998
2407.624689	-23.500812
2409.559800	-23.653657
2411.498023	-23.812731
2413.439368	-23.957839
2415.383840	-24.117172
2417.331449	-24.298647
2419.282201	-24.458730
2421.236104	-24.611186
2423.193165	-24.788598
2425.153393	-24.968241
2427.116795	-25.127992
2429.083378	-25.286093
2431.053151	-25.456059
2433.026121	-25.626467
2435.002297	-25.782212
2436.981685	-25.928762
2438.964293	-26.076297
2440.950131	-26.217668
2442.939204	-26.354114
2444.931522	-26.486873
2446.927092	-26.609194
2448.925923	-26.724603
2450.928022	-26.820869
2452.933397	-26.910601
2454.942056	-27.008640
2456.954008	-27.084568
2458.969260	-27.162361
2460.987821	-27.252789
2463.009699	-27.349083
2465.034902	-27.458796
2467.063437	-27.576090
2469.095315	-27.711862
2471.130542	-27.877561
2473.169127	-28.048150
2475.211078	-28.228912
2477.256404	-28.439640
2479.305112	-28.633071
2481.357212	-28.809482
2483.412713	-29.034170
2485.471621	-29.232282
2487.533946	-29.398295
2489.599696	-29.617814
2491.668880	-29.821820
2493.741507	-29.987485
2495.817585	-30.202731
2497.897122	-30.375603
2499.980127	-30.531474
2502.066609	-30.716024
2504.156578	-30.847141
2506.250040	-30.974894
2508.347006	-31.122057
2510.447483	-31.210188
2512.551482	-31.299015
2514.659010	-31.389795
2516.770076	-31.413342
2518.884690	-31.485489
2521.002861	-31.534957
2523.124597	-31.516961
2525.249907	-31.604902
2527.378801	-31.697263
2529.511287	-31.724967
2531.647375	-31.857651
2533.787074	-32.003381
2535.930393	-32.157706
2538.077340	-32.381617
2540.227927	-32.558449
2542.382160	-32.802808
2544.540051	-33.089745
2546.701608	-33.258244
2548.866840	-33.514923
2551.035757	-33.797442
2553.208369	-33.966152
2555.384684	-34.257203
2557.564713	-34.530185
2559.748465	-34.726807
2561.935948	-35.012103
2564.127174	-35.269715
2566.322152	-35.457153
2568.520890	-35.655012
2570.723399	-35.826353
2572.929689	-36.014687
2575.139769	-36.124416
2577.353649	-36.177509
2579.571340	-36.261466
2581.792849	-36.273557
2584.018189	-36.231943
2586.247368	-36.183357
2588.480396	-36.128994
2590.717284	-36.088754
2592.958041	-36.033971
2595.202678	-36.025578
2597.451204	-36.082777
2599.703630	-36.152152
2601.959966	-36.271383
2604.220222	-36.404948
2606.484408	-36.617700
2608.752535	-36.832968
2611.024612	-37.029974
2613.300651	-37.323154
2615.580661	-37.483204
2617.864653	-37.754883
2620.152638	-38.051403
2622.444625	-38.250545
2624.740626	-38.652992
2627.040651	-39.000475
2629.344710	-39.291214
2631.652814	-39.778263
2633.964974	-40.103482
2636.281200	-40.461818
2638.601504	-40.824195
2640.925896	-41.174992
2643.254386	-41.467257
2645.586987	-41.701069
2647.923707	-41.872564
2650.264559	-41.823281
2652.609554	-41.935532
2654.958702	-41.717406
2657.312015	-41.523719
2659.669503	-41.425520
2662.031178	-41.102927
2664.397051	-41.053292
2666.767132	-40.974928
2669.141434	-40.877613
2671.519968	-40.916328
2673.902745	-40.944167
2676.289776	-41.117123
2678.681072	-41.072938
2681.076646	-41.274598
2683.476508	-41.370453
2685.880671	-41.347433
2688.289145	-41.560225
2690.701942	-41.608925
2693.119075	-41.877141
2695.540554	-42.016109
2697.966391	-42.410825
2700.396599	-42.761730
2702.831189	-43.067079
2705.270172	-43.449807
2707.713561	-44.034412
2710.161368	-44.441913
2712.613605	-44.963760
2715.070283	-45.797985
2717.531416	-46.168359
2719.997014	-47.020725
2722.467090	-47.295253
2724.941657	-47.766489
2727.420726	-47.765598
2729.904310	-47.805875
2732.392421	-47.651482
2734.885072	-47.403749
2737.382275	-47.378742
2739.884042	-47.177978
2742.390387	-47.280756
2744.901321	-47.111773
2747.416857	-47.270316
2749.937008	-47.150881
2752.461787	-47.266058
2754.991206	-47.060174
2757.525279	-46.926272
2760.064017	-46.608322
2762.607434	-46.561084
2765.155544	-46.292265
2767.708358	-46.387324
2770.265890	-46.238760
2772.828153	-46.392906
2775.395160	-46.371716
2777.966924	-46.625665
2780.543459	-46.555285
2783.124778	-47.078167
2785.710894	-47.211099
2788.301821	-47.939682
2790.897572	-48.280846
2793.498160	-49.086694
2796.103599	-49.561171
2798.713903	-50.508390
2801.329085	-50.510923
2803.949159	-51.569044
2806.574139	-51.202295
2809.204038	-51.759460
2811.838871	-51.664874
2814.478650	-51.923710
2817.123391	-52.093555
2819.773107	-52.670417
2822.427812	-52.806003
2825.087521	-53.926063
2827.752247	-54.119556
2830.422005	-55.070382
2833.096808	-55.129046
2835.776672	-54.712124
2838.461611	-55.045326
2841.151638	-54.179983
2843.846769	-54.361615
2846.547019	-53.535043
2849.252401	-53.555358
2851.962930	-52.698070
2854.678621	-52.458432
2857.399489	-51.956394
2860.125549	-51.753548
2862.856815	-51.880375
2865.593302	-51.846636
2868.335026	-52.466092
2871.082002	-52.538030
2873.834244	-53.345275
2876.591767	-53.625565
2879.354588	-54.325345
2882.122721	-54.625293
2884.896181	-54.658392
2887.674984	-54.989899
2890.459146	-54.405330
2893.248681	-54.986809
2896.043606	-54.173669
2898.843937	-54.777579
2901.649687	-54.565751
2904.460875	-55.084807
2907.277515	-55.698173
2910.099623	-55.962923
2912.927215	-57.099556
2915.760308	-57.039716
2918.598916	-58.100374
2921.443057	-58.750967
2924.292747	-59.787956
2927.148002	-62.245025
2930.008837	-62.290859
2932.875270	-63.844990
2935.747318	-62.930924
2938.624995	-61.284294
2941.508320	-60.523977
2944.397308	-59.913227
2947.291977	-58.591383
2950.192343	-59.519683
2953.098423	-57.944457
2956.010234	-59.475316
2958.927792	-59.208979
2961.851116	-59.577805
2964.780221	-61.320878
2967.715126	-60.466028
2970.655847	-61.994463
2973.602402	-61.642584
2976.554808	-61.549907
2979.513083	-61.016863
2982.477243	-61.099701
2985.447308	-60.256448
2988.423293	-61.054174
2991.405218	-60.968674
2994.393099	-60.131440
2997.386955	-60.713808
