# 2022-03-17_12.06.21
# shape = sech2
# FWHM_ps = 0.1
# carrier_nm = 1542
# frep_MHz = 12126
# pow_mW = 4500
# GDD = 0.0
# propa_len = 0.2
# untap_len = 0.01
# taper_len = 0.13
# waist_len = 0.02
# uptap_len = 0.02
# untap_scale = 1.0
# waist_scale = 0.3
# workingDir = NL_20110305_12 (Spirou)
# axis = slow
# window_ps = 10.0
# steps = 200
# points = 13000
# 
# wavelength [nm]	 power spectral density [dB]
1000.248639	-44.073765
1000.582480	-43.989582
1000.916545	-43.905873
1001.250832	-43.819214
1001.585343	-43.729241
1001.920077	-43.635681
1002.255035	-43.538261
1002.590218	-43.436746
1002.925624	-43.331055
1003.261255	-43.221412
1003.597111	-43.108453
1003.933192	-42.993246
1004.269497	-42.877149
1004.606029	-42.761548
1004.942785	-42.647659
1005.279768	-42.536331
1005.616977	-42.428008
1005.954412	-42.322887
1006.292074	-42.221075
1006.629962	-42.122670
1006.968077	-42.027752
1007.306420	-41.936304
1007.644990	-41.848073
1007.983787	-41.762455
1008.322813	-41.678553
1008.662067	-41.595402
1009.001549	-41.512161
1009.341259	-41.428170
1009.681199	-41.342913
1010.021367	-41.255962
1010.361765	-41.166927
1010.702392	-41.075384
1011.043250	-40.980970
1011.384337	-40.883556
1011.725654	-40.783335
1012.067202	-40.680806
1012.408980	-40.576622
1012.750989	-40.471481
1013.093230	-40.366042
1013.435702	-40.260979
1013.778405	-40.157037
1014.121341	-40.054992
1014.464508	-39.955609
1014.807908	-39.859532
1015.151540	-39.767201
1015.495405	-39.678793
1015.839503	-39.594211
1016.183835	-39.513200
1016.528400	-39.435386
1016.873198	-39.360288
1017.218231	-39.287396
1017.563498	-39.216180
1017.908999	-39.146004
1018.254735	-39.076045
1018.600707	-39.005423
1018.946913	-38.933417
1019.293354	-38.859532
1019.640032	-38.783434
1019.986945	-38.704996
1020.334094	-38.624271
1020.681480	-38.541329
1021.029102	-38.456288
1021.376961	-38.369539
1021.725058	-38.281733
1022.073391	-38.193575
1022.421962	-38.105754
1022.770772	-38.018900
1023.119819	-37.933488
1023.469104	-37.849825
1023.818628	-37.768158
1024.168391	-37.688771
1024.518393	-37.611835
1024.868634	-37.537238
1025.219115	-37.464606
1025.569836	-37.393381
1025.920796	-37.322893
1026.271997	-37.252476
1026.623438	-37.181520
1026.975121	-37.109473
1027.327044	-37.035859
1027.679208	-36.960309
1028.031614	-36.882575
1028.384262	-36.802582
1028.737152	-36.720471
1029.090284	-36.636603
1029.443659	-36.551508
1029.797276	-36.465810
1030.151137	-36.380101
1030.505240	-36.294871
1030.859587	-36.210613
1031.214178	-36.127855
1031.569013	-36.047028
1031.924093	-35.968400
1032.279417	-35.892169
1032.634985	-35.818452
1032.990799	-35.747195
1033.346858	-35.678247
1033.703162	-35.611423
1034.059712	-35.546456
1034.416509	-35.483016
1034.773551	-35.420813
1035.130841	-35.359631
1035.488377	-35.299368
1035.846160	-35.240017
1036.204190	-35.181627
1036.562468	-35.124313
1036.920994	-35.068249
1037.279768	-35.013630
1037.638790	-34.960642
1037.998061	-34.909408
1038.357581	-34.859924
1038.717350	-34.811971
1039.077368	-34.765134
1039.437636	-34.718900
1039.798154	-34.672692
1040.158922	-34.625880
1040.519940	-34.577824
1040.881209	-34.527901
1041.242729	-34.475554
1041.604501	-34.420414
1041.966524	-34.362259
1042.328798	-34.301059
1042.691325	-34.237086
1043.054103	-34.170804
1043.417135	-34.102768
1043.780419	-34.033587
1044.143956	-33.963951
1044.507746	-33.894640
1044.871791	-33.826393
1045.236088	-33.759821
1045.600641	-33.695387
1045.965447	-33.633358
1046.330508	-33.573783
1046.695824	-33.516546
1047.061395	-33.461496
1047.427222	-33.408427
1047.793304	-33.357013
1048.159642	-33.306810
1048.526237	-33.257260
1048.893088	-33.207810
1049.260196	-33.158066
1049.627561	-33.107785
1049.995183	-33.056836
1050.363063	-33.005224
1050.731201	-32.953052
1051.099597	-32.900497
1051.468251	-32.847828
1051.837164	-32.795357
1052.206336	-32.743392
1052.575767	-32.692217
1052.945458	-32.641978
1053.315409	-32.592733
1053.685619	-32.544606
1054.056090	-32.497713
1054.426821	-32.452050
1054.797814	-32.407527
1055.169067	-32.363961
1055.540582	-32.321161
1055.912359	-32.279031
1056.284398	-32.237430
1056.656698	-32.196179
1057.029262	-32.155227
1057.402088	-32.114511
1057.775177	-32.073920
1058.148530	-32.033500
1058.522146	-31.993330
1058.896027	-31.953382
1059.270171	-31.913635
1059.644580	-31.874037
1060.019254	-31.834501
1060.394193	-31.794998
1060.769397	-31.755447
1061.144867	-31.715690
1061.520602	-31.675604
1061.896604	-31.635023
1062.272872	-31.593728
1062.649407	-31.551551
1063.026210	-31.508324
1063.403279	-31.463869
1063.780616	-31.418102
1064.158221	-31.371019
1064.536094	-31.322681
1064.914235	-31.273220
1065.292645	-31.222744
1065.671325	-31.171389
1066.050273	-31.119351
1066.429491	-31.066904
1066.808979	-31.014381
1067.188738	-30.962112
1067.568766	-30.910465
1067.949066	-30.859862
1068.329636	-30.810688
1068.710478	-30.763250
1069.091592	-30.717781
1069.472977	-30.674387
1069.854635	-30.633103
1070.236565	-30.593885
1070.618768	-30.556605
1071.001243	-30.521106
1071.383993	-30.487158
1071.767016	-30.454447
1072.150313	-30.422668
1072.533884	-30.391571
1072.917730	-30.360988
1073.301850	-30.330833
1073.686246	-30.301060
1074.070917	-30.271647
1074.455864	-30.242573
1074.841087	-30.213843
1075.226586	-30.185460
1075.612362	-30.157377
1075.998415	-30.129479
1076.384745	-30.101574
1076.771353	-30.073435
1077.158238	-30.044832
1077.545401	-30.015466
1077.932843	-29.984979
1078.320564	-29.953056
1078.708564	-29.919516
1079.096842	-29.884291
1079.485401	-29.847377
1079.874240	-29.808873
1080.263358	-29.769010
1080.652757	-29.728060
1081.042438	-29.686265
1081.432399	-29.643873
1081.822641	-29.601062
1082.213166	-29.557915
1082.603972	-29.514570
1082.995061	-29.471178
1083.386433	-29.427767
1083.778087	-29.384334
1084.170025	-29.340908
1084.562246	-29.297559
1084.954751	-29.254413
1085.347541	-29.211656
1085.740615	-29.169495
1086.133973	-29.128166
1086.527617	-29.087935
1086.921546	-29.048990
1087.315761	-29.011447
1087.710262	-28.975425
1088.105050	-28.940924
1088.500124	-28.907878
1088.895485	-28.876237
1089.291134	-28.845904
1089.687070	-28.816792
1090.083294	-28.788811
1090.479806	-28.761850
1090.876607	-28.735799
1091.273696	-28.710473
1091.671075	-28.685722
1092.068744	-28.661369
1092.466702	-28.637155
1092.864950	-28.612869
1093.263489	-28.588385
1093.662319	-28.563597
1094.061440	-28.538405
1094.460852	-28.512728
1094.860555	-28.486491
1095.260551	-28.459575
1095.660840	-28.431838
1096.061421	-28.403089
1096.462295	-28.373135
1096.863462	-28.341830
1097.264923	-28.309041
1097.666678	-28.274687
1098.068727	-28.238835
1098.471071	-28.201666
1098.873710	-28.163450
1099.276644	-28.124471
1099.679874	-28.084936
1100.083400	-28.044987
1100.487222	-28.004735
1100.891340	-27.964195
1101.295756	-27.923320
1101.700468	-27.882175
1102.105478	-27.840930
1102.510787	-27.799793
1102.916393	-27.758996
1103.322298	-27.718746
1103.728502	-27.679234
1104.135005	-27.640698
1104.541807	-27.603320
1104.948909	-27.567220
1105.356312	-27.532447
1105.764015	-27.498985
1106.172019	-27.466721
1106.580324	-27.435445
1106.988931	-27.404969
1107.397840	-27.375182
1107.807051	-27.346041
1108.216564	-27.317550
1108.626380	-27.289747
1109.036500	-27.262627
1109.446923	-27.236243
1109.857649	-27.210688
1110.268680	-27.185869
1110.680016	-27.161651
1111.091657	-27.137878
1111.503602	-27.114326
1111.915854	-27.090710
1112.328411	-27.066685
1112.741275	-27.041960
1113.154445	-27.016369
1113.567922	-26.989903
1113.981706	-26.962699
1114.395798	-26.935019
1114.810198	-26.907085
1115.224906	-26.879012
1115.639923	-26.850669
1116.055249	-26.821695
1116.470884	-26.791789
1116.886829	-26.760682
1117.303084	-26.728258
1117.719650	-26.694629
1118.136526	-26.659971
1118.553713	-26.624435
1118.971212	-26.588217
1119.389022	-26.551392
1119.807145	-26.514081
1120.225580	-26.476476
1120.644328	-26.438743
1121.063389	-26.401041
1121.482763	-26.363350
1121.902452	-26.325426
1122.322454	-26.286961
1122.742771	-26.247819
1123.163404	-26.208093
1123.584351	-26.168209
1124.005614	-26.128863
1124.427193	-26.090791
1124.849089	-26.054420
1125.271301	-26.019783
1125.693830	-25.986581
1126.116677	-25.954270
1126.539842	-25.922269
1126.963324	-25.890208
1127.387126	-25.858097
1127.811246	-25.826158
1128.235685	-25.794604
1128.660444	-25.763639
1129.085522	-25.733507
1129.510922	-25.704349
1129.936641	-25.676182
1130.362682	-25.648889
1130.789044	-25.622244
1131.215728	-25.595781
1131.642734	-25.568901
1132.070063	-25.541049
1132.497714	-25.512108
1132.925689	-25.482350
1133.353987	-25.452255
1133.782610	-25.422322
1134.211556	-25.392674
1134.640827	-25.362964
1135.070424	-25.332429
1135.500345	-25.300242
1135.930593	-25.265920
1136.361166	-25.229433
1136.792067	-25.191157
1137.223294	-25.151672
1137.654848	-25.111523
1138.086730	-25.070971
1138.518940	-25.030053
1138.951479	-24.988746
1139.384346	-24.947105
1139.817543	-24.905289
1140.251069	-24.863551
1140.684925	-24.822209
1141.119111	-24.781523
1141.553628	-24.741622
1141.988475	-24.702499
1142.423655	-24.664189
1142.859166	-24.626860
1143.295009	-24.590715
1143.731185	-24.556028
1144.167694	-24.522997
1144.604536	-24.491673
1145.041711	-24.461902
1145.479221	-24.433396
1145.917065	-24.405976
1146.355245	-24.379534
1146.793759	-24.354151
1147.232609	-24.330222
1147.671795	-24.308114
1148.111317	-24.287859
1148.551177	-24.269083
1148.991373	-24.251141
1149.431907	-24.233281
1149.872779	-24.214833
1150.313989	-24.195575
1150.755538	-24.175774
1151.197426	-24.155642
1151.639653	-24.135146
1152.082220	-24.113874
1152.525128	-24.090966
1152.968376	-24.065307
1153.411966	-24.036134
1153.855897	-24.003471
1154.300169	-23.967987
1154.744784	-23.930501
1155.189742	-23.891733
1155.635042	-23.851683
1156.080687	-23.809611
1156.526674	-23.764687
1156.973007	-23.716610
1157.419683	-23.665911
1157.866705	-23.613917
1158.314072	-23.562294
1158.761786	-23.512129
1159.209845	-23.463476
1159.658251	-23.415517
1160.107004	-23.367258
1160.556104	-23.318168
1161.005553	-23.268725
1161.455349	-23.220401
1161.905494	-23.174795
1162.355989	-23.132825
1162.806832	-23.094307
1163.258026	-23.058110
1163.709570	-23.022746
1164.161464	-22.987409
1164.613710	-22.952416
1165.066307	-22.918950
1165.519256	-22.888365
1165.972558	-22.861324
1166.426212	-22.837400
1166.880219	-22.815248
1167.334580	-22.793371
1167.789295	-22.770866
1168.244364	-22.747831
1168.699788	-22.725088
1169.155567	-22.703554
1169.611702	-22.683610
1170.068193	-22.664762
1170.525041	-22.645862
1170.982245	-22.625668
1171.439807	-22.603452
1171.897726	-22.579147
1172.356004	-22.553319
1172.814640	-22.526598
1173.273635	-22.499217
1173.732989	-22.470924
1174.192703	-22.441226
1174.652778	-22.409629
1175.113213	-22.375957
1175.574009	-22.340493
1176.035167	-22.303724
1176.496687	-22.266187
1176.958569	-22.228274
1177.420814	-22.190244
1177.883422	-22.152186
1178.346394	-22.114130
1178.809730	-22.076070
1179.273430	-22.038105
1179.737496	-22.000396
1180.201927	-21.963183
1180.666723	-21.926821
1181.131886	-21.891539
1181.597416	-21.857407
1182.063312	-21.824331
1182.529576	-21.791955
1182.996209	-21.759843
1183.463209	-21.727744
1183.930579	-21.695625
1184.398317	-21.663651
1184.866426	-21.632038
1185.334904	-21.600743
1185.803754	-21.569365
1186.272974	-21.537361
1186.742566	-21.504140
1187.212529	-21.469486
1187.682865	-21.433687
1188.153574	-21.397214
1188.624656	-21.360516
1189.096112	-21.323731
1189.567942	-21.286503
1190.040147	-21.248364
1190.512726	-21.209057
1190.985681	-21.168715
1191.459012	-21.127905
1191.932720	-21.087347
1192.406804	-21.047521
1192.881265	-21.008444
1193.356104	-20.969676
1193.831322	-20.930726
1194.306918	-20.891477
1194.782893	-20.852103
1195.259248	-20.813125
1195.735982	-20.775026
1196.213097	-20.737855
1196.690593	-20.701390
1197.168471	-20.665154
1197.646730	-20.628642
1198.125371	-20.591820
1198.604395	-20.554900
1199.083803	-20.518119
1199.563594	-20.481738
1200.043769	-20.445648
1200.524329	-20.409529
1201.005273	-20.373255
1201.486604	-20.336704
1201.968320	-20.299957
1202.450422	-20.263275
1202.932912	-20.226710
1203.415789	-20.190317
1203.899054	-20.154081
1204.382707	-20.117849
1204.866748	-20.081712
1205.351179	-20.045856
1205.836000	-20.010299
1206.321211	-19.975113
1206.806812	-19.940237
1207.292805	-19.905542
1207.779189	-19.871125
1208.265965	-19.837121
1208.753134	-19.803702
1209.240696	-19.771013
1209.728651	-19.738862
1210.217000	-19.706949
1210.705744	-19.675141
1211.194883	-19.643330
1211.684417	-19.611614
1212.174347	-19.580236
1212.664673	-19.549306
1213.155396	-19.518710
1213.646516	-19.488250
1214.138034	-19.457707
1214.629951	-19.427109
1215.122266	-19.396663
1215.614980	-19.366599
1216.108095	-19.337099
1216.601609	-19.308016
1217.095524	-19.278986
1217.589841	-19.249754
1218.084559	-19.220066
1218.579679	-19.189991
1219.075202	-19.159791
1219.571128	-19.129557
1220.067458	-19.099334
1220.564191	-19.068965
1221.061330	-19.038168
1221.558874	-19.006886
1222.056823	-18.975124
1222.555178	-18.943005
1223.053940	-18.910706
1223.553109	-18.878257
1224.052686	-18.845587
1224.552671	-18.812533
1225.053065	-18.778938
1225.553867	-18.744778
1226.055079	-18.710119
1226.556702	-18.675112
1227.058735	-18.639940
1227.561179	-18.604676
1228.064035	-18.569197
1228.567303	-18.533351
1229.070983	-18.497059
1229.575077	-18.460353
1230.079585	-18.423383
1230.584506	-18.386288
1231.089842	-18.349217
1231.595594	-18.312103
1232.101761	-18.274711
1232.608345	-18.236934
1233.115345	-18.198751
1233.622762	-18.160378
1234.130597	-18.122005
1234.638851	-18.083705
1235.147523	-18.045355
1235.656615	-18.006728
1236.166126	-17.967857
1236.676058	-17.928775
1237.186411	-17.889626
1237.697185	-17.850589
1238.208381	-17.811610
1238.719999	-17.772591
1239.232040	-17.733416
1239.744505	-17.694119
1240.257394	-17.654883
1240.770708	-17.615792
1241.284446	-17.576836
1241.798610	-17.537876
1242.313201	-17.498834
1242.828218	-17.459785
1243.343662	-17.420922
1243.859534	-17.382399
1244.375834	-17.344161
1244.892563	-17.305978
1245.409721	-17.267635
1245.927309	-17.229250
1246.445327	-17.191068
1246.963777	-17.153310
1247.482657	-17.115951
1248.001970	-17.078745
1248.521716	-17.041415
1249.041894	-17.003861
1249.562506	-16.966377
1250.083553	-16.929274
1250.605034	-16.892690
1251.126950	-16.856366
1251.649302	-16.819932
1252.172091	-16.783287
1252.695316	-16.746617
1253.218979	-16.710327
1253.743079	-16.674630
1254.267619	-16.639407
1254.792597	-16.604232
1255.318015	-16.568898
1255.843874	-16.533563
1256.370173	-16.498588
1256.896913	-16.464312
1257.424095	-16.430667
1257.951720	-16.397292
1258.479787	-16.363877
1259.008298	-16.330528
1259.537254	-16.297519
1260.066654	-16.265151
1260.596499	-16.233480
1261.126790	-16.202243
1261.657527	-16.171127
1262.188711	-16.140156
1262.720342	-16.109564
1263.252422	-16.079554
1263.784950	-16.050159
1264.317928	-16.021160
1264.851355	-15.992404
1265.385232	-15.963882
1265.919560	-15.935785
1266.454340	-15.908221
1266.989572	-15.881163
1267.525256	-15.854459
1268.061394	-15.827963
1268.597985	-15.801752
1269.135031	-15.775953
1269.672531	-15.750614
1270.210487	-15.725672
1270.748899	-15.701005
1271.287768	-15.676506
1271.827094	-15.652312
1272.366877	-15.628461
1272.907119	-15.604931
1273.447820	-15.581591
1273.988981	-15.558370
1274.530601	-15.535349
1275.072683	-15.512581
1275.615226	-15.490095
1276.158230	-15.467722
1276.701697	-15.445343
1277.245627	-15.422902
1277.790021	-15.400522
1278.334879	-15.378411
1278.880202	-15.356525
1279.425991	-15.334682
1279.972245	-15.312669
1280.518966	-15.290567
1281.066155	-15.268538
1281.613811	-15.246687
1282.161936	-15.225048
1282.710529	-15.203473
1283.259593	-15.181873
1283.809126	-15.160248
1284.359131	-15.138818
1284.909607	-15.117632
1285.460555	-15.096685
1286.011976	-15.075871
1286.563870	-15.055221
1287.116237	-15.034881
1287.669080	-15.014881
1288.222397	-14.995199
1288.776191	-14.975822
1289.330460	-14.956798
1289.885207	-14.938171
1290.440431	-14.920088
1290.996133	-14.902500
1291.552314	-14.885329
1292.108975	-14.868527
1292.666115	-14.852243
1293.223737	-14.836622
1293.781839	-14.821678
1294.340424	-14.807304
1294.899491	-14.793395
1295.459041	-14.779998
1296.019075	-14.767262
1296.579593	-14.755342
1297.140597	-14.744143
1297.702086	-14.733575
1298.264061	-14.723561
1298.826524	-14.714186
1299.389474	-14.705510
1299.952912	-14.697634
1300.516839	-14.690463
1301.081255	-14.683927
1301.646162	-14.677990
1302.211559	-14.672729
1302.777448	-14.668083
1303.343829	-14.664035
1303.910702	-14.660541
1304.478069	-14.657569
1305.045930	-14.655075
1305.614285	-14.653047
1306.183136	-14.651406
1306.752483	-14.650083
1307.322326	-14.648993
1307.892666	-14.648129
1308.463504	-14.647427
1309.034841	-14.646811
1309.606677	-14.646217
1310.179012	-14.645588
1310.751849	-14.644834
1311.325186	-14.643917
1311.899025	-14.642735
1312.473366	-14.641248
1313.048211	-14.639373
1313.623559	-14.637068
1314.199412	-14.634295
1314.775770	-14.630981
1315.352634	-14.627040
1315.930004	-14.622442
1316.507881	-14.617063
1317.086266	-14.610920
1317.665159	-14.603999
1318.244562	-14.596245
1318.824474	-14.587582
1319.404897	-14.577933
1319.985831	-14.567249
1320.567276	-14.555588
1321.149234	-14.543006
1321.731706	-14.529410
1322.314691	-14.514658
1322.898190	-14.498829
1323.482205	-14.482011
1324.066736	-14.464263
1324.651783	-14.445564
1325.237347	-14.425806
1325.823430	-14.405045
1326.410031	-14.383473
1326.997151	-14.361159
1327.584791	-14.338122
1328.172952	-14.314243
1328.761634	-14.289615
1329.350839	-14.264447
1329.940566	-14.238845
1330.530817	-14.212750
1331.121592	-14.186154
1331.712891	-14.159126
1332.304716	-14.131847
1332.897068	-14.104409
1333.489946	-14.076785
1334.083352	-14.048904
1334.677287	-14.020952
1335.271750	-13.993044
1335.866744	-13.965232
1336.462268	-13.937477
1337.058323	-13.909801
1337.654910	-13.882315
1338.252029	-13.855088
1338.849682	-13.828135
1339.447869	-13.801403
1340.046591	-13.774952
1340.645848	-13.748862
1341.245641	-13.723174
1341.845972	-13.697820
1342.446840	-13.672735
1343.048246	-13.648032
1343.650191	-13.623746
1344.252677	-13.599827
1344.855702	-13.576233
1345.459269	-13.552965
1346.063379	-13.530096
1346.668030	-13.507633
1347.273226	-13.485499
1347.878965	-13.463648
1348.485250	-13.442215
1349.092080	-13.421262
1349.699456	-13.400712
1350.307380	-13.380507
1350.915851	-13.360689
1351.524871	-13.341394
1352.134441	-13.322666
1352.744560	-13.304409
1353.355231	-13.286605
1353.966453	-13.269360
1354.578227	-13.252816
1355.190555	-13.236883
1355.803436	-13.221517
1356.416872	-13.206772
1357.030863	-13.192767
1357.645411	-13.179535
1358.260515	-13.166959
1358.876177	-13.155020
1359.492397	-13.143851
1360.109176	-13.133501
1360.726516	-13.123862
1361.344416	-13.114853
1361.962877	-13.106522
1362.581901	-13.098970
1363.201487	-13.092098
1363.821637	-13.085713
1364.442352	-13.079805
1365.063632	-13.074471
1365.685478	-13.069682
1366.307891	-13.065239
1366.930871	-13.060976
1367.554420	-13.056922
1368.178538	-13.053149
1368.803226	-13.049523
1369.428485	-13.045862
1370.054315	-13.042139
1370.680717	-13.038408
1371.307693	-13.034653
1371.935242	-13.030747
1372.563366	-13.026615
1373.192065	-13.022356
1373.821341	-13.017995
1374.451193	-13.013467
1375.081623	-13.008762
1375.712632	-13.003924
1376.344221	-12.999091
1376.976389	-12.994206
1377.609139	-12.989199
1378.242470	-12.984164
1378.876384	-12.979227
1379.510881	-12.974411
1380.145963	-12.969570
1380.781629	-12.964707
1381.417881	-12.959985
1382.054720	-12.955429
1382.692147	-12.950901
1383.330161	-12.946277
1383.968765	-12.941595
1384.607959	-12.936909
1385.247743	-12.932086
1385.888119	-12.927000
1386.529087	-12.921670
1387.170648	-12.916140
1387.812804	-12.910251
1388.455554	-12.903856
1389.098899	-12.897063
1389.742842	-12.890028
1390.387381	-12.882635
1391.032519	-12.874644
1391.678256	-12.866167
1392.324592	-12.857456
1392.971529	-12.848555
1393.619068	-12.839304
1394.267208	-12.829737
1394.915952	-12.820059
1395.565300	-12.810263
1396.215253	-12.800263
1396.865812	-12.790241
1397.516977	-12.780497
1398.168749	-12.770951
1398.821130	-12.761322
1399.474120	-12.751655
1400.127719	-12.742264
1400.781930	-12.733188
1401.436752	-12.724221
1402.092186	-12.715343
1402.748234	-12.706634
1403.404897	-12.697927
1404.062174	-12.689087
1404.720067	-12.680316
1405.378577	-12.671843
1406.037705	-12.663451
1406.697451	-12.654764
1407.357817	-12.645802
1408.018803	-12.636752
1408.680410	-12.627695
1409.342639	-12.618736
1410.005492	-12.610170
1410.668968	-12.602047
1411.333068	-12.594055
1411.997795	-12.586068
1412.663147	-12.578441
1413.329127	-12.571520
1413.995736	-12.565353
1414.662973	-12.559909
1415.330840	-12.555141
1415.999339	-12.550756
1416.668469	-12.546488
1417.338232	-12.542565
1418.008628	-12.539430
1418.679659	-12.537213
1419.351325	-12.535664
1420.023628	-12.534434
1420.696568	-12.533095
1421.370145	-12.531303
1422.044362	-12.529186
1422.719219	-12.527344
1423.394717	-12.526278
1424.070856	-12.525997
1424.747638	-12.526221
1425.425064	-12.526549
1426.103134	-12.526616
1426.781850	-12.526474
1427.461212	-12.526738
1428.141221	-12.528132
1428.821878	-12.530884
1429.503185	-12.534758
1430.185141	-12.539118
1430.867749	-12.543194
1431.551008	-12.546609
1432.234920	-12.549895
1432.919486	-12.554071
1433.604707	-12.559962
1434.290583	-12.567856
1434.977116	-12.577330
1435.664307	-12.587108
1436.352156	-12.595727
1437.040664	-12.602555
1437.729833	-12.608038
1438.419663	-12.613258
1439.110156	-12.619607
1439.801312	-12.628239
1440.493132	-12.639184
1441.185617	-12.651249
1441.878768	-12.663034
1442.572586	-12.673676
1443.267072	-12.683003
1443.962228	-12.691853
1444.658053	-12.701954
1445.354549	-12.714760
1446.051717	-12.730401
1446.749558	-12.747873
1447.448073	-12.765475
1448.147263	-12.781263
1448.847128	-12.794032
1449.547671	-12.804437
1450.248891	-12.814666
1450.950789	-12.827274
1451.653368	-12.844280
1452.356627	-12.866504
1453.060568	-12.892648
1453.765192	-12.919539
1454.470500	-12.943590
1455.176492	-12.962329
1455.883170	-12.975130
1456.590534	-12.983594
1457.298586	-12.991422
1458.007327	-13.003014
1458.716758	-13.021448
1459.426880	-13.047474
1460.137693	-13.079564
1460.849199	-13.113988
1461.561398	-13.145766
1462.274293	-13.170832
1462.987883	-13.187738
1463.702170	-13.197640
1464.417155	-13.204052
1465.132838	-13.212248
1465.849222	-13.227234
1466.566306	-13.251566
1467.284093	-13.285198
1468.002582	-13.325742
1468.721775	-13.368370
1469.441674	-13.407430
1470.162278	-13.439140
1470.883590	-13.462283
1471.605609	-13.478086
1472.328338	-13.490799
1473.051777	-13.506445
1473.775928	-13.529932
1474.500790	-13.563975
1475.226367	-13.608995
1475.952657	-13.661813
1476.679663	-13.715999
1477.407386	-13.764515
1478.135826	-13.801298
1478.864985	-13.822235
1479.594863	-13.827527
1480.325463	-13.822151
1481.056784	-13.813743
1481.788828	-13.811234
1482.521597	-13.823505
1483.255090	-13.856605
1483.989309	-13.912329
1484.724256	-13.988429
1485.459931	-14.078045
1486.196336	-14.169960
1486.933471	-14.251198
1487.671337	-14.309361
1488.409937	-14.334799
1489.149270	-14.323928
1489.889337	-14.280484
1490.630141	-14.213948
1491.371682	-14.137975
1492.113961	-14.067974
1492.856979	-14.017668
1493.600738	-13.997532
1494.345238	-14.014272
1495.090481	-14.069427
1495.836467	-14.158929
1496.583198	-14.273787
1497.330675	-14.399907
1498.078899	-14.518732
1498.827872	-14.610249
1499.577593	-14.656326
1500.328065	-14.644075
1501.079289	-14.569720
1501.831265	-14.439892
1502.583995	-14.269261
1503.337480	-14.077422
1504.091721	-13.885586
1504.846719	-13.713097
1505.602475	-13.575709
1506.358991	-13.485441
1507.116268	-13.450160
1507.874306	-13.473351
1508.633108	-13.554531
1509.392673	-13.688986
1510.153004	-13.866828
1510.914101	-14.072517
1511.675965	-14.284700
1512.438599	-14.476149
1513.202002	-14.615988
1513.966176	-14.674964
1514.731122	-14.631740
1515.496842	-14.478875
1516.263336	-14.225622
1517.030607	-13.894587
1517.798654	-13.515135
1518.567479	-13.117326
1519.337083	-12.727462
1520.107468	-12.366319
1520.878634	-12.049552
1521.650584	-11.788584
1522.423317	-11.591699
1523.196836	-11.465192
1523.971141	-11.414101
1524.746233	-11.442718
1525.522115	-11.555099
1526.298786	-11.755261
1527.076249	-12.047363
1527.854504	-12.435980
1528.633553	-12.925824
1529.413397	-13.521177
1530.194037	-14.224604
1530.975474	-15.033277
1531.757709	-15.931758
1532.540745	-16.878953
1533.324581	-17.787313
1534.109220	-18.506822
1534.894662	-18.854048
1535.680909	-18.716884
1536.467961	-18.148721
1537.255821	-17.321159
1538.044489	-16.403847
1538.833967	-15.506909
1539.624256	-14.686370
1540.415357	-13.964978
1541.207271	-13.348393
1542.000000	-12.834319
1542.793545	-12.416821
1543.587907	-12.088419
1544.383087	-11.841158
1545.179088	-11.667091
1545.975909	-11.558509
1546.773552	-11.508160
1547.572019	-11.509373
1548.371311	-11.555965
1549.171428	-11.642149
1549.972373	-11.762525
1550.774147	-11.911934
1551.576751	-12.085452
1552.380185	-12.278676
1553.184453	-12.487786
1553.989554	-12.709628
1554.795490	-12.941837
1555.602263	-13.182461
1556.409873	-13.429612
1557.218322	-13.681174
1558.027612	-13.934243
1558.837743	-14.185034
1559.648717	-14.428932
1560.460536	-14.660350
1561.273200	-14.873239
1562.086710	-15.061397
1562.901069	-15.218652
1563.716278	-15.339782
1564.532337	-15.420890
1565.349249	-15.459828
1566.167014	-15.456978
1566.985634	-15.415018
1567.805111	-15.338699
1568.625444	-15.234613
1569.446637	-15.110031
1570.268690	-14.972286
1571.091605	-14.828158
1571.915382	-14.683044
1572.740024	-14.540924
1573.565532	-14.404271
1574.391907	-14.274170
1575.219150	-14.150682
1576.047262	-14.033040
1576.876246	-13.919899
1577.706103	-13.809381
1578.536833	-13.699174
1579.368439	-13.586879
1580.200922	-13.470131
1581.034282	-13.347217
1581.868522	-13.217586
1582.703643	-13.081753
1583.539646	-12.941547
1584.376532	-12.799675
1585.214304	-12.659049
1586.052962	-12.522844
1586.892508	-12.394014
1587.732943	-12.275259
1588.574269	-12.169305
1589.416487	-12.078394
1590.259599	-12.004260
1591.103605	-11.947785
1591.948508	-11.908448
1592.794309	-11.884610
1593.641009	-11.873474
1594.488609	-11.871530
1595.337112	-11.875260
1596.186518	-11.881189
1597.036829	-11.886278
1597.888047	-11.887994
1598.740172	-11.884150
1599.593207	-11.873505
1600.447153	-11.855957
1601.302010	-11.832825
1602.157782	-11.807104
1603.014469	-11.782668
1603.872072	-11.763644
1604.730593	-11.753626
1605.590034	-11.754877
1606.450397	-11.768440
1607.311681	-11.794148
1608.173890	-11.830840
1609.037024	-11.876702
1609.901085	-11.929076
1610.766075	-11.984626
1611.631995	-12.039674
1612.498846	-12.090710
1613.366630	-12.135421
1614.235349	-12.173228
1615.105004	-12.205381
1615.975596	-12.234527
1616.847128	-12.263684
1617.719600	-12.295505
1618.593014	-12.331810
1619.467372	-12.373420
1620.342675	-12.420283
1621.218924	-12.471380
1622.096122	-12.524701
1622.974270	-12.577379
1623.853369	-12.626189
1624.733420	-12.668532
1625.614427	-12.703327
1626.496389	-12.731464
1627.379308	-12.755431
1628.263187	-12.778352
1629.148026	-12.803014
1630.033828	-12.831222
1630.920593	-12.863736
1631.808324	-12.900423
1632.697022	-12.940426
1633.586688	-12.982315
1634.477324	-13.024322
1635.368932	-13.065010
1636.261514	-13.104086
1637.155070	-13.142935
1638.049602	-13.184382
1638.945113	-13.231642
1639.841603	-13.287007
1640.739075	-13.351039
1641.637529	-13.422626
1642.536968	-13.499653
1643.437393	-13.579799
1644.338806	-13.660876
1645.241209	-13.740898
1646.144602	-13.818201
1647.048988	-13.891887
1647.954368	-13.962290
1648.860744	-14.030805
1649.768118	-14.098946
1650.676491	-14.167062
1651.585865	-14.233881
1652.496241	-14.297271
1653.407621	-14.355829
1654.320008	-14.410112
1655.233401	-14.462461
1656.147804	-14.515853
1657.063218	-14.572594
1657.979645	-14.633895
1658.897085	-14.700180
1659.815542	-14.771368
1660.735016	-14.846804
1661.655509	-14.924999
1662.577023	-15.004047
1663.499560	-15.082648
1664.423121	-15.160908
1665.347709	-15.240047
1666.273324	-15.320835
1667.199969	-15.402386
1668.127645	-15.482301
1669.056353	-15.558256
1669.986097	-15.629613
1670.916877	-15.697346
1671.848695	-15.762878
1672.781553	-15.826841
1673.715452	-15.889121
1674.650395	-15.949759
1675.586383	-16.009100
1676.523418	-16.067333
1677.461501	-16.123811
1678.400635	-16.177710
1679.340821	-16.229336
1680.282061	-16.280315
1681.224357	-16.332349
1682.167710	-16.385210
1683.112122	-16.436846
1684.057595	-16.485224
1685.004132	-16.530226
1685.951732	-16.573369
1686.900400	-16.615561
1687.850135	-16.655967
1688.800940	-16.692933
1689.752818	-16.726078
1690.705768	-16.756635
1691.659795	-16.785831
1692.614898	-16.813726
1693.571081	-16.839896
1694.528345	-16.865162
1695.486691	-16.891321
1696.446122	-16.919130
1697.406640	-16.947039
1698.368245	-16.972662
1699.330941	-16.995388
1700.294729	-17.016417
1701.259611	-17.036362
1702.225588	-17.053489
1703.192664	-17.065496
1704.160838	-17.072511
1705.130114	-17.077169
1706.100493	-17.081648
1707.071977	-17.085424
1708.044568	-17.086883
1709.018268	-17.085936
1709.993079	-17.083913
1710.969003	-17.080919
1711.946041	-17.074910
1712.924196	-17.064183
1713.903469	-17.049515
1714.883862	-17.032876
1715.865378	-17.014615
1716.848017	-16.993783
1717.831783	-16.970941
1718.816677	-16.948844
1719.802701	-16.929330
1720.789857	-16.910931
1721.778147	-16.890987
1722.767573	-16.869096
1723.758136	-16.846722
1724.749840	-16.823730
1725.742685	-16.797779
1726.736673	-16.767831
1727.731808	-16.736264
1728.728090	-16.705962
1729.725521	-16.676777
1730.724105	-16.646661
1731.723842	-16.615234
1732.724735	-16.583789
1733.726785	-16.552128
1734.729995	-16.518054
1735.734366	-16.480863
1736.739902	-16.442935
1737.746603	-16.406428
1738.754472	-16.370110
1739.763510	-16.331505
1740.773721	-16.291199
1741.785105	-16.252890
1742.797665	-16.219144
1743.811403	-16.188427
1744.826321	-16.156567
1745.842422	-16.120441
1746.859706	-16.080539
1747.878177	-16.040310
1748.897835	-16.002725
1749.918685	-15.967164
1750.940726	-15.930668
1751.963963	-15.892234
1752.988395	-15.853957
1754.014027	-15.817085
1755.040860	-15.779503
1756.068895	-15.739095
1757.098135	-15.697397
1758.128583	-15.657345
1759.160240	-15.619142
1760.193109	-15.581263
1761.227191	-15.543960
1762.262488	-15.508471
1763.299004	-15.473711
1764.336740	-15.437211
1765.375697	-15.398998
1766.415880	-15.361407
1767.457288	-15.325253
1768.499926	-15.289239
1769.543794	-15.253060
1770.588895	-15.217864
1771.635231	-15.183362
1772.682805	-15.147853
1773.731619	-15.111782
1774.781674	-15.077668
1775.832973	-15.045518
1776.885519	-15.012441
1777.939312	-14.978153
1778.994357	-14.945909
1780.050654	-14.916185
1781.108207	-14.885402
1782.167017	-14.852811
1783.227087	-14.821409
1784.288418	-14.790680
1785.351013	-14.757386
1786.414875	-14.723824
1787.480006	-14.694570
1788.546407	-14.666645
1789.614082	-14.635005
1790.683032	-14.603072
1791.753259	-14.575007
1792.824767	-14.546310
1793.897557	-14.514342
1794.971632	-14.485000
1796.046994	-14.459237
1797.123645	-14.430259
1798.201588	-14.398870
1799.280824	-14.371516
1800.361357	-14.345257
1801.443188	-14.315095
1802.526320	-14.286205
1803.610756	-14.261858
1804.696497	-14.236246
1805.783546	-14.208945
1806.871906	-14.185195
1807.961578	-14.162040
1809.052565	-14.135152
1810.144870	-14.109406
1811.238494	-14.087542
1812.333441	-14.065057
1813.429713	-14.041521
1814.527311	-14.019395
1815.626239	-13.996710
1816.726499	-13.972974
1817.828094	-13.951029
1818.931025	-13.930572
1820.035295	-13.910237
1821.140906	-13.889979
1822.247862	-13.868444
1823.356165	-13.846360
1824.465816	-13.826181
1825.576819	-13.806046
1826.689175	-13.785112
1827.802888	-13.766389
1828.917960	-13.747833
1830.034394	-13.726666
1831.152191	-13.706934
1832.271354	-13.689052
1833.391887	-13.669032
1834.513790	-13.649551
1835.637068	-13.632635
1836.761722	-13.614155
1837.887755	-13.594711
1839.015169	-13.577491
1840.143968	-13.560690
1841.274153	-13.543581
1842.405727	-13.527366
1843.538693	-13.511174
1844.673053	-13.495180
1845.808810	-13.480351
1846.945966	-13.466842
1848.084525	-13.454412
1849.224488	-13.440339
1850.365858	-13.424331
1851.508638	-13.410615
1852.652831	-13.398493
1853.798438	-13.385872
1854.945463	-13.375179
1856.093909	-13.363961
1857.243777	-13.349742
1858.395071	-13.337951
1859.547794	-13.328355
1860.701947	-13.316740
1861.857533	-13.306320
1863.014556	-13.296913
1864.173018	-13.284918
1865.332922	-13.273798
1866.494270	-13.264727
1867.657065	-13.254812
1868.821309	-13.245181
1869.987006	-13.236024
1871.154158	-13.225976
1872.322768	-13.215889
1873.492839	-13.207076
1874.664373	-13.199881
1875.837373	-13.191715
1877.011841	-13.182474
1878.187782	-13.175332
1879.365197	-13.168229
1880.544089	-13.161382
1881.724460	-13.156800
1882.906315	-13.150134
1884.089655	-13.143574
1885.274483	-13.140920
1886.460803	-13.137250
1887.648616	-13.132686
1888.837927	-13.129561
1890.028736	-13.125805
1891.221049	-13.122830
1892.414866	-13.122157
1893.610192	-13.120540
1894.807028	-13.117696
1896.005379	-13.117428
1897.205246	-13.117525
1898.406633	-13.116589
1899.609542	-13.116980
1900.813977	-13.115901
1902.019940	-13.115210
1903.227434	-13.117325
1904.436462	-13.118954
1905.647028	-13.119450
1906.859133	-13.119740
1908.072781	-13.121112
1909.287976	-13.122315
1910.504719	-13.124890
1911.723013	-13.127061
1912.942863	-13.127271
1914.164270	-13.132187
1915.387238	-13.136070
1916.611770	-13.138989
1917.837868	-13.143878
1919.065536	-13.146953
1920.294777	-13.153172
1921.525594	-13.159567
1922.757989	-13.165502
1923.991967	-13.173381
1925.227529	-13.182991
1926.464679	-13.191803
1927.703420	-13.199460
1928.943755	-13.209245
1930.185688	-13.218183
1931.429221	-13.230561
1932.674356	-13.242440
1933.921099	-13.253585
1935.169451	-13.266857
1936.419415	-13.278721
1937.670996	-13.291892
1938.924195	-13.306501
1940.179017	-13.320238
1941.435463	-13.333458
1942.693538	-13.349229
1943.953245	-13.362242
1945.214586	-13.377189
1946.477566	-13.390949
1947.742186	-13.408612
1949.008451	-13.426194
1950.276363	-13.437372
1951.545926	-13.457971
1952.817143	-13.473859
1954.090017	-13.489830
1955.364551	-13.509670
1956.640749	-13.528290
1957.918615	-13.547486
1959.198150	-13.567780
1960.479359	-13.589037
1961.762244	-13.610484
1963.046810	-13.636430
1964.333059	-13.657649
1965.620995	-13.683566
1966.910621	-13.709418
1968.201940	-13.735020
1969.494956	-13.762610
1970.789672	-13.789194
1972.086091	-13.820918
1973.384217	-13.848533
1974.684053	-13.879522
1975.985602	-13.909676
1977.288869	-13.942075
1978.593855	-13.971109
1979.900566	-14.004751
1981.209003	-14.035565
1982.519171	-14.069341
1983.831073	-14.100510
1985.144712	-14.134748
1986.460093	-14.168855
1987.777217	-14.200216
1989.096089	-14.236999
1990.416713	-14.269322
1991.739092	-14.307257
1993.063228	-14.340687
1994.389127	-14.380092
1995.716791	-14.415059
1997.046223	-14.455024
1998.377428	-14.493133
1999.710409	-14.535660
2001.045169	-14.573768
2002.381713	-14.620790
2003.720043	-14.662854
2005.060163	-14.711156
2006.402077	-14.754283
2007.745788	-14.804470
2009.091301	-14.851987
2010.438618	-14.902160
2011.787743	-14.954242
2013.138680	-15.003881
2014.491433	-15.057245
2015.846005	-15.109039
2017.202399	-15.165101
2018.560621	-15.217968
2019.920673	-15.271584
2021.282558	-15.327133
2022.646281	-15.381503
2024.011846	-15.436618
2025.379256	-15.490052
2026.748515	-15.546926
2028.119626	-15.604391
2029.492594	-15.658267
2030.867422	-15.716310
2032.244114	-15.773109
2033.622673	-15.833383
2035.003104	-15.890895
2036.385411	-15.952534
2037.769597	-16.015602
2039.155665	-16.075420
2040.543621	-16.141913
2041.933467	-16.205821
2043.325208	-16.277719
2044.718847	-16.345127
2046.114389	-16.418204
2047.511837	-16.489082
2048.911195	-16.563118
2050.312467	-16.638224
2051.715657	-16.715304
2053.120769	-16.792949
2054.527807	-16.871763
2055.936775	-16.946339
2057.347677	-17.030354
2058.760516	-17.105326
2060.175297	-17.190206
2061.592025	-17.267254
2063.010701	-17.347756
2064.431332	-17.428095
2065.853921	-17.507741
2067.278472	-17.591734
2068.704988	-17.667917
2070.133475	-17.754368
2071.563936	-17.831141
2072.996375	-17.917304
2074.430796	-17.999368
2075.867204	-18.084859
2077.305603	-18.172098
2078.745996	-18.257171
2080.188389	-18.351709
2081.632784	-18.442857
2083.079187	-18.537276
2084.527601	-18.635275
2085.978030	-18.733055
2087.430480	-18.837560
2088.884954	-18.942776
2090.341455	-19.045686
2091.799990	-19.157068
2093.260561	-19.260721
2094.723173	-19.371338
2096.187831	-19.484292
2097.654538	-19.591737
2099.123300	-19.707222
2100.594119	-19.813352
2102.067001	-19.928038
2103.541950	-20.037368
2105.018971	-20.149853
2106.498067	-20.266165
2107.979243	-20.373180
2109.462503	-20.487189
2110.947853	-20.597127
2112.435295	-20.714792
2113.924836	-20.827489
2115.416478	-20.942725
2116.910227	-21.058832
2118.406087	-21.174587
2119.904063	-21.298806
2121.404158	-21.422932
2122.906378	-21.549044
2124.410727	-21.680508
2125.917210	-21.814951
2127.425831	-21.946977
2128.936594	-22.089485
2130.449505	-22.230427
2131.964567	-22.378449
2133.481786	-22.520549
2135.001166	-22.664308
2136.522711	-22.815592
2138.046427	-22.956880
2139.572317	-23.110083
2141.100388	-23.252005
2142.630642	-23.393110
2144.163085	-23.537056
2145.697722	-23.672826
2147.234558	-23.815701
2148.773596	-23.957248
2150.314842	-24.088540
2151.858301	-24.225254
2153.403977	-24.361251
2154.951875	-24.491716
2156.502000	-24.629773
2158.054357	-24.756895
2159.608950	-24.896447
2161.165785	-25.039647
2162.724866	-25.173714
2164.286198	-25.314846
2165.849786	-25.469051
2167.415635	-25.621093
2168.983749	-25.777823
2170.554134	-25.929274
2172.126795	-26.086500
2173.701737	-26.259315
2175.278964	-26.422969
2176.858481	-26.583554
2178.440294	-26.749793
2180.024408	-26.905518
2181.610827	-27.064290
2183.199557	-27.229740
2184.790602	-27.378908
2186.383968	-27.521913
2187.979660	-27.676988
2189.577683	-27.822786
2191.178041	-27.964845
2192.780741	-28.112872
2194.385787	-28.256843
2195.993185	-28.393646
2197.602939	-28.536556
2199.215054	-28.672308
