# 2022-03-21_22.50.02
# shape = sech2
# FWHM_ps = 0.1
# carrier_nm = 1542
# frep_MHz = 12126
# pow_mW = 8000
# GDD = 0.0
# propa_len = 0.11866666666666668
# untap_len = 0.01
# taper_len = 0.05866666666666667
# waist_len = 0.02
# uptap_len = 0.02
# untap_scale = 1.0
# waist_scale = 0.24210526315789477
# workingDir = NL_20110305_12 (Spirou)
# axis = slow
# window_ps = 10.0
# steps = 200
# points = 21700
# 
# wavelength [nm]	 power spectral density [dB]
600.043425	-78.364515
600.163550	-78.309174
600.283723	-78.196656
600.403943	-78.040784
600.524212	-77.875194
600.644529	-77.727849
600.764895	-77.617133
600.885308	-77.555504
601.005770	-77.543141
601.126280	-77.578873
601.246839	-77.652942
601.367446	-77.741927
601.488101	-77.821750
601.608804	-77.863665
601.729557	-77.849182
601.850357	-77.775902
601.971206	-77.652124
602.092104	-77.499181
602.213050	-77.347394
602.334045	-77.228246
602.455089	-77.162637
602.576181	-77.162647
602.697322	-77.238941
602.818511	-77.392744
602.939749	-77.616659
603.061036	-77.892725
603.182372	-78.179303
603.303757	-78.428584
603.425191	-78.591915
603.546673	-78.636652
603.668204	-78.562806
603.789785	-78.392417
603.911414	-78.169021
604.033092	-77.947148
604.154820	-77.771107
604.276596	-77.669974
604.398422	-77.656715
604.520297	-77.733832
604.642220	-77.901876
604.764193	-78.157150
604.886216	-78.483512
605.008287	-78.846034
605.130408	-79.206596
605.252578	-79.523166
605.374798	-79.758315
605.497066	-79.887018
605.619385	-79.913309
605.741752	-79.863627
605.864169	-79.782424
605.986636	-79.713996
606.109152	-79.693229
606.231718	-79.742448
606.354333	-79.870000
606.476998	-80.073858
606.599712	-80.330959
606.722476	-80.606830
606.845290	-80.864131
606.968154	-81.065456
607.091067	-81.184027
607.214030	-81.209051
607.337043	-81.145801
607.460106	-81.029060
607.583219	-80.906087
607.706381	-80.817589
607.829594	-80.790825
607.952856	-80.828299
608.076169	-80.926607
608.199531	-81.075709
608.322944	-81.258410
608.446407	-81.452498
608.569920	-81.606173
608.693483	-81.670250
608.817096	-81.628321
608.940759	-81.489807
609.064473	-81.285762
609.188237	-81.050848
609.312051	-80.824310
609.435916	-80.652200
609.559831	-80.562326
609.683796	-80.562193
609.807812	-80.645979
609.931878	-80.784094
610.055995	-80.947816
610.180162	-81.097541
610.304380	-81.188945
610.428648	-81.183591
610.552967	-81.047813
610.677337	-80.797111
610.801757	-80.467545
610.926228	-80.111743
611.050750	-79.775728
611.175323	-79.485408
611.299946	-79.267746
611.424620	-79.137046
611.549345	-79.100487
611.674121	-79.155306
611.798948	-79.281288
611.923826	-79.445326
612.048755	-79.605027
612.173734	-79.714914
612.298765	-79.730039
612.423847	-79.627260
612.548980	-79.416424
612.674165	-79.123943
612.799400	-78.787309
612.924687	-78.449642
613.050025	-78.149123
613.175414	-77.912753
613.300854	-77.755466
613.426346	-77.678352
613.551889	-77.672720
613.677484	-77.725973
613.803130	-77.818245
613.928827	-77.916339
614.054576	-77.983610
614.180377	-77.983765
614.306229	-77.897480
614.432132	-77.724226
614.558087	-77.475820
614.684094	-77.177950
614.810153	-76.863249
614.936263	-76.565108
615.062425	-76.312990
615.188639	-76.121597
615.314904	-75.998527
615.441222	-75.941237
615.567591	-75.944044
615.694012	-75.999953
615.820486	-76.091244
615.947011	-76.192288
616.073588	-76.271855
616.200217	-76.305365
616.326898	-76.277243
616.453632	-76.180309
616.580417	-76.018713
616.707255	-75.810716
616.834144	-75.583931
616.961086	-75.366691
617.088081	-75.184192
617.215127	-75.050042
617.342226	-74.968751
617.469378	-74.942519
617.596581	-74.966729
617.723837	-75.035306
617.851146	-75.130974
617.978507	-75.230517
618.105920	-75.308710
618.233386	-75.345791
618.360905	-75.326375
618.488476	-75.244228
618.616100	-75.104583
618.743777	-74.925747
618.871506	-74.731546
618.999288	-74.543740
619.127123	-74.381876
619.255011	-74.261893
619.382951	-74.191511
619.510945	-74.174143
619.638991	-74.203191
619.767090	-74.268927
619.895243	-74.351274
620.023448	-74.434960
620.151706	-74.498199
620.280017	-74.518746
620.408382	-74.485865
620.536799	-74.394451
620.665270	-74.251759
620.793794	-74.072866
620.922371	-73.876518
621.051002	-73.684004
621.179686	-73.513933
621.308423	-73.381236
621.437213	-73.290054
621.566057	-73.242250
621.694954	-73.235957
621.823905	-73.262120
621.952909	-73.307081
622.081967	-73.350746
622.211079	-73.373318
622.340244	-73.358676
622.469462	-73.296182
622.598735	-73.186310
622.728061	-73.034527
622.857441	-72.856942
622.986874	-72.667835
623.116361	-72.485072
623.245903	-72.319345
623.375498	-72.181324
623.505147	-72.076636
623.634850	-72.007472
623.764606	-71.972090
623.894417	-71.961839
624.024282	-71.964269
624.154201	-71.969579
624.284174	-71.964439
624.414202	-71.936190
624.544283	-71.876123
624.674419	-71.782521
624.804609	-71.660815
624.934853	-71.517736
625.065151	-71.365077
625.195504	-71.214158
625.325911	-71.074324
625.456373	-70.951385
625.586889	-70.850882
625.717460	-70.777083
625.848085	-70.724668
625.978764	-70.687887
626.109498	-70.663371
626.240287	-70.648343
626.371131	-70.636948
626.502029	-70.620487
626.632982	-70.590922
626.763989	-70.546682
626.895052	-70.493604
627.026169	-70.434721
627.157341	-70.370585
627.288568	-70.306825
627.419850	-70.252189
627.551187	-70.210017
627.682579	-70.178547
627.814026	-70.155092
627.945528	-70.138397
628.077085	-70.129601
628.208697	-70.127179
628.340364	-70.128201
628.472087	-70.132468
628.603865	-70.143323
628.735698	-70.165748
628.867586	-70.198272
628.999530	-70.239787
629.131529	-70.292550
629.263584	-70.358518
629.395694	-70.433652
629.527859	-70.512678
629.660080	-70.589722
629.792357	-70.663385
629.924689	-70.725491
630.057077	-70.774427
630.189520	-70.809600
630.322019	-70.833930
630.454574	-70.852046
630.587184	-70.871065
630.719851	-70.905368
630.852573	-70.963679
630.985351	-71.058560
631.118185	-71.196321
631.251075	-71.379187
631.384021	-71.602748
631.517023	-71.858808
631.650081	-72.134327
631.783195	-72.412895
631.916365	-72.675751
632.049592	-72.902406
632.182874	-73.079426
632.316213	-73.208661
632.449608	-73.296498
632.583059	-73.361880
632.716567	-73.427969
632.850131	-73.520364
632.983751	-73.661505
633.117428	-73.871074
633.251161	-74.158677
633.384951	-74.529612
633.518797	-74.974208
633.652700	-75.472026
633.786660	-75.989488
633.920676	-76.476966
634.054749	-76.881900
634.188879	-77.158956
634.323065	-77.294865
634.457308	-77.303930
634.591608	-77.226138
634.725965	-77.108685
634.860379	-76.996967
634.994850	-76.921069
635.129377	-76.888650
635.263962	-76.878956
635.398604	-76.869392
635.533303	-76.827667
635.668058	-76.719736
635.802872	-76.525769
635.937742	-76.238264
636.072669	-75.874984
636.207654	-75.456606
636.342696	-75.012595
636.477796	-74.573379
636.612953	-74.160333
636.748167	-73.777345
636.883439	-73.420236
637.018768	-73.082546
637.154155	-72.754968
637.289599	-72.425834
637.425101	-72.090643
637.560660	-71.745687
637.696277	-71.392017
637.831952	-71.040153
637.967685	-70.699152
638.103475	-70.381862
638.239324	-70.095387
638.375230	-69.843424
638.511194	-69.626779
638.647215	-69.442797
638.783295	-69.282855
638.919433	-69.136745
639.055629	-68.992340
639.191883	-68.838152
639.328195	-68.666353
639.464565	-68.469149
639.600994	-68.252187
639.737481	-68.020615
639.874025	-67.780527
640.010629	-67.545804
640.147290	-67.328424
640.284010	-67.135778
640.420789	-66.973793
640.557625	-66.846256
640.694521	-66.754146
640.831474	-66.693154
640.968487	-66.654303
641.105558	-66.629810
641.242687	-66.608185
641.379876	-66.581770
641.517123	-66.545558
641.654429	-66.495852
641.791793	-66.434728
641.929216	-66.364986
642.066699	-66.292322
642.204240	-66.225322
642.341840	-66.169882
642.479499	-66.131479
642.617217	-66.113251
642.754994	-66.112778
642.892830	-66.130581
643.030726	-66.164471
643.168680	-66.209516
643.306694	-66.262338
643.444767	-66.318813
643.582899	-66.378924
643.721091	-66.443157
643.859342	-66.512776
643.997652	-66.592676
644.136022	-66.685719
644.274451	-66.796005
644.412940	-66.928488
644.551488	-67.083439
644.690096	-67.262987
644.828763	-67.465304
644.967490	-67.683544
645.106277	-67.913068
645.245124	-68.146961
645.384030	-68.377580
645.522997	-68.601720
645.662023	-68.818058
645.801109	-69.031396
645.940255	-69.249505
646.079460	-69.483090
646.218726	-69.742465
646.358052	-70.038009
646.497438	-70.380963
646.636884	-70.782251
646.776391	-71.246940
646.915957	-71.780687
647.055584	-72.384069
647.195271	-73.058258
647.335019	-73.800452
647.474826	-74.609233
647.614695	-75.481826
647.754623	-76.421282
647.894612	-77.441252
648.034662	-78.564738
648.174772	-79.832453
648.314943	-81.326368
648.455174	-83.174997
648.595466	-85.602219
648.735819	-89.048900
648.876233	-94.314557
649.016707	-97.042708
649.157242	-91.081240
649.297838	-86.704872
649.438495	-83.734313
649.579213	-81.544692
649.719992	-79.827450
649.860832	-78.411950
650.001733	-77.204965
650.142695	-76.138000
650.283718	-75.166738
650.424803	-74.267645
650.565949	-73.420525
650.707156	-72.619024
650.848424	-71.866009
650.989754	-71.163324
651.131145	-70.514879
651.272597	-69.931367
651.414111	-69.410667
651.555687	-68.949978
651.697324	-68.549415
651.839022	-68.204142
651.980782	-67.902152
652.122604	-67.634449
652.264488	-67.389811
652.406433	-67.157778
652.548441	-66.929095
652.690510	-66.699297
652.832640	-66.469813
652.974833	-66.243861
653.117088	-66.027215
653.259405	-65.827819
653.401784	-65.652195
653.544224	-65.502750
653.686727	-65.378206
653.829293	-65.277276
653.971920	-65.195702
654.114609	-65.126610
654.257361	-65.064855
654.400175	-65.004146
654.543052	-64.940518
654.685991	-64.874658
654.828992	-64.813014
654.972056	-64.760417
655.115183	-64.724625
655.258372	-64.714565
655.401623	-64.734843
655.544937	-64.788574
655.688314	-64.875998
655.831754	-64.992477
655.975256	-65.132289
656.118822	-65.286574
656.262450	-65.445018
656.406141	-65.600771
656.549894	-65.750435
656.693711	-65.894537
656.837591	-66.039335
656.981534	-66.192200
657.125540	-66.364790
657.269610	-66.564122
657.413742	-66.797914
657.557938	-67.071801
657.702196	-67.383290
657.846519	-67.725420
657.990904	-68.095091
658.135353	-68.480327
658.279866	-68.869381
658.424441	-69.257184
658.569081	-69.640801
658.713784	-70.026022
658.858550	-70.420812
659.003381	-70.840459
659.148274	-71.300494
659.293232	-71.804397
659.438253	-72.352790
659.583339	-72.938111
659.728488	-73.541068
659.873701	-74.126012
660.018978	-74.649662
660.164318	-75.062937
660.309723	-75.319584
660.455192	-75.383899
660.600725	-75.250957
660.746323	-74.936325
660.891984	-74.473355
661.037710	-73.907950
661.183500	-73.289223
661.329354	-72.654105
661.475272	-72.032126
661.621255	-71.448238
661.767303	-70.909000
661.913415	-70.418432
662.059591	-69.972563
662.205833	-69.563187
662.352138	-69.174009
662.498509	-68.791473
662.644944	-68.408947
662.791443	-68.021432
662.938008	-67.632604
663.084638	-67.252601
663.231332	-66.893642
663.378091	-66.565420
663.524915	-66.273704
663.671804	-66.023002
663.818759	-65.815507
663.965778	-65.644508
664.112863	-65.501669
664.260012	-65.380840
664.407227	-65.271315
664.554507	-65.168573
664.701853	-65.071862
664.849264	-64.981463
664.996740	-64.904180
665.144282	-64.845995
665.291889	-64.813667
665.439561	-64.814688
665.587300	-64.849338
665.735103	-64.917597
665.882973	-65.015582
666.030908	-65.134195
666.178909	-65.268410
666.326976	-65.410093
666.475109	-65.555022
666.623307	-65.706701
666.771571	-65.869361
666.919902	-66.047407
667.068298	-66.251299
667.216761	-66.488038
667.365289	-66.762094
667.513884	-67.076869
667.662545	-67.432975
667.811272	-67.825504
667.960065	-68.246934
668.108925	-68.693183
668.257851	-69.158911
668.406843	-69.636619
668.555902	-70.129698
668.705027	-70.641222
668.854219	-71.169819
669.003478	-71.708298
669.152803	-72.243780
669.302195	-72.750717
669.451653	-73.183817
669.601179	-73.488665
669.750771	-73.620324
669.900430	-73.548991
670.050156	-73.271956
670.199949	-72.816432
670.349808	-72.232230
670.499735	-71.563888
670.649729	-70.852929
670.799790	-70.133201
670.949918	-69.427224
671.100114	-68.755274
671.250377	-68.129065
671.400707	-67.552306
671.551104	-67.026992
671.701569	-66.549333
671.852101	-66.112269
672.002700	-65.706021
672.153368	-65.323331
672.304102	-64.960568
672.454905	-64.613867
672.605775	-64.282367
672.756713	-63.971009
672.907718	-63.681153
673.058791	-63.417667
673.209933	-63.185085
673.361142	-62.983068
673.512419	-62.811468
673.663764	-62.668089
673.815177	-62.548126
673.966658	-62.448382
674.118207	-62.364679
674.269825	-62.294203
674.421510	-62.237676
674.573264	-62.195187
674.725086	-62.175210
674.876977	-62.179572
675.028936	-62.212053
675.180963	-62.279221
675.333059	-62.381094
675.485224	-62.518431
675.637457	-62.690371
675.789758	-62.894894
675.942129	-63.128191
676.094568	-63.390126
676.247075	-63.679680
676.399652	-63.999320
676.552298	-64.355768
676.705012	-64.755732
676.857795	-65.209756
677.010648	-65.729618
677.163569	-66.325771
677.316560	-67.006049
677.469619	-67.782540
677.622748	-68.665214
677.775946	-69.657528
677.929214	-70.777994
678.082551	-72.041339
678.235957	-73.460360
678.389432	-75.051530
678.542977	-76.762295
678.696592	-78.338841
678.850276	-79.120084
679.004030	-78.455664
679.157853	-76.762907
679.311746	-74.799585
679.465709	-72.970986
679.619742	-71.367501
679.773844	-69.979738
679.928017	-68.787634
680.082259	-67.749226
680.236571	-66.836306
680.390954	-66.021723
680.545406	-65.280874
680.699929	-64.600152
680.854522	-63.965942
681.009185	-63.375615
681.163918	-62.829743
681.318722	-62.328386
681.473596	-61.874852
681.628540	-61.468517
681.783555	-61.108341
681.938641	-60.792212
682.093797	-60.511947
682.249023	-60.261332
682.404321	-60.036606
682.559689	-59.831984
682.715128	-59.646851
682.870637	-59.483145
683.026218	-59.342013
683.181869	-59.228209
683.337591	-59.145226
683.493385	-59.095604
683.649249	-59.079716
683.805185	-59.096543
683.961191	-59.143283
684.117269	-59.214388
684.273418	-59.305051
684.429639	-59.413052
684.585930	-59.537035
684.742294	-59.681411
684.898728	-59.851482
685.055234	-60.053517
685.211812	-60.295693
685.368461	-60.579695
685.525182	-60.902811
685.681975	-61.261847
685.838839	-61.648912
685.995775	-62.055605
686.152783	-62.474598
686.309863	-62.903541
686.467014	-63.344966
686.624238	-63.800577
686.781534	-64.272292
686.938902	-64.751297
687.096342	-65.214228
687.253854	-65.623737
687.411438	-65.924719
687.569095	-66.069636
687.726824	-66.038134
687.884626	-65.837201
688.042499	-65.499998
688.200446	-65.070588
688.358465	-64.583851
688.516556	-64.059648
688.674720	-63.509793
688.832957	-62.943197
688.991266	-62.368223
689.149649	-61.796096
689.308104	-61.241131
689.466632	-60.715655
689.625233	-60.227720
689.783906	-59.781219
689.942653	-59.375169
690.101473	-59.005429
690.260367	-58.667032
690.419333	-58.354428
690.578372	-58.064369
690.737485	-57.796902
690.896672	-57.553315
691.055931	-57.336049
691.215264	-57.149899
691.374671	-56.997881
691.534151	-56.881119
691.693704	-56.797728
691.853332	-56.744237
692.013033	-56.716974
692.172807	-56.711632
692.332656	-56.727737
692.492578	-56.765866
692.652575	-56.828417
692.812645	-56.919836
692.972789	-57.042218
693.133007	-57.196963
693.293300	-57.384912
693.453666	-57.604287
693.614107	-57.850781
693.774622	-58.121730
693.935211	-58.413364
694.095875	-58.723347
694.256613	-59.051092
694.417426	-59.397237
694.578313	-59.761633
694.739274	-60.141503
694.900311	-60.530045
695.061421	-60.916153
695.222607	-61.280757
695.383868	-61.599534
695.545203	-61.846452
695.706613	-62.001392
695.868098	-62.053139
696.029658	-62.000520
696.191293	-61.852846
696.353003	-61.622006
696.514789	-61.323144
696.676649	-60.966408
696.838585	-60.563868
697.000596	-60.126149
697.162682	-59.666736
697.324844	-59.202156
697.487081	-58.748634
697.649394	-58.317282
697.811782	-57.915423
697.974246	-57.546592
698.136786	-57.208549
698.299401	-56.897576
698.462092	-56.610337
698.624859	-56.346484
698.787702	-56.106081
698.950621	-55.891114
699.113616	-55.705886
699.276686	-55.553892
699.439833	-55.436979
699.603056	-55.355683
699.766355	-55.306800
699.929731	-55.286964
700.093183	-55.293108
700.256711	-55.321996
700.420315	-55.374660
700.583996	-55.452439
700.747754	-55.558533
700.911588	-55.697466
701.075499	-55.871907
701.239486	-56.083700
701.403550	-56.329657
701.567691	-56.605732
701.731909	-56.906046
701.896203	-57.223892
702.060575	-57.556836
702.225024	-57.903779
702.389549	-58.263892
702.554152	-58.635474
702.718832	-59.012637
702.883589	-59.378568
703.048424	-59.709609
703.213335	-59.976405
703.378324	-60.149577
703.543391	-60.211993
703.708535	-60.163331
703.873757	-60.017733
704.039056	-59.793304
704.204433	-59.508135
704.369887	-59.173369
704.535420	-58.797791
704.701030	-58.388722
704.866718	-57.959044
705.032484	-57.523281
705.198328	-57.100143
705.364250	-56.704510
705.530250	-56.345144
705.696328	-56.023926
705.862485	-55.735925
706.028720	-55.474702
706.195033	-55.234514
706.361424	-55.013881
706.527894	-54.817037
706.694442	-54.650829
706.861069	-54.522490
707.027775	-54.436187
707.194559	-54.391612
707.361422	-54.386139
707.528363	-54.412798
707.695384	-54.465132
707.862483	-54.539966
708.029661	-54.638004
708.196918	-54.765277
708.364254	-54.929023
708.531670	-55.135321
708.699164	-55.385502
708.866738	-55.675401
709.034391	-55.995825
709.202123	-56.334797
709.369935	-56.684301
709.537826	-57.039126
709.705796	-57.398863
709.873847	-57.763816
710.041976	-58.128902
710.210186	-58.477637
710.378475	-58.782199
710.546844	-59.006775
710.715292	-59.120814
710.883821	-59.108959
711.052429	-58.980646
711.221118	-58.758099
711.389887	-58.469450
711.558735	-58.134337
711.727664	-57.763531
711.896673	-57.364490
712.065763	-56.946341
712.234932	-56.522929
712.404183	-56.108631
712.573513	-55.720297
712.742924	-55.366862
712.912416	-55.052737
713.081988	-54.777256
713.251641	-54.536209
713.421375	-54.324990
713.591190	-54.140516
713.761085	-53.983894
713.931061	-53.859198
714.101119	-53.772394
714.271257	-53.727504
714.441476	-53.726260
714.611777	-53.765950
714.782159	-53.841676
714.952622	-53.947924
715.123166	-54.080054
715.293792	-54.239434
715.464499	-54.429272
715.635288	-54.655533
715.806158	-54.920675
715.977110	-55.220978
716.148143	-55.546575
716.319259	-55.883265
716.490456	-56.215237
716.661735	-56.529687
716.833096	-56.817613
717.004538	-57.071672
717.176063	-57.283988
717.347670	-57.438374
717.519359	-57.514813
717.691130	-57.494501
717.862984	-57.372876
718.034920	-57.160174
718.206938	-56.880348
718.379039	-56.559197
718.551222	-56.218944
718.723488	-55.870780
718.895836	-55.519627
719.068267	-55.168754
719.240781	-54.823737
719.413377	-54.492716
719.586057	-54.186921
719.758819	-53.914210
719.931664	-53.679008
720.104593	-53.482194
720.277604	-53.321259
720.450699	-53.193355
720.623876	-53.094855
720.797137	-53.025706
720.970482	-52.988407
721.143910	-52.986788
721.317421	-53.023455
721.491016	-53.099201
721.664694	-53.212242
721.838456	-53.358052
722.012302	-53.529914
722.186231	-53.723071
722.360244	-53.933795
722.534342	-54.160171
722.708523	-54.402626
722.882788	-54.656066
723.057137	-54.911634
723.231570	-55.153669
723.406088	-55.363497
723.580689	-55.523217
723.755375	-55.621501
723.930146	-55.654461
724.105000	-55.623928
724.279940	-55.533345
724.454963	-55.386345
724.630072	-55.185338
724.805265	-54.936690
724.980543	-54.651905
725.155905	-54.345021
725.331353	-54.031049
725.506885	-53.723640
725.682503	-53.431532
725.858205	-53.160129
726.033993	-52.910475
726.209865	-52.683419
726.385823	-52.479458
726.561866	-52.300773
726.737995	-52.149960
726.914209	-52.031073
727.090508	-51.946821
727.266893	-51.898175
727.443364	-51.883578
727.619920	-51.898972
727.796562	-51.940717
727.973290	-52.006794
728.150103	-52.098481
728.327003	-52.217793
728.503988	-52.366106
728.681060	-52.541503
728.858218	-52.736984
729.035461	-52.941987
729.212791	-53.144981
729.390208	-53.335588
729.567710	-53.506077
729.745299	-53.651711
729.922975	-53.767781
730.100737	-53.846220
730.278586	-53.875612
730.456521	-53.844498
730.634543	-53.748045
730.812652	-53.591794
730.990848	-53.390086
731.169130	-53.159895
731.347500	-52.914517
731.525957	-52.661556
731.704500	-52.404186
731.883131	-52.145246
732.061850	-51.890383
732.240655	-51.648124
732.419548	-51.428525
732.598528	-51.239852
732.777596	-51.085447
732.956751	-50.964573
733.135994	-50.872933
733.315325	-50.806770
733.494744	-50.765484
733.674250	-50.751728
733.853844	-50.771308
734.033526	-50.828357
734.213296	-50.922371
734.393154	-51.048281
734.573101	-51.197126
734.753135	-51.360509
734.933258	-51.533156
735.113469	-51.713362
735.293769	-51.899232
735.474157	-52.083644
735.654633	-52.252638
735.835198	-52.387269
736.015852	-52.470503
736.196594	-52.493497
736.377426	-52.456730
736.558346	-52.367583
736.739355	-52.233668
736.920453	-52.060113
737.101640	-51.852612
737.282916	-51.616778
737.464282	-51.363641
737.645736	-51.106231
737.827280	-50.858125
738.008914	-50.630583
738.190637	-50.428976
738.372449	-50.254103
738.554351	-50.106029
738.736342	-49.984674
738.918424	-49.893578
739.100595	-49.836735
739.282855	-49.817963
739.465206	-49.839548
739.647647	-49.899818
739.830178	-49.994595
740.012799	-50.118426
740.195510	-50.266815
740.378311	-50.437956
740.561203	-50.629460
740.744185	-50.835972
740.927258	-51.048675
741.110421	-51.252340
741.293674	-51.431093
741.477018	-51.569493
741.660453	-51.657825
741.843979	-51.691758
742.027596	-51.668923
742.211303	-51.587783
742.395102	-51.449178
742.578991	-51.259113
742.762972	-51.030916
742.947044	-50.781669
743.131207	-50.528939
743.315461	-50.284868
743.499807	-50.056888
743.684244	-49.849644
743.868773	-49.666769
744.053394	-49.512666
744.238106	-49.393349
744.422910	-49.313725
744.607805	-49.277350
744.792793	-49.283352
744.977872	-49.329209
745.163044	-49.411491
745.348307	-49.528602
745.533663	-49.680287
745.719111	-49.864459
745.904651	-50.075795
746.090283	-50.306081
746.276008	-50.540908
746.461826	-50.765023
746.647735	-50.964603
746.833738	-51.128308
747.019833	-51.246932
747.206021	-51.309678
747.392302	-51.307618
747.578676	-51.235645
747.765143	-51.098796
747.951703	-50.910587
748.138356	-50.689736
748.325102	-50.453808
748.511941	-50.215996
748.698874	-49.986105
748.885900	-49.772332
749.073019	-49.582568
749.260232	-49.425220
749.447539	-49.307671
749.634939	-49.234317
749.822433	-49.206142
750.010021	-49.221232
750.197703	-49.276982
750.385479	-49.372092
750.573348	-49.505676
750.761312	-49.677751
750.949370	-49.884790
751.137523	-50.118958
751.325769	-50.367320
751.514110	-50.614758
751.702545	-50.847215
751.891075	-51.053211
752.079700	-51.219889
752.268419	-51.332253
752.457233	-51.374057
752.646142	-51.335755
752.835145	-51.219269
753.024244	-51.039424
753.213437	-50.817374
753.402726	-50.572206
753.592110	-50.320018
753.781589	-50.073673
753.971163	-49.845465
754.160833	-49.647925
754.350598	-49.491543
754.540459	-49.383695
754.730415	-49.328002
754.920467	-49.324430
755.110615	-49.371178
755.300858	-49.467318
755.491198	-49.612011
755.681633	-49.805022
755.872164	-50.043392
756.062792	-50.319068
756.253515	-50.619398
756.444335	-50.926341
756.635252	-51.220702
756.826264	-51.484592
757.017373	-51.698441
757.208579	-51.841370
757.399881	-51.893417
757.591280	-51.843353
757.782776	-51.695677
757.974368	-51.470767
758.166058	-51.196782
758.357844	-50.902113
758.549728	-50.608452
758.741708	-50.331597
758.933786	-50.084139
759.125961	-49.877973
759.318233	-49.723750
759.510603	-49.629090
759.703071	-49.597980
759.895635	-49.629868
760.088298	-49.721686
760.281058	-49.869992
760.473916	-50.072008
760.666872	-50.325954
760.859926	-50.626513
761.053078	-50.962554
761.246328	-51.313484
761.439676	-51.651451
761.633122	-51.946414
761.826667	-52.171236
762.020310	-52.303767
762.214052	-52.327506
762.407892	-52.234909
762.601831	-52.033219
762.795868	-51.747893
762.990004	-51.414533
763.184239	-51.069015
763.378573	-50.738795
763.573006	-50.439634
763.767538	-50.182900
763.962169	-49.977622
764.156900	-49.832844
764.351729	-49.755666
764.546658	-49.750168
764.741687	-49.815479
764.936815	-49.946436
765.132042	-50.135657
765.327370	-50.375813
765.522797	-50.660063
765.718324	-50.977417
765.913950	-51.307542
766.109677	-51.619888
766.305504	-51.877087
766.501431	-52.045498
766.697458	-52.104704
766.893586	-52.049985
767.089814	-51.886484
767.286142	-51.628242
767.482571	-51.299304
767.679100	-50.932536
767.875730	-50.562926
768.072461	-50.218822
768.269293	-49.917465
768.466225	-49.667695
768.663259	-49.473517
768.860393	-49.339297
769.057629	-49.270484
769.254966	-49.271678
769.452404	-49.342005
769.649944	-49.474072
769.847585	-49.656339
770.045328	-49.875679
770.243172	-50.120473
770.441118	-50.376445
770.639166	-50.621749
770.837315	-50.823583
771.035567	-50.946244
771.233920	-50.962934
771.432376	-50.867045
771.630934	-50.669688
771.829594	-50.390224
772.028356	-50.050380
772.227220	-49.675212
772.426188	-49.292902
772.625257	-48.931582
772.824430	-48.614217
773.023705	-48.353237
773.223083	-48.152307
773.422563	-48.011343
773.622147	-47.931692
773.821834	-47.916568
774.021624	-47.967853
774.221517	-48.081758
774.421513	-48.246581
774.621613	-48.444798
774.821816	-48.655585
775.022122	-48.856439
775.222532	-49.022767
775.423046	-49.126781
775.623664	-49.140250
775.824385	-49.044368
776.025211	-48.839884
776.226140	-48.549281
776.427173	-48.205500
776.628311	-47.840166
776.829553	-47.476869
777.030899	-47.133354
777.232350	-46.825184
777.433905	-46.566818
777.635564	-46.368814
777.837328	-46.236704
778.039197	-46.169276
778.241171	-46.161815
778.443250	-46.209320
778.645433	-46.306715
778.847722	-46.445468
779.050116	-46.609939
779.252615	-46.776049
779.455219	-46.915346
779.657929	-47.000982
779.860744	-47.012618
780.063665	-46.939403
780.266691	-46.780198
780.469823	-46.544885
780.673061	-46.251879
780.876405	-45.926900
781.079855	-45.596635
781.283410	-45.283630
781.487072	-45.004245
781.690840	-44.769279
781.894715	-44.585778
782.098695	-44.458705
782.302783	-44.390570
782.506976	-44.380779
782.711277	-44.424398
782.915684	-44.512956
783.120198	-44.633896
783.324818	-44.770605
783.529546	-44.903047
783.734381	-45.009481
783.939322	-45.068327
784.144372	-45.061293
784.349528	-44.977463
784.554792	-44.817209
784.760163	-44.592819
784.965642	-44.325119
785.171228	-44.037485
785.376922	-43.750754
785.582724	-43.481402
785.788634	-43.243222
785.994651	-43.047164
786.200777	-42.901728
786.407011	-42.811528
786.613353	-42.775770
786.819804	-42.788884
787.026363	-42.843237
787.233030	-42.930141
787.439806	-43.038446
787.646691	-43.151591
787.853684	-43.248101
788.060786	-43.305333
788.267997	-43.307174
788.475317	-43.247670
788.682746	-43.127613
788.890285	-42.952761
789.097932	-42.734403
789.305689	-42.490284
789.513555	-42.242076
789.721531	-42.009855
789.929617	-41.807129
790.137812	-41.641138
790.346117	-41.516300
790.554531	-41.436603
790.763056	-41.404096
790.971691	-41.416504
791.180436	-41.465281
791.389291	-41.536730
791.598256	-41.616091
791.807332	-41.689916
792.016518	-41.744904
792.225815	-41.766475
792.435222	-41.740966
792.644740	-41.662490
792.854369	-41.535462
793.064109	-41.372761
793.273960	-41.188946
793.483922	-40.997087
793.693995	-40.809448
793.904180	-40.639018
794.114475	-40.497890
794.324882	-40.394157
794.535401	-40.329118
794.746031	-40.299147
794.956774	-40.298896
795.167627	-40.322320
795.378593	-40.361501
795.589671	-40.404687
795.800861	-40.437014
796.012162	-40.445428
796.223577	-40.422314
796.435103	-40.366847
796.646742	-40.281905
796.858493	-40.172049
797.070357	-40.044420
797.282334	-39.909678
797.494423	-39.780259
797.706626	-39.666590
797.918941	-39.574225
798.131369	-39.504845
798.343911	-39.458028
798.556566	-39.432285
798.769334	-39.424019
798.982215	-39.426147
799.195210	-39.429333
799.408319	-39.424279
799.621541	-39.404886
799.834877	-39.368493
800.048327	-39.314543
800.261890	-39.243367
800.475568	-39.158740
800.689360	-39.068274
800.903266	-38.980916
801.117287	-38.903426
801.331422	-38.839464
801.545671	-38.791418
801.760036	-38.759873
801.974514	-38.743264
802.189108	-38.737341
802.403816	-38.735564
802.618640	-38.730074
802.833578	-38.713994
803.048632	-38.682405
803.263800	-38.632457
803.479085	-38.563421
803.694484	-38.477308
803.909999	-38.380788
804.125630	-38.283449
804.341376	-38.193939
804.557239	-38.118466
804.773217	-38.061242
804.989311	-38.026479
805.205521	-38.016245
805.421847	-38.027923
805.638290	-38.054755
805.854849	-38.087466
806.071524	-38.116077
806.288316	-38.131314
806.505225	-38.125145
806.722250	-38.090919
806.939393	-38.025603
807.156652	-37.932539
807.374028	-37.821033
807.591521	-37.701873
807.809132	-37.585519
808.026859	-37.482153
808.244705	-37.401292
808.462667	-37.350647
808.680748	-37.333629
808.898946	-37.348481
809.117261	-37.389225
809.335695	-37.446803
809.554246	-37.510118
809.772916	-37.565656
809.991704	-37.598528
810.210610	-37.595946
810.429634	-37.552109
810.648777	-37.469666
810.868039	-37.356806
811.087419	-37.225044
811.306918	-37.088603
811.526535	-36.963313
811.746272	-36.862748
811.966127	-36.796046
812.186102	-36.767638
812.406196	-36.777917
812.626409	-36.823212
812.846742	-36.894587
813.067194	-36.978321
813.287766	-37.057699
813.508457	-37.116202
813.729269	-37.140271
813.950200	-37.121396
814.171251	-37.057811
814.392422	-36.956298
814.613714	-36.831227
814.835126	-36.700295
815.056658	-36.580212
815.278311	-36.484665
815.500084	-36.423301
815.721978	-36.401518
815.943993	-36.419794
816.166128	-36.472867
816.388385	-36.549388
816.610762	-36.634782
816.833261	-36.713658
817.055881	-36.769730
817.278623	-36.788438
817.501486	-36.761843
817.724471	-36.691713
817.947577	-36.588169
818.170805	-36.466163
818.394155	-36.342041
818.617627	-36.231606
818.841221	-36.148559
819.064937	-36.102234
819.288775	-36.095357
819.512736	-36.124248
819.736819	-36.181366
819.961025	-36.256374
820.185354	-36.335822
820.409805	-36.403779
820.634379	-36.444797
820.859076	-36.449087
821.083897	-36.415175
821.308840	-36.347940
821.533907	-36.256078
821.759097	-36.152056
821.984411	-36.051491
822.209848	-35.969466
822.435409	-35.916247
822.661093	-35.895519
822.886902	-35.906393
823.112834	-35.946006
823.338891	-36.007559
823.565072	-36.078778
823.791377	-36.145113
824.017807	-36.193851
824.244361	-36.217007
824.471039	-36.210439
824.697843	-36.173167
824.924771	-36.109135
825.151824	-36.028044
825.379002	-35.943766
825.606306	-35.868717
825.833734	-35.810510
826.061288	-35.773956
826.288967	-35.763179
826.516772	-35.778382
826.744703	-35.814057
826.972759	-35.860824
827.200941	-35.909126
827.429249	-35.951744
827.657683	-35.982299
827.886243	-35.994071
828.114930	-35.983244
828.343743	-35.951851
828.572682	-35.906105
828.801748	-35.852563
829.030941	-35.797493
829.260260	-35.748167
829.489706	-35.712231
829.719280	-35.694497
829.948980	-35.695319
830.178808	-35.712010
830.408763	-35.741200
830.638845	-35.779019
830.869055	-35.819606
831.099393	-35.855174
831.329858	-35.879375
831.560451	-35.888980
831.791173	-35.882788
832.022022	-35.859997
832.252999	-35.821664
832.484105	-35.773677
832.715339	-35.724730
832.946702	-35.682245
833.178193	-35.651861
833.409813	-35.637884
833.641561	-35.642905
833.873439	-35.667083
834.105445	-35.706637
834.337581	-35.754197
834.569846	-35.801350
834.802241	-35.840087
835.034764	-35.862596
835.267418	-35.861752
835.500201	-35.834956
835.733114	-35.786316
835.966157	-35.724703
836.199329	-35.661092
836.432632	-35.606951
836.666065	-35.573151
836.899629	-35.567968
837.133323	-35.594227
837.367147	-35.647948
837.601102	-35.720139
837.835188	-35.798385
838.069405	-35.867062
838.303752	-35.910739
838.538231	-35.918076
838.772841	-35.885305
839.007582	-35.818725
839.242455	-35.732609
839.477459	-35.644833
839.712595	-35.574331
839.947863	-35.537111
840.183263	-35.542785
840.418794	-35.593536
840.654458	-35.682512
840.890254	-35.793550
841.126182	-35.903518
841.362242	-35.987136
841.598435	-36.022815
841.834761	-35.998491
842.071220	-35.918144
842.307811	-35.801516
842.544536	-35.676552
842.781393	-35.570851
843.018384	-35.507331
843.255508	-35.501629
843.492765	-35.558931
843.730156	-35.671934
843.967681	-35.820277
844.205339	-35.972603
844.443132	-36.092041
844.681058	-36.144605
844.919118	-36.110814
845.157313	-35.996707
845.395642	-35.831537
845.634105	-35.657022
845.872703	-35.513155
846.111436	-35.429583
846.350303	-35.425105
846.589306	-35.505100
846.828443	-35.657610
847.067716	-35.853531
847.307124	-36.049347
847.546667	-36.193933
847.786345	-36.242423
848.026160	-36.174486
848.266110	-36.007341
848.506195	-35.788622
848.746417	-35.575082
848.986775	-35.414863
849.227269	-35.340658
849.467899	-35.369121
849.708666	-35.498262
849.949569	-35.704218
850.190609	-35.943112
850.431785	-36.156401
850.673099	-36.281150
850.914549	-36.273334
851.156137	-36.131226
851.397861	-35.898596
851.639723	-35.643583
851.881723	-35.430523
852.123860	-35.305869
852.366135	-35.295615
852.608547	-35.403318
852.851098	-35.608462
853.093786	-35.865524
853.336613	-36.107586
853.579578	-36.260928
853.822681	-36.270067
854.065923	-36.126524
854.309304	-35.877329
854.552823	-35.598495
854.796481	-35.363505
855.040278	-35.225038
855.284215	-35.211167
855.528290	-35.325456
855.772505	-35.543942
856.016859	-35.813863
856.261353	-36.057979
856.505987	-36.192374
856.750760	-36.163010
856.995673	-35.974078
857.240727	-35.687272
857.485920	-35.390590
857.731254	-35.160064
857.976729	-35.045472
858.222343	-35.069036
858.468099	-35.224812
858.713995	-35.478079
858.960032	-35.762009
859.206211	-35.984808
859.452530	-36.059719
859.698991	-35.948031
859.945593	-35.685711
860.192336	-35.360362
860.439222	-35.065449
860.686248	-34.871463
860.933417	-34.816114
861.180728	-34.906944
861.428181	-35.122052
861.675776	-35.405615
861.923514	-35.671896
862.171394	-35.822176
862.419417	-35.788473
862.667582	-35.576614
862.915890	-35.260923
863.164342	-34.941646
863.412936	-34.703172
863.661674	-34.597175
863.910555	-34.641445
864.159579	-34.819446
864.408747	-35.081997
864.658059	-35.347916
864.907515	-35.517409
865.157114	-35.515791
865.406858	-35.336113
865.656746	-35.042718
865.906778	-34.733389
866.156955	-34.495166
866.407277	-34.383531
866.657743	-34.417265
866.908354	-34.579998
867.159110	-34.820856
867.410011	-35.055791
867.661057	-35.188865
867.912249	-35.155241
868.163586	-34.958456
868.415069	-34.668215
868.666697	-34.380036
868.918472	-34.174911
869.170392	-34.100343
869.422458	-34.166745
869.674671	-34.348388
869.927030	-34.582895
870.179536	-34.777768
870.432188	-34.841860
870.684987	-34.733270
870.937933	-34.485468
871.191026	-34.186296
871.444266	-33.930527
871.697653	-33.786118
871.951188	-33.784926
872.204870	-33.921098
872.458700	-34.147793
872.712677	-34.381095
872.966803	-34.519089
873.221076	-34.486011
873.475498	-34.279006
873.730068	-33.971902
873.984787	-33.670480
874.239654	-33.464367
874.494669	-33.406154
874.749834	-33.506562
875.005147	-33.732642
875.260610	-34.007541
875.516222	-34.218557
875.771983	-34.257985
876.027894	-34.088149
876.283954	-33.768884
876.540164	-33.416459
876.796524	-33.140711
877.053033	-33.014708
877.309693	-33.067320
877.566503	-33.279920
877.823464	-33.584768
878.080575	-33.866553
878.337837	-33.990618
878.595249	-33.876603
878.852813	-33.558155
879.110528	-33.158816
879.368393	-32.812887
879.626410	-32.612523
879.884579	-32.600880
880.142899	-32.773693
880.401371	-33.075276
880.659994	-33.395853
880.918770	-33.589818
881.177698	-33.545080
881.436778	-33.262411
881.696010	-32.854374
881.955395	-32.468724
882.214933	-32.215753
882.474623	-32.149189
882.734467	-32.273201
882.994463	-32.541627
883.254613	-32.854003
883.514916	-33.069052
883.775372	-33.066300
884.035982	-32.827425
884.296746	-32.447666
884.557664	-32.068978
884.818735	-31.806752
885.079961	-31.721563
885.341341	-31.819980
885.602876	-32.057702
885.864565	-32.339856
886.126409	-32.536319
886.388407	-32.535788
886.650561	-32.319813
886.912870	-31.975413
887.175334	-31.631676
887.437953	-31.395153
887.700728	-31.323235
887.963658	-31.419754
888.226745	-31.637170
888.489987	-31.882695
888.753385	-32.038582
889.016940	-32.013448
889.280651	-31.803188
889.544518	-31.492736
889.808543	-31.196425
890.072723	-31.003699
890.337061	-30.959403
890.601556	-31.058829
890.866208	-31.249962
891.131017	-31.443777
891.395984	-31.541389
891.661109	-31.481729
891.926391	-31.281443
892.191831	-31.020923
892.457429	-30.793039
892.723186	-30.663546
892.989100	-30.657356
893.255173	-30.756568
893.521405	-30.905369
893.787796	-31.025954
894.054345	-31.049660
894.321053	-30.953151
894.587921	-30.772767
894.854948	-30.577944
895.122134	-30.432992
895.389480	-30.374706
895.656986	-30.404336
895.924651	-30.489778
896.192477	-30.576714
896.460463	-30.610559
896.728609	-30.562223
896.996915	-30.442939
897.265382	-30.296718
897.534010	-30.173334
897.802799	-30.106654
898.071749	-30.103995
898.340860	-30.145616
898.610132	-30.194154
898.879566	-30.210772
899.149162	-30.173828
899.418919	-30.088854
899.688838	-29.983307
899.958919	-29.891101
900.229162	-29.835234
900.499568	-29.819043
900.770136	-29.828679
901.040867	-29.839602
901.311761	-29.828315
901.582817	-29.785824
901.854037	-29.720773
902.125420	-29.652050
902.396966	-29.598065
902.668676	-29.567117
902.940550	-29.552445
903.212587	-29.537504
903.484788	-29.507126
903.757153	-29.455648
904.029683	-29.390159
904.302377	-29.329233
904.575236	-29.290453
904.848259	-29.280138
905.121447	-29.288379
905.394800	-29.293047
905.668319	-29.269650
905.942002	-29.206432
906.215852	-29.113783
906.489866	-29.017993
906.764047	-28.949954
907.038393	-28.929723
907.312906	-28.955858
907.587584	-29.003403
907.862429	-29.032988
908.137441	-29.009383
908.412619	-28.922950
908.687964	-28.796880
908.963476	-28.674232
909.239155	-28.597646
909.515002	-28.588205
909.791015	-28.637194
910.067197	-28.706792
910.343546	-28.744390
910.620063	-28.708918
910.896748	-28.595795
911.173601	-28.441496
911.450623	-28.302336
911.727813	-28.225623
912.005171	-28.229451
912.282699	-28.295342
912.560395	-28.373106
912.838261	-28.401867
913.116296	-28.342978
913.394500	-28.203824
913.672874	-28.035189
913.951418	-27.900896
914.230131	-27.845412
914.509015	-27.876086
914.788068	-27.961395
915.067292	-28.040138
915.346687	-28.049996
915.626252	-27.964279
915.905988	-27.808434
916.185895	-27.645446
916.465973	-27.538253
916.746223	-27.520942
917.026644	-27.584951
917.307236	-27.682585
917.588000	-27.746095
917.868937	-27.721837
918.150045	-27.605748
918.431325	-27.445749
918.712778	-27.310024
918.994404	-27.250852
919.276202	-27.281934
919.558173	-27.372318
919.840317	-27.459457
920.122634	-27.479162
920.405125	-27.403099
920.687789	-27.259364
920.970627	-27.113380
921.253639	-27.027579
921.536824	-27.031040
921.820184	-27.108612
922.103718	-27.204368
922.387427	-27.248695
922.671310	-27.199306
922.955368	-27.068754
923.239601	-26.915921
923.524009	-26.809515
923.808592	-26.790304
924.093351	-26.853368
924.378285	-26.950861
924.663396	-27.011360
924.948682	-26.980871
925.234144	-26.859237
925.519782	-26.700669
925.805597	-26.576597
926.091589	-26.536145
926.377757	-26.583604
926.664102	-26.676742
926.950624	-26.744817
927.237323	-26.728370
927.524200	-26.617671
927.811255	-26.460848
928.098487	-26.330575
928.385897	-26.280016
928.673485	-26.318879
928.961251	-26.409299
929.249196	-26.482729
929.537319	-26.477030
929.825621	-26.379307
930.114102	-26.233935
930.402762	-26.111501
930.691601	-26.066558
930.980620	-26.109800
931.269818	-26.204121
931.559196	-26.281949
931.848753	-26.282446
932.138491	-26.193153
932.428409	-26.058959
932.718508	-25.949099
933.008787	-25.915334
933.299246	-25.965657
933.589887	-26.061003
933.880709	-26.133534
934.171712	-26.126839
934.462896	-26.034627
934.754262	-25.905062
935.045810	-25.804975
935.337539	-25.779297
935.629451	-25.828461
935.921545	-25.909469
936.213822	-25.957779
936.506281	-25.927653
936.798922	-25.824638
937.091747	-25.700183
937.384755	-25.613855
937.677946	-25.597903
937.971321	-25.641695
938.264879	-25.698286
938.558621	-25.712315
938.852547	-25.656709
939.146657	-25.550492
939.440952	-25.444362
939.735431	-25.384679
940.030095	-25.385954
940.324943	-25.425267
940.619977	-25.456436
940.915196	-25.440170
941.210600	-25.370636
941.506189	-25.277956
941.801965	-25.205644
942.097926	-25.180351
942.394074	-25.198299
942.690407	-25.227673
942.986927	-25.230943
943.283634	-25.191357
943.580527	-25.122818
943.877608	-25.058108
944.174875	-25.025003
944.472330	-25.027407
944.769972	-25.044343
945.067802	-25.046442
945.365820	-25.015922
945.664026	-24.961429
945.962420	-24.908883
946.261002	-24.881010
946.559773	-24.880852
946.858733	-24.889570
947.157881	-24.880359
947.457219	-24.840720
947.756746	-24.781832
948.056462	-24.730797
948.356368	-24.709668
948.656464	-24.717944
948.956749	-24.732021
949.257225	-24.721154
949.557891	-24.672253
949.858748	-24.601314
950.159796	-24.541714
950.461034	-24.520254
950.762463	-24.537259
951.064084	-24.564445
951.365896	-24.564285
951.667900	-24.517902
951.970095	-24.442038
952.272483	-24.376059
952.575063	-24.352553
952.877835	-24.374498
953.180799	-24.412424
953.483956	-24.423537
953.787307	-24.384946
954.090850	-24.311875
954.394586	-24.246798
954.698516	-24.226482
955.002640	-24.254072
955.306957	-24.297977
955.611469	-24.312697
955.916174	-24.274746
956.221074	-24.202291
956.526169	-24.140188
956.831458	-24.125809
957.136942	-24.160378
957.442622	-24.206886
957.748496	-24.217567
958.054567	-24.171833
958.360833	-24.093822
958.667294	-24.033232
958.973952	-24.025079
959.280806	-24.064316
959.587857	-24.108463
959.895104	-24.108715
960.202548	-24.050954
960.510189	-23.968304
960.818027	-23.913088
961.126062	-23.914561
961.434295	-23.956837
961.742726	-23.991679
962.051355	-23.974759
962.360182	-23.903968
962.669207	-23.823015
962.978431	-23.782361
963.287854	-23.798831
963.597475	-23.843508
963.907296	-23.862249
964.217315	-23.821716
964.527535	-23.739221
964.837954	-23.667513
965.148573	-23.649943
965.459392	-23.684812
965.770411	-23.726420
966.081630	-23.721040
966.393051	-23.653442
966.704672	-23.563794
967.016494	-23.510256
967.328517	-23.520747
967.640742	-23.570469
967.953169	-23.599015
968.265797	-23.561582
968.578627	-23.470955
968.891660	-23.386292
969.204895	-23.361510
969.518332	-23.400313
969.831972	-23.452592
970.145816	-23.453873
970.459862	-23.382699
970.774112	-23.282818
971.088565	-23.222679
971.403223	-23.235961
971.718084	-23.295054
972.033149	-23.330542
972.348419	-23.291144
972.663893	-23.193487
972.979572	-23.107128
973.295456	-23.091203
973.611546	-23.144523
973.927840	-23.205239
974.244340	-23.201332
974.561046	-23.118085
974.877958	-23.014420
975.195076	-22.967721
975.512401	-23.006065
975.829932	-23.084276
976.147670	-23.117969
976.465615	-23.060079
976.783767	-22.948957
977.102126	-22.871345
977.420693	-22.884461
977.739468	-22.967873
978.058451	-23.036841
978.377642	-23.014940
978.697041	-22.910019
979.016649	-22.807599
979.336466	-22.788956
979.656492	-22.862026
979.976727	-22.953827
980.297171	-22.969472
980.617825	-22.883642
980.938689	-22.768288
981.259763	-22.720540
981.581048	-22.775025
981.902542	-22.875620
982.224248	-22.919738
982.546164	-22.854942
982.868291	-22.734660
983.190630	-22.663540
983.513180	-22.698807
983.835942	-22.801190
984.158916	-22.866002
984.482101	-22.819206
984.805500	-22.695803
985.129110	-22.603734
985.452934	-22.619141
985.776970	-22.720098
986.101220	-22.802063
986.425683	-22.771862
986.750359	-22.645966
987.075250	-22.533416
987.400354	-22.526578
987.725673	-22.620449
988.051206	-22.715321
988.376954	-22.702970
988.702916	-22.579025
989.029094	-22.448632
989.355487	-22.417120
989.682095	-22.496363
990.008919	-22.596303
990.335959	-22.601409
990.663216	-22.487684
990.990688	-22.348621
991.318377	-22.294813
991.646283	-22.352851
991.974406	-22.446194
992.302746	-22.462780
992.631304	-22.366900
992.960079	-22.234673
993.289072	-22.170373
993.618283	-22.207325
993.947713	-22.283269
994.277361	-22.300119
994.607227	-22.221957
994.937313	-22.110441
995.267618	-22.053036
995.598142	-22.077595
995.928886	-22.131751
996.259849	-22.136883
996.591033	-22.070075
996.922437	-21.984916
997.254061	-21.948810
997.585906	-21.973334
997.917972	-22.007803
998.250260	-21.994186
998.582768	-21.930196
998.915498	-21.869682
999.248450	-21.860145
999.581624	-21.892270
999.915020	-21.911579
1000.248639	-21.878996
1000.582480	-21.815508
1000.916545	-21.777504
1001.250832	-21.793264
1001.585343	-21.832317
1001.920077	-21.836972
1002.255035	-21.788075
1002.590218	-21.728470
1002.925624	-21.713779
1003.261255	-21.751230
1003.597111	-21.790200
1003.933192	-21.775992
1004.269497	-21.713579
1004.606029	-21.664445
1004.942785	-21.676416
1005.279768	-21.730846
1005.616977	-21.759615
1005.954412	-21.719232
1006.292074	-21.644590
1006.629962	-21.610832
1006.968077	-21.649640
1007.306420	-21.713480
1007.644990	-21.721934
1007.983787	-21.652796
1008.322813	-21.571276
1008.662067	-21.556904
1009.001549	-21.617485
1009.341259	-21.677862
1009.681199	-21.657778
1010.021367	-21.565235
1010.361765	-21.488715
1010.702392	-21.497058
1011.043250	-21.567136
1011.384337	-21.606076
1011.725654	-21.552386
1012.067202	-21.449488
1012.408980	-21.393395
1012.750989	-21.425125
1013.093230	-21.488284
1013.435702	-21.489516
1013.778405	-21.405858
1014.121341	-21.311798
1014.464508	-21.289602
1014.807908	-21.338448
1015.151540	-21.376471
1015.495405	-21.333105
1015.839503	-21.234199
1016.183835	-21.168943
1016.528400	-21.184630
1016.873198	-21.235257
1017.218231	-21.232636
1017.563498	-21.151555
1017.908999	-21.060633
1018.254735	-21.037888
1018.600707	-21.081804
1018.946913	-21.112848
1019.293354	-21.065893
1019.640032	-20.970120
1019.986945	-20.911970
1020.334094	-20.932400
1020.681480	-20.981502
1021.029102	-20.975777
1021.376961	-20.898741
1021.725058	-20.820394
1022.073391	-20.809704
1022.421962	-20.855335
1022.770772	-20.880288
1023.119819	-20.834558
1023.469104	-20.756985
1023.818628	-20.723107
1024.168391	-20.753482
1024.518393	-20.791380
1024.868634	-20.772082
1025.219115	-20.705221
1025.569836	-20.660131
1025.920796	-20.677068
1026.271997	-20.719205
1026.623438	-20.718009
1026.975121	-20.660963
1027.327044	-20.608299
1027.679208	-20.614033
1028.031614	-20.658904
1028.384262	-20.673582
1028.737152	-20.626233
1029.090284	-20.565280
1029.443659	-20.555739
1029.797276	-20.597787
1030.151137	-20.626448
1030.505240	-20.592790
1030.859587	-20.527524
1031.214178	-20.500034
1031.569013	-20.529655
1031.924093	-20.563508
1032.279417	-20.543482
1032.634985	-20.481480
1032.990799	-20.441817
1033.346858	-20.455729
1033.703162	-20.484126
1034.059712	-20.470021
1034.416509	-20.413987
1034.773551	-20.370892
1035.130841	-20.374519
1035.488377	-20.394216
1035.846160	-20.377462
1036.204190	-20.322645
1036.562468	-20.279648
1036.920994	-20.279919
1037.279768	-20.294238
1037.638790	-20.272214
1037.998061	-20.213692
1038.357581	-20.169519
1038.717350	-20.170273
1039.077368	-20.184294
1039.437636	-20.159406
1039.798154	-20.096843
1040.158922	-20.051069
1040.519940	-20.054104
1040.881209	-20.070991
1041.242729	-20.046194
1041.604501	-19.981538
1041.966524	-19.935751
1042.328798	-19.942555
1042.691325	-19.963761
1043.054103	-19.939812
1043.417135	-19.873883
1043.780419	-19.829845
1044.143956	-19.842853
1044.507746	-19.870147
1044.871791	-19.847329
1045.236088	-19.779943
1045.600641	-19.737835
1045.965447	-19.758397
1046.330508	-19.793748
1046.695824	-19.773608
1047.061395	-19.704851
1047.427222	-19.663872
1047.793304	-19.690649
1048.159642	-19.733477
1048.526237	-19.717181
1048.893088	-19.649372
1049.260196	-19.610076
1049.627561	-19.639888
1049.995183	-19.684893
1050.363063	-19.669807
1050.731201	-19.604910
1051.099597	-19.570262
1051.468251	-19.601405
1051.837164	-19.641587
1052.206336	-19.621270
1052.575767	-19.558732
1052.945458	-19.531627
1053.315409	-19.564758
1053.685619	-19.595769
1054.056090	-19.564425
1054.426821	-19.501388
1054.797814	-19.482341
1055.169067	-19.517819
1055.540582	-19.537944
1055.912359	-19.492905
1056.284398	-19.427069
1056.656698	-19.413201
1057.029262	-19.447845
1057.402088	-19.455704
1057.775177	-19.398282
1058.148530	-19.330482
1058.522146	-19.318670
1058.896027	-19.346912
1059.270171	-19.341170
1059.644580	-19.276426
1060.019254	-19.211407
1060.394193	-19.200015
1060.769397	-19.216770
1061.144867	-19.197065
1061.520602	-19.131099
1061.896604	-19.074374
1062.272872	-19.062604
1062.649407	-19.064643
1063.026210	-19.032722
1063.403279	-18.972278
1063.780616	-18.928146
1064.158221	-18.915381
1064.536094	-18.902375
1064.914235	-18.863160
1065.292645	-18.814503
1065.671325	-18.784411
1066.050273	-18.768654
1066.429491	-18.742632
1066.808979	-18.703026
1067.188738	-18.669995
1067.568766	-18.650833
1067.949066	-18.628879
1068.329636	-18.594408
1068.710478	-18.562421
1069.091592	-18.546088
1069.472977	-18.531967
1069.854635	-18.502091
1070.236565	-18.466902
1070.618768	-18.450250
1071.001243	-18.448169
1071.383993	-18.432048
1071.767016	-18.395788
1072.150313	-18.369527
1072.533884	-18.371844
1072.917730	-18.376315
1073.301850	-18.351408
1073.686246	-18.313689
1074.070917	-18.304372
1074.455864	-18.322100
1074.841087	-18.321113
1075.226586	-18.284187
1075.612362	-18.253474
1075.998415	-18.264149
1076.384745	-18.285651
1076.771353	-18.267656
1077.158238	-18.222809
1077.545401	-18.208353
1077.932843	-18.233403
1078.320564	-18.241898
1078.708564	-18.202560
1079.096842	-18.161908
1079.485401	-18.168571
1079.874240	-18.193523
1080.263358	-18.175680
1080.652757	-18.123513
1081.042438	-18.101775
1081.432399	-18.124168
1081.822641	-18.130283
1082.213166	-18.085225
1082.603972	-18.039061
1082.995061	-18.042814
1083.386433	-18.062957
1083.778087	-18.037053
1084.170025	-17.979219
1084.562246	-17.956536
1084.954751	-17.975311
1085.347541	-17.970579
1085.740615	-17.915872
1086.133973	-17.868802
1086.527617	-17.872001
1086.921546	-17.881531
1087.315761	-17.841638
1087.710262	-17.780969
1088.105050	-17.761684
1088.500124	-17.773224
1088.895485	-17.751700
1089.291134	-17.691382
1089.687070	-17.653395
1090.083294	-17.657802
1090.479806	-17.650468
1090.876607	-17.599703
1091.273696	-17.552253
1091.671075	-17.548243
1092.068744	-17.550532
1092.466702	-17.512039
1092.864950	-17.461465
1093.263489	-17.450579
1093.662319	-17.460525
1094.061440	-17.435462
1094.460852	-17.384201
1094.860555	-17.365211
1095.260551	-17.380298
1095.660840	-17.370402
1096.061421	-17.321409
1096.462295	-17.290736
1096.863462	-17.303792
1097.264923	-17.308544
1097.666678	-17.267540
1098.068727	-17.224706
1098.471071	-17.225963
1098.873710	-17.238929
1099.276644	-17.211334
1099.679874	-17.162678
1100.083400	-17.146742
1100.487222	-17.157372
1100.891340	-17.143132
1101.295756	-17.098152
1101.700468	-17.068166
1102.105478	-17.068427
1102.510787	-17.061959
1102.916393	-17.027145
1103.322298	-16.992118
1103.728502	-16.981219
1104.135005	-16.975551
1104.541807	-16.950780
1104.948909	-16.918565
1105.356312	-16.901395
1105.764015	-16.892866
1106.172019	-16.873455
1106.580324	-16.846330
1106.988931	-16.828452
1107.397840	-16.817685
1107.807051	-16.798762
1108.216564	-16.774006
1108.626380	-16.758062
1109.036500	-16.747523
1109.446923	-16.726043
1109.857649	-16.698697
1110.268680	-16.684132
1110.680016	-16.675893
1111.091657	-16.650749
1111.503602	-16.616555
1111.915854	-16.601675
1112.328411	-16.597670
1112.741275	-16.569722
1113.154445	-16.526932
1113.567922	-16.510984
1113.981706	-16.513275
1114.395798	-16.484899
1114.810198	-16.434439
1115.224906	-16.417970
1115.639923	-16.428028
1116.055249	-16.402081
1116.470884	-16.347298
1116.886829	-16.332442
1117.303084	-16.351141
1117.719650	-16.329982
1118.136526	-16.275699
1118.553713	-16.265501
1118.971212	-16.292420
1119.389022	-16.276646
1119.807145	-16.226302
1120.225580	-16.222500
1120.644328	-16.255679
1121.063389	-16.244157
1121.482763	-16.199494
1121.902452	-16.202312
1122.322454	-16.238537
1122.742771	-16.228812
1123.163404	-16.189475
1123.584351	-16.196398
1124.005614	-16.230736
1124.427193	-16.219402
1124.849089	-16.182932
1125.271301	-16.189932
1125.693830	-16.218081
1126.116677	-16.202112
1126.539842	-16.165090
1126.963324	-16.168067
1127.387126	-16.187268
1127.811246	-16.164014
1128.235685	-16.122443
1128.660444	-16.118921
1129.085522	-16.129777
1129.510922	-16.099020
1129.936641	-16.050952
1130.362682	-16.042023
1130.789044	-16.047682
1131.215728	-16.009542
1131.642734	-15.954913
1132.070063	-15.944100
1132.497714	-15.946859
1132.925689	-15.901227
1133.353987	-15.843686
1133.782610	-15.836491
1134.211556	-15.837538
1134.640827	-15.785908
1135.070424	-15.732031
1135.500345	-15.732981
1135.930593	-15.731513
1136.361166	-15.676358
1136.792067	-15.632228
1137.223294	-15.642155
1137.654848	-15.635896
1138.086730	-15.579862
1138.518940	-15.549029
1138.951479	-15.566214
1139.384346	-15.553433
1139.817543	-15.498640
1140.251069	-15.481641
1140.684925	-15.502825
1141.119111	-15.481032
1141.553628	-15.427832
1141.988475	-15.424352
1142.423655	-15.445745
1142.859166	-15.411358
1143.295009	-15.361442
1143.731185	-15.372131
1144.167694	-15.386332
1144.604536	-15.334798
1145.041711	-15.293384
1145.479221	-15.316441
1145.917065	-15.311299
1146.355245	-15.244438
1146.793759	-15.221802
1147.232609	-15.248440
1147.671795	-15.213060
1148.111317	-15.143937
1148.551177	-15.145650
1148.991373	-15.157529
1149.431907	-15.093120
1149.872779	-15.041698
1150.313989	-15.058817
1150.755538	-15.040432
1151.197426	-14.967041
1151.639653	-14.943772
1152.082220	-14.954492
1152.525128	-14.908936
1152.968376	-14.850806
1153.411966	-14.844621
1153.855897	-14.834310
1154.300169	-14.783822
1154.744784	-14.747468
1155.189742	-14.738541
1155.635042	-14.715975
1156.080687	-14.677451
1156.526674	-14.648325
1156.973007	-14.633061
1157.419683	-14.616058
1157.866705	-14.582976
1158.314072	-14.551582
1158.761786	-14.545147
1159.209845	-14.532861
1159.658251	-14.492101
1160.107004	-14.471355
1160.556104	-14.478250
1161.005553	-14.452546
1161.455349	-14.412870
1161.905494	-14.415800
1162.355989	-14.415224
1162.806832	-14.375294
1163.258026	-14.359397
1163.709570	-14.370378
1164.161464	-14.346942
1164.613710	-14.318310
1165.066307	-14.323494
1165.519256	-14.315586
1165.972558	-14.288128
1166.426212	-14.283978
1166.880219	-14.281226
1167.334580	-14.259949
1167.789295	-14.252440
1168.244364	-14.249284
1168.699788	-14.229942
1169.155567	-14.222888
1169.611702	-14.221957
1170.068193	-14.200966
1170.525041	-14.191256
1170.982245	-14.195969
1171.439807	-14.176110
1171.897726	-14.158913
1172.356004	-14.166792
1172.814640	-14.153484
1173.273635	-14.129152
1173.732989	-14.134451
1174.192703	-14.129378
1174.652778	-14.102616
1175.113213	-14.102513
1175.574009	-14.102908
1176.035167	-14.076247
1176.496687	-14.071277
1176.958569	-14.075641
1177.420814	-14.048721
1177.883422	-14.038655
1178.346394	-14.048644
1178.809730	-14.022350
1179.273430	-14.003031
1179.737496	-14.018754
1180.201927	-13.998456
1180.666723	-13.966178
1181.131886	-13.982373
1181.597416	-13.975603
1182.063312	-13.932695
1182.529576	-13.939634
1182.996209	-13.948727
1183.463209	-13.903753
1183.930579	-13.893799
1184.398317	-13.913762
1184.866426	-13.877188
1185.334904	-13.849929
1185.803754	-13.871443
1186.272974	-13.848926
1186.742566	-13.809471
1187.212529	-13.824477
1187.682865	-13.816489
1188.153574	-13.772059
1188.624656	-13.776376
1189.096112	-13.780183
1189.567942	-13.736699
1190.040147	-13.728491
1190.512726	-13.740020
1190.985681	-13.702291
1191.459012	-13.681980
1191.932720	-13.696821
1192.406804	-13.668315
1192.881265	-13.637652
1193.356104	-13.651090
1193.831322	-13.633795
1194.306918	-13.595979
1194.782893	-13.603709
1195.259248	-13.598070
1195.735982	-13.557605
1196.213097	-13.555912
1196.690593	-13.560100
1197.168471	-13.522220
1197.646730	-13.509364
1198.125371	-13.519414
1198.604395	-13.488804
1199.083803	-13.465779
1199.563594	-13.476944
1200.043769	-13.456369
1200.524329	-13.426017
1201.005273	-13.433769
1201.486604	-13.424020
1201.968320	-13.390466
1202.450422	-13.391217
1202.932912	-13.390890
1203.415789	-13.358836
1203.899054	-13.350692
1204.382707	-13.356352
1204.866748	-13.330132
1205.351179	-13.313794
1205.836000	-13.321148
1206.321211	-13.303303
1206.806812	-13.281545
1207.292805	-13.286647
1207.779189	-13.277309
1208.265965	-13.253820
1208.753134	-13.254237
1209.240696	-13.251654
1209.728651	-13.229765
1210.217000	-13.224671
1210.705744	-13.226031
1211.194883	-13.208016
1211.684417	-13.198149
1212.174347	-13.200669
1212.664673	-13.187292
1213.155396	-13.173909
1213.646516	-13.175365
1214.138034	-13.166527
1214.629951	-13.151141
1215.122266	-13.149928
1215.614980	-13.144822
1216.108095	-13.128839
1216.601609	-13.124050
1217.095524	-13.121703
1217.589841	-13.106530
1218.084559	-13.097691
1218.579679	-13.096542
1219.075202	-13.083123
1219.571128	-13.070376
1220.067458	-13.068822
1220.564191	-13.057556
1221.061330	-13.041419
1221.558874	-13.037986
1222.056823	-13.028787
1222.555178	-13.010257
1223.053940	-13.004153
1223.553109	-12.996647
1224.052686	-12.976796
1224.552671	-12.967745
1225.053065	-12.961261
1225.553867	-12.940806
1226.055079	-12.929005
1226.556702	-12.922946
1227.058735	-12.902247
1227.561179	-12.888082
1228.064035	-12.881994
1228.567303	-12.861008
1229.070983	-12.844950
1229.575077	-12.838814
1230.079585	-12.817552
1230.584506	-12.799897
1231.089842	-12.793721
1231.595594	-12.772158
1232.101761	-12.753243
1232.608345	-12.747360
1233.115345	-12.725731
1233.622762	-12.705875
1234.130597	-12.700452
1234.638851	-12.678786
1235.147523	-12.658221
1235.656615	-12.653391
1236.166126	-12.631723
1236.676058	-12.610608
1237.186411	-12.606395
1237.697185	-12.584695
1238.208381	-12.563338
1238.719999	-12.560007
1239.232040	-12.538517
1239.744505	-12.517326
1240.257394	-12.514925
1240.770708	-12.493680
1241.284446	-12.473127
1241.798610	-12.471836
1242.313201	-12.450799
1242.828218	-12.431252
1243.343662	-12.431053
1243.859534	-12.410235
1244.375834	-12.392234
1244.892563	-12.393205
1245.409721	-12.372629
1245.927309	-12.356682
1246.445327	-12.358781
1246.963777	-12.338490
1247.482657	-12.325272
1248.001970	-12.328604
1248.521716	-12.308805
1249.041894	-12.298920
1249.562506	-12.303392
1250.083553	-12.284201
1250.605034	-12.278091
1251.126950	-12.283373
1251.649302	-12.264893
1252.172091	-12.262851
1252.695316	-12.268506
1253.218979	-12.251092
1253.743079	-12.253421
1254.267619	-12.258953
1254.792597	-12.243111
1255.318015	-12.249852
1255.843874	-12.254495
1256.370173	-12.240657
1256.896913	-12.251425
1257.424095	-12.254368
1257.951720	-12.243210
1258.479787	-12.257418
1259.008298	-12.257970
1259.537254	-12.250193
1260.066654	-12.266949
1260.596499	-12.264763
1261.126790	-12.261190
1261.657527	-12.279307
1262.188711	-12.274409
1262.720342	-12.275892
1263.252422	-12.294114
1263.784950	-12.287149
1264.317928	-12.294177
1264.851355	-12.310722
1265.385232	-12.302545
1265.919560	-12.315067
1266.454340	-12.328439
1266.989572	-12.320664
1267.525256	-12.338080
1268.061394	-12.347039
1268.597985	-12.341590
1269.135031	-12.362638
1269.672531	-12.366388
1270.210487	-12.364846
1270.748899	-12.387070
1271.287768	-12.385506
1271.827094	-12.389321
1272.366877	-12.410051
1272.907119	-12.404241
1273.447820	-12.413854
1273.988981	-12.430222
1274.530601	-12.422263
1275.072683	-12.437061
1275.615226	-12.446756
1276.158230	-12.439307
1276.701697	-12.457318
1277.245627	-12.459272
1277.790021	-12.455055
1278.334879	-12.473000
1278.880202	-12.467441
1279.425991	-12.468130
1279.972245	-12.482247
1280.518966	-12.471524
1281.066155	-12.477666
1281.613811	-12.484753
1282.161936	-12.472394
1282.710529	-12.482307
1283.259593	-12.480514
1283.809126	-12.470157
1284.359131	-12.480316
1284.909607	-12.470100
1285.460555	-12.464613
1286.011976	-12.470977
1286.563870	-12.455313
1287.116237	-12.455251
1287.669080	-12.454184
1288.222397	-12.437380
1288.776191	-12.440697
1289.330460	-12.430850
1289.885207	-12.417310
1290.440431	-12.419934
1290.996133	-12.402787
1291.552314	-12.394729
1292.108975	-12.391872
1292.666115	-12.371273
1293.223737	-12.367953
1293.781839	-12.356943
1294.340424	-12.338253
1294.899491	-12.336313
1295.459041	-12.317589
1296.019075	-12.304161
1296.579593	-12.298416
1297.140597	-12.275477
1297.702086	-12.267514
1298.264061	-12.254470
1298.826524	-12.232897
1299.389474	-12.227297
1299.952912	-12.206903
1300.516839	-12.190824
1301.081255	-12.182465
1301.646162	-12.158498
1302.211559	-12.148509
1302.777448	-12.133728
1303.343829	-12.111821
1303.910702	-12.104466
1304.478069	-12.083146
1305.045930	-12.067356
1305.614285	-12.057384
1306.183136	-12.033998
1306.752483	-12.024618
1307.322326	-12.008736
1307.892666	-11.988911
1308.463504	-11.981464
1309.034841	-11.960228
1309.606677	-11.947151
1310.179012	-11.936229
1310.751849	-11.914874
1311.325186	-11.907332
1311.899025	-11.890512
1312.473366	-11.874354
1313.048211	-11.866870
1313.623559	-11.846689
1314.199412	-11.837468
1314.775770	-11.825297
1315.352634	-11.807621
1315.930004	-11.801773
1316.507881	-11.784438
1317.086266	-11.773325
1317.665159	-11.765102
1318.244562	-11.747591
1318.824474	-11.742414
1319.404897	-11.729010
1319.985831	-11.716909
1320.567276	-11.711861
1321.149234	-11.695830
1321.731706	-11.690495
1322.314691	-11.680966
1322.898190	-11.668640
1323.482205	-11.665902
1324.066736	-11.652445
1324.651783	-11.646989
1325.237347	-11.640899
1325.823430	-11.629163
1326.410031	-11.627983
1326.997151	-11.617279
1327.584791	-11.611931
1328.172952	-11.608583
1328.761634	-11.597877
1329.350839	-11.597716
1329.940566	-11.589729
1330.530817	-11.584903
1331.121592	-11.583955
1331.712891	-11.574750
1332.304716	-11.575402
1332.897068	-11.569579
1333.489946	-11.565316
1334.083352	-11.566111
1334.677287	-11.558632
1335.271750	-11.560241
1335.866744	-11.556493
1336.462268	-11.553232
1337.058323	-11.555429
1337.654910	-11.549515
1338.252029	-11.552037
1338.849682	-11.549839
1339.447869	-11.547717
1340.046591	-11.550959
1340.645848	-11.546652
1341.245641	-11.550345
1341.845972	-11.549570
1342.446840	-11.548870
1343.048246	-11.552920
1343.650191	-11.549823
1344.252677	-11.554441
1344.855702	-11.554545
1345.459269	-11.555365
1346.063379	-11.560156
1346.668030	-11.558370
1347.273226	-11.563955
1347.878965	-11.564628
1348.485250	-11.566910
1349.092080	-11.571982
1349.699456	-11.571420
1350.307380	-11.577804
1350.915851	-11.578819
1351.524871	-11.582746
1352.134441	-11.587926
1352.744560	-11.588815
1353.355231	-11.595936
1353.966453	-11.597146
1354.578227	-11.602518
1355.190555	-11.607280
1355.803436	-11.609677
1356.416872	-11.617218
1357.030863	-11.618892
1357.645411	-11.625764
1358.260515	-11.630027
1358.876177	-11.634015
1359.492397	-11.641275
1360.109176	-11.643470
1360.726516	-11.651326
1361.344416	-11.655124
1361.962877	-11.661043
1362.581901	-11.667965
1363.201487	-11.671425
1363.821637	-11.679782
1364.442352	-11.683247
1365.063632	-11.690737
1365.685478	-11.696890
1366.307891	-11.702107
1366.930871	-11.710573
1367.554420	-11.714511
1368.178538	-11.723186
1368.803226	-11.728407
1369.428485	-11.735282
1370.054315	-11.742824
1370.680717	-11.747698
1371.307693	-11.756671
1371.935242	-11.761434
1372.563366	-11.769799
1373.192065	-11.776064
1373.821341	-11.782392
1374.451193	-11.790622
1375.081623	-11.795678
1375.712632	-11.804721
1376.344221	-11.810080
1376.976389	-11.818118
1377.609139	-11.825195
1378.242470	-11.831707
1378.876384	-11.840533
1379.510881	-11.846021
1380.145963	-11.855194
1380.781629	-11.861369
1381.417881	-11.869925
1382.054720	-11.878037
1382.692147	-11.885200
1383.330161	-11.894613
1383.968765	-11.900847
1384.607959	-11.910694
1385.247743	-11.917702
1385.888119	-11.926843
1386.529087	-11.935296
1387.170648	-11.943104
1387.812804	-11.952988
1388.455554	-11.960057
1389.098899	-11.970366
1389.742842	-11.977661
1390.387381	-11.987403
1391.032519	-11.995979
1391.678256	-12.004563
1392.324592	-12.014242
1392.971529	-12.021570
1393.619068	-12.031786
1394.267208	-12.038994
1394.915952	-12.048971
1395.565300	-12.056886
1396.215253	-12.065891
1396.865812	-12.075095
1397.516977	-12.083119
1398.168749	-12.093181
1398.821130	-12.100456
1399.474120	-12.110711
1400.127719	-12.118342
1400.781930	-12.128155
1401.436752	-12.136509
1402.092186	-12.145080
1402.748234	-12.154339
1403.404897	-12.162186
1404.062174	-12.172408
1404.720067	-12.179988
1405.378577	-12.190461
1406.037705	-12.198539
1406.697451	-12.208833
1407.357817	-12.217800
1408.018803	-12.227178
1408.680410	-12.236937
1409.342639	-12.245452
1410.005492	-12.255825
1410.668968	-12.263779
1411.333068	-12.274302
1411.997795	-12.282353
1412.663147	-12.292587
1413.329127	-12.301219
1413.995736	-12.311099
1414.662973	-12.321089
1415.330840	-12.330898
1415.999339	-12.341824
1416.668469	-12.350974
1417.338232	-12.362187
1418.008628	-12.371354
1418.679659	-12.382749
1419.351325	-12.391927
1420.023628	-12.402448
1420.696568	-12.411647
1421.370145	-12.421461
1422.044362	-12.431442
1422.719219	-12.441093
1423.394717	-12.452120
1424.070856	-12.461952
1424.747638	-12.473860
1425.425064	-12.484178
1426.103134	-12.496802
1426.781850	-12.507701
1427.461212	-12.520071
1428.141221	-12.530943
1428.821878	-12.542468
1429.503185	-12.553274
1430.185141	-12.563625
1430.867749	-12.573965
1431.551008	-12.583352
1432.234920	-12.594144
1432.919486	-12.603844
1433.604707	-12.615618
1434.290583	-12.626241
1434.977116	-12.639412
1435.664307	-12.651804
1436.352156	-12.666382
1437.040664	-12.680254
1437.729833	-12.695231
1438.419663	-12.709363
1439.110156	-12.723147
1439.801312	-12.736259
1440.493132	-12.747850
1441.185617	-12.759077
1441.878768	-12.768113
1442.572586	-12.777638
1443.267072	-12.785092
1443.962228	-12.794022
1444.658053	-12.801560
1445.354549	-12.811996
1446.051717	-12.822126
1446.749558	-12.835492
1447.448073	-12.848851
1448.147263	-12.865239
1448.847128	-12.881921
1449.547671	-12.900646
1450.248891	-12.918909
1450.950789	-12.937144
1451.653368	-12.953792
1452.356627	-12.968572
1453.060568	-12.981333
1453.765192	-12.990871
1454.470500	-12.997895
1455.176492	-13.000977
1455.883170	-13.002705
1456.590534	-13.001554
1457.298586	-13.000738
1458.007327	-12.998388
1458.716758	-12.998748
1459.426880	-12.999683
1460.137693	-13.005303
1460.849199	-13.012979
1461.561398	-13.026495
1462.274293	-13.042430
1462.987883	-13.063930
1463.702170	-13.087232
1464.417155	-13.114392
1465.132838	-13.140848
1465.849222	-13.168381
1466.566306	-13.192888
1467.284093	-13.215398
1468.002582	-13.231600
1468.721775	-13.243122
1469.441674	-13.247044
1470.162278	-13.245235
1470.883590	-13.235630
1471.605609	-13.220988
1472.328338	-13.200407
1473.051777	-13.177047
1473.775928	-13.151278
1474.500790	-13.126600
1475.226367	-13.103142
1475.952657	-13.084029
1476.679663	-13.070083
1477.407386	-13.063541
1478.135826	-13.064100
1478.864985	-13.073393
1479.594863	-13.090809
1480.325463	-13.116188
1481.056784	-13.147646
1481.788828	-13.184466
1482.521597	-13.223762
1483.255090	-13.263058
1483.989309	-13.298601
1484.724256	-13.327304
1485.459931	-13.344330
1486.196336	-13.346631
1486.933471	-13.330388
1487.671337	-13.293221
1488.409937	-13.232658
1489.149270	-13.149855
1489.889337	-13.045569
1490.630141	-12.923299
1491.371682	-12.786804
1492.113961	-12.642649
1492.856979	-12.495185
1493.600738	-12.351407
1494.345238	-12.216100
1495.090481	-12.095219
1495.836467	-11.991131
1496.583198	-11.908765
1497.330675	-11.848471
1498.078899	-11.812358
1498.827872	-11.798737
1499.577593	-11.808081
1500.328065	-11.835339
1501.079289	-11.878990
1501.831265	-11.932814
1502.583995	-11.992988
1503.337480	-12.051047
1504.091721	-12.102970
1504.846719	-12.139372
1505.602475	-12.155715
1506.358991	-12.144749
1507.116268	-12.103511
1507.874306	-12.026108
1508.633108	-11.913099
1509.392673	-11.763726
1510.153004	-11.580216
1510.914101	-11.365747
1511.675965	-11.125572
1512.438599	-10.865354
1513.202002	-10.591356
1513.966176	-10.311894
1514.731122	-10.032217
1515.496842	-9.761032
1516.263336	-9.504250
1517.030607	-9.269456
1517.798654	-9.060962
1518.567479	-8.887018
1519.337083	-8.750864
1520.107468	-8.658994
1520.878634	-8.615409
1521.650584	-8.625917
1522.423317	-8.693930
1523.196836	-8.825831
1523.971141	-9.025426
1524.746233	-9.298875
1525.522115	-9.652584
1526.298786	-10.092585
1527.076249	-10.626701
1527.854504	-11.263632
1528.633553	-12.011697
1529.413397	-12.877819
1530.194037	-13.867241
1530.975474	-14.967740
1531.757709	-16.143208
1532.540745	-17.291433
1533.324581	-18.216465
1534.109220	-18.658070
1534.894662	-18.469185
1535.680909	-17.764140
1536.467961	-16.805457
1537.255821	-15.800987
1538.044489	-14.868340
1538.833967	-14.051767
1539.624256	-13.365557
1540.415357	-12.808966
1541.207271	-12.375382
1542.000000	-12.056452
1542.793545	-11.846023
1543.587907	-11.733850
1544.383087	-11.714506
1545.179088	-11.779051
1545.975909	-11.918714
1546.773552	-12.123839
1547.572019	-12.381285
1548.371311	-12.674717
1549.171428	-12.985338
1549.972373	-13.286938
1550.774147	-13.553623
1551.576751	-13.757351
1552.380185	-13.873313
1553.184453	-13.889891
1553.989554	-13.802858
1554.795490	-13.625497
1555.602263	-13.377014
1556.409873	-13.080990
1557.218322	-12.761297
1558.027612	-12.437092
1558.837743	-12.122950
1559.648717	-11.831488
1560.460536	-11.567190
1561.273200	-11.336652
1562.086710	-11.141157
1562.901069	-10.980957
1563.716278	-10.857596
1564.532337	-10.768115
1565.349249	-10.713335
1566.167014	-10.690934
1566.985634	-10.699418
1567.805111	-10.738003
1568.625444	-10.804748
1569.446637	-10.898254
1570.268690	-11.017704
1571.091605	-11.160664
1571.915382	-11.326179
1572.740024	-11.512996
1573.565532	-11.717640
1574.391907	-11.940099
1575.219150	-12.175644
1576.047262	-12.422974
1576.876246	-12.678986
1577.706103	-12.937828
1578.536833	-13.198768
1579.368439	-13.454302
1580.200922	-13.701797
1581.034282	-13.936214
1581.868522	-14.150801
1582.703643	-14.344668
1583.539646	-14.510369
1584.376532	-14.646596
1585.214304	-14.751131
1586.052962	-14.820863
1586.892508	-14.858972
1587.732943	-14.863385
1588.574269	-14.837543
1589.416487	-14.784900
1590.259599	-14.706784
1591.103605	-14.609402
1591.948508	-14.494194
1592.794309	-14.366096
1593.641009	-14.229250
1594.488609	-14.084891
1595.337112	-13.938116
1596.186518	-13.789354
1597.036829	-13.641743
1597.888047	-13.496624
1598.740172	-13.353627
1599.593207	-13.215375
1600.447153	-13.080024
1601.302010	-12.949255
1602.157782	-12.821910
1603.014469	-12.697582
1603.872072	-12.576951
1604.730593	-12.457769
1605.590034	-12.342078
1606.450397	-12.228131
1607.311681	-12.117485
1608.173890	-12.009818
1609.037024	-11.905145
1609.901085	-11.805599
1610.766075	-11.710050
1611.631995	-11.621315
1612.498846	-11.538305
1613.366630	-11.463346
1614.235349	-11.395952
1615.105004	-11.336506
1615.975596	-11.286104
1616.847128	-11.242993
1617.719600	-11.209348
1618.593014	-11.181933
1619.467372	-11.162702
1620.342675	-11.149064
1621.218924	-11.140619
1622.096122	-11.136831
1622.974270	-11.135024
1623.853369	-11.136260
1624.733420	-11.136919
1625.614427	-11.138265
1626.496389	-11.137658
1627.379308	-11.135778
1628.263187	-11.131059
1629.148026	-11.124279
1630.033828	-11.114997
1630.920593	-11.103630
1631.808324	-11.091296
1632.697022	-11.077509
1633.586688	-11.064975
1634.477324	-11.052012
1635.368932	-11.041943
1636.261514	-11.032912
1637.155070	-11.027457
1638.049602	-11.024167
1638.945113	-11.024402
1639.841603	-11.027288
1640.739075	-11.033201
1641.637529	-11.041392
1642.536968	-11.051810
1643.437393	-11.064222
1644.338806	-11.077205
1645.241209	-11.091950
1646.144602	-11.106046
1647.048988	-11.121196
1647.954368	-11.134885
1648.860744	-11.149002
1649.768118	-11.161261
1650.676491	-11.173641
1651.585865	-11.183889
1652.496241	-11.194602
1653.407621	-11.203346
1654.320008	-11.212806
1655.233401	-11.221207
1656.147804	-11.230729
1657.063218	-11.239874
1657.979645	-11.250640
1658.897085	-11.261626
1659.815542	-11.274379
1660.735016	-11.287519
1661.655509	-11.302327
1662.577023	-11.317266
1663.499560	-11.333379
1664.423121	-11.349370
1665.347709	-11.365971
1666.273324	-11.382060
1667.199969	-11.398330
1668.127645	-11.413802
1669.056353	-11.429523
1669.986097	-11.444346
1670.916877	-11.459569
1671.848695	-11.474156
1672.781553	-11.489359
1673.715452	-11.504165
1674.650395	-11.520290
1675.586383	-11.536151
1676.523418	-11.553830
1677.461501	-11.571474
1678.400635	-11.590991
1679.340821	-11.610233
1680.282061	-11.631367
1681.224357	-11.651733
1682.167710	-11.673980
1683.112122	-11.695130
1684.057595	-11.718263
1685.004132	-11.740185
1685.951732	-11.763962
1686.900400	-11.786802
1687.850135	-11.811469
1688.800940	-11.835492
1689.752818	-11.861456
1690.705768	-11.887065
1691.659795	-11.914065
1692.614898	-11.941414
1693.571081	-11.969575
1694.528345	-11.998628
1695.486691	-12.027977
1696.446122	-12.058825
1697.406640	-12.088953
1698.368245	-12.120919
1699.330941	-12.151846
1700.294729	-12.184799
1701.259611	-12.217013
1702.225588	-12.251592
1703.192664	-12.285309
1704.160838	-12.320689
1705.130114	-12.355994
1706.100493	-12.391607
1707.071977	-12.428300
1708.044568	-12.464333
1709.018268	-12.501888
1709.993079	-12.538086
1710.969003	-12.576222
1711.946041	-12.612936
1712.924196	-12.651466
1713.903469	-12.689364
1714.883862	-12.727793
1715.865378	-12.766649
1716.848017	-12.804543
1717.831783	-12.843873
1718.816677	-12.881472
1719.802701	-12.920833
1720.789857	-12.958813
1721.778147	-12.997909
1722.767573	-13.036921
1723.758136	-13.075876
1724.749840	-13.116238
1725.742685	-13.155590
1726.736673	-13.196969
1727.731808	-13.237338
1728.728090	-13.279046
1729.725521	-13.320788
1730.724105	-13.362371
1731.723842	-13.405436
1732.724735	-13.447448
1733.726785	-13.491317
1734.729995	-13.534907
1735.734366	-13.579193
1736.739902	-13.624800
1737.746603	-13.669530
1738.754472	-13.716218
1739.763510	-13.761696
1740.773721	-13.808012
1741.785105	-13.854420
1742.797665	-13.899960
1743.811403	-13.946670
1744.826321	-13.992229
1745.842422	-14.038287
1746.859706	-14.084637
1747.878177	-14.130108
1748.897835	-14.176736
1749.918685	-14.222266
1750.940726	-14.267945
1751.963963	-14.313659
1752.988395	-14.358076
1754.014027	-14.403467
1755.040860	-14.448089
1756.068895	-14.492607
1757.098135	-14.538206
1758.128583	-14.582413
1759.160240	-14.627937
1760.193109	-14.673161
1761.227191	-14.717364
1762.262488	-14.762898
1763.299004	-14.806869
1764.336740	-14.851205
1765.375697	-14.896339
1766.415880	-14.939454
1767.457288	-14.983768
1768.499926	-15.026862
1769.543794	-15.068503
1770.588895	-15.110817
1771.635231	-15.151399
1772.682805	-15.190938
1773.731619	-15.231685
1774.781674	-15.269412
1775.832973	-15.307838
1776.885519	-15.345257
1777.939312	-15.379967
1778.994357	-15.414627
1780.050654	-15.447690
1781.108207	-15.477855
1782.167017	-15.509191
1783.227087	-15.537848
1784.288418	-15.565494
1785.351013	-15.593487
1786.414875	-15.619183
1787.480006	-15.643592
1788.546407	-15.668253
1789.614082	-15.689949
1790.683032	-15.710624
1791.753259	-15.731318
1792.824767	-15.749188
1793.897557	-15.767009
1794.971632	-15.784751
1796.046994	-15.800745
1797.123645	-15.816274
1798.201588	-15.831910
1799.280824	-15.845292
1800.361357	-15.857710
1801.443188	-15.869846
1802.526320	-15.879766
1803.610756	-15.888722
1804.696497	-15.897447
1805.783546	-15.905214
1806.871906	-15.911138
1807.961578	-15.917367
1809.052565	-15.922643
1810.144870	-15.925161
1811.238494	-15.928302
1812.333441	-15.930201
1813.429713	-15.930038
1814.527311	-15.928955
1815.626239	-15.928252
1816.726499	-15.924067
1817.828094	-15.919305
1818.931025	-15.915068
1820.035295	-15.908571
1821.140906	-15.901103
1822.247862	-15.893597
1823.356165	-15.884897
1824.465816	-15.872581
1825.576819	-15.859812
1826.689175	-15.846251
1827.802888	-15.829720
1828.917960	-15.813329
1830.034394	-15.796848
1831.152191	-15.779602
1832.271354	-15.759719
1833.391887	-15.739658
1834.513790	-15.717751
1835.637068	-15.693515
1836.761722	-15.668626
1837.887755	-15.643163
1839.015169	-15.618126
1840.143968	-15.591527
1841.274153	-15.564700
1842.405727	-15.537254
1843.538693	-15.509076
1844.673053	-15.479491
1845.808810	-15.448789
1846.945966	-15.419289
1848.084525	-15.388938
1849.224488	-15.357835
1850.365858	-15.327006
1851.508638	-15.296737
1852.652831	-15.266754
1853.798438	-15.234660
1854.945463	-15.203608
1856.093909	-15.172748
1857.243777	-15.141339
1858.395071	-15.108485
1859.547794	-15.075498
1860.701947	-15.043647
1861.857533	-15.010864
1863.014556	-14.976866
1864.173018	-14.944053
1865.332922	-14.910418
1866.494270	-14.877273
1867.657065	-14.842211
1868.821309	-14.808011
1869.987006	-14.773361
1871.154158	-14.739685
1872.322768	-14.706506
1873.492839	-14.673553
1874.664373	-14.640142
1875.837373	-14.607876
1877.011841	-14.575574
1878.187782	-14.542849
1879.365197	-14.508548
1880.544089	-14.475733
1881.724460	-14.443376
1882.906315	-14.411941
1884.089655	-14.379064
1885.274483	-14.345793
1886.460803	-14.313045
1887.648616	-14.279798
1888.837927	-14.246222
1890.028736	-14.211615
1891.221049	-14.177304
1892.414866	-14.144211
1893.610192	-14.112138
1894.807028	-14.079335
1896.005379	-14.047240
1897.205246	-14.013761
1898.406633	-13.980949
1899.609542	-13.947567
1900.813977	-13.915254
1902.019940	-13.883599
1903.227434	-13.851560
1904.436462	-13.818639
1905.647028	-13.785451
1906.859133	-13.753946
1908.072781	-13.723183
1909.287976	-13.691321
1910.504719	-13.658432
1911.723013	-13.624834
1912.942863	-13.593459
1914.164270	-13.563060
1915.387238	-13.533511
1916.611770	-13.503692
1917.837868	-13.474121
1919.065536	-13.444139
1920.294777	-13.414679
1921.525594	-13.385306
1922.757989	-13.357872
1923.991967	-13.331591
1925.227529	-13.305539
1926.464679	-13.278492
1927.703420	-13.250772
1928.943755	-13.223375
1930.185688	-13.197870
1931.429221	-13.173934
1932.674356	-13.151033
1933.921099	-13.128278
1935.169451	-13.105002
1936.419415	-13.081505
1937.670996	-13.057917
1938.924195	-13.035496
1940.179017	-13.014859
1941.435463	-12.995630
1942.693538	-12.977476
1943.953245	-12.958111
1945.214586	-12.937741
1946.477566	-12.916553
1947.742186	-12.895233
1949.008451	-12.874953
1950.276363	-12.855138
1951.545926	-12.835963
1952.817143	-12.817147
1954.090017	-12.798445
1955.364551	-12.779658
1956.640749	-12.760130
1957.918615	-12.739708
1959.198150	-12.718499
1960.479359	-12.697082
1961.762244	-12.676807
1963.046810	-12.658042
1964.333059	-12.640875
1965.620995	-12.624567
1966.910621	-12.608505
1968.201940	-12.592471
1969.494956	-12.576475
1970.789672	-12.560235
1972.086091	-12.543554
1973.384217	-12.526194
1974.684053	-12.507823
1975.985602	-12.489567
1977.288869	-12.472147
1978.593855	-12.456323
1979.900566	-12.442235
1981.209003	-12.429216
1982.519171	-12.417229
1983.831073	-12.406235
1985.144712	-12.396269
1986.460093	-12.387175
1987.777217	-12.378426
1989.096089	-12.369944
1990.416713	-12.361341
1991.739092	-12.352358
1993.063228	-12.343334
1994.389127	-12.333964
1995.716791	-12.324375
1997.046223	-12.313922
1998.377428	-12.302882
1999.710409	-12.291928
2001.045169	-12.281052
2002.381713	-12.270942
2003.720043	-12.261045
2005.060163	-12.251221
2006.402077	-12.241326
2007.745788	-12.231061
2009.091301	-12.220739
2010.438618	-12.210636
2011.787743	-12.200831
2013.138680	-12.191343
2014.491433	-12.182494
2015.846005	-12.174273
2017.202399	-12.166789
2018.560621	-12.159872
2019.920673	-12.153321
2021.282558	-12.147305
2022.646281	-12.141696
2024.011846	-12.136934
2025.379256	-12.132585
2026.748515	-12.128195
2028.119626	-12.123854
2029.492594	-12.119836
2030.867422	-12.117022
2032.244114	-12.115453
2033.622673	-12.114484
2035.003104	-12.113416
2036.385411	-12.112180
2037.769597	-12.111268
2039.155665	-12.111295
2040.543621	-12.112646
2041.933467	-12.114490
2043.325208	-12.116401
2044.718847	-12.118248
2046.114389	-12.120481
2047.511837	-12.123896
2048.911195	-12.128292
2050.312467	-12.133359
2051.715657	-12.138660
2053.120769	-12.144142
2054.527807	-12.149988
2055.936775	-12.156379
2057.347677	-12.163718
2058.760516	-12.172082
2060.175297	-12.181414
2061.592025	-12.191326
2063.010701	-12.201188
2064.431332	-12.211159
2065.853921	-12.221289
2067.278472	-12.231726
2068.704988	-12.242184
2070.133475	-12.251519
2071.563936	-12.259199
2072.996375	-12.265862
2074.430796	-12.272702
2075.867204	-12.280494
2077.305603	-12.289242
2078.745996	-12.298399
2080.188389	-12.307804
2081.632784	-12.317903
2083.079187	-12.328965
2084.527601	-12.340415
2085.978030	-12.351023
2087.430480	-12.359762
2088.884954	-12.367100
2090.341455	-12.373973
2091.799990	-12.381347
2093.260561	-12.390007
2094.723173	-12.400122
2096.187831	-12.411850
2097.654538	-12.425068
2099.123300	-12.438953
2100.594119	-12.453108
2102.067001	-12.467535
2103.541950	-12.482770
2105.018971	-12.499312
2106.498067	-12.517182
2107.979243	-12.536361
2109.462503	-12.556778
2110.947853	-12.578305
2112.435295	-12.600186
2113.924836	-12.621706
2115.416478	-12.643253
2116.910227	-12.666036
2118.406087	-12.691423
2119.904063	-12.719684
2121.404158	-12.749422
2122.906378	-12.778914
2124.410727	-12.807650
2125.917210	-12.836304
2127.425831	-12.865549
2128.936594	-12.895721
2130.449505	-12.926469
2131.964567	-12.956546
2133.481786	-12.985022
2135.001166	-13.012145
2136.522711	-13.039284
2138.046427	-13.067351
2139.572317	-13.095322
2141.100388	-13.121635
2142.630642	-13.145831
2144.163085	-13.169259
2145.697722	-13.194041
2147.234558	-13.220396
2148.773596	-13.247123
2150.314842	-13.274191
2151.858301	-13.303022
2153.403977	-13.334493
2154.951875	-13.367550
2156.502000	-13.400435
2158.054357	-13.432878
2159.608950	-13.466536
2161.165785	-13.503297
2162.724866	-13.542598
2164.286198	-13.582435
2165.849786	-13.622612
2167.415635	-13.664393
2168.983749	-13.707760
2170.554134	-13.751267
2172.126795	-13.794265
2173.701737	-13.837936
2175.278964	-13.883791
2176.858481	-13.931862
2178.440294	-13.980763
2180.024408	-14.029238
2181.610827	-14.077545
2183.199557	-14.126826
2184.790602	-14.177797
2186.383968	-14.231002
2187.979660	-14.286569
2189.577683	-14.343139
2191.178041	-14.399052
2192.780741	-14.453763
2194.385787	-14.506396
2195.993185	-14.554809
2197.602939	-14.598047
2199.215054	-14.638926
2200.829537	-14.681672
2202.446392	-14.728215
2204.065624	-14.777986
2205.687239	-14.831136
2207.311242	-14.888173
2208.937638	-14.947643
2210.566433	-15.007623
2212.197631	-15.067582
2213.831239	-15.125764
2215.467261	-15.180579
2217.105703	-15.235211
2218.746570	-15.294293
2220.389867	-15.357858
2222.035601	-15.424456
2223.683776	-15.495351
2225.334398	-15.571317
2226.987472	-15.651290
2228.643004	-15.733886
2230.300999	-15.815968
2231.961463	-15.893697
2233.624402	-15.967439
2235.289820	-16.039629
2236.957723	-16.109694
2238.628118	-16.176334
2240.301009	-16.239441
2241.976402	-16.300253
2243.654303	-16.363282
2245.334717	-16.430667
2247.017650	-16.499553
2248.703108	-16.570242
2250.391096	-16.645566
2252.081620	-16.725728
2253.774686	-16.810831
2255.470300	-16.898545
2257.168467	-16.985769
2258.869193	-17.076727
2260.572484	-17.173373
2262.278345	-17.269688
2263.986783	-17.364674
2265.697804	-17.459756
2267.411412	-17.554832
2269.127615	-17.652352
2270.846417	-17.749486
2272.567826	-17.843886
2274.291846	-17.938457
2276.018484	-18.032192
2277.747745	-18.124560
2279.479637	-18.213725
2281.214164	-18.297634
2282.951333	-18.383011
2284.691149	-18.472606
2286.433619	-18.561477
2288.178750	-18.646009
2289.926546	-18.729745
2291.677014	-18.820429
2293.430161	-18.915593
2295.185992	-19.011508
2296.944513	-19.107358
2298.705732	-19.203959
2300.469653	-19.305539
2302.236283	-19.407669
2304.005629	-19.511540
2305.777696	-19.617803
2307.552492	-19.727237
2309.330022	-19.848349
2311.110292	-19.976780
2312.893310	-20.112181
2314.679080	-20.253624
2316.467611	-20.402340
2318.258907	-20.554812
2320.052976	-20.700148
2321.849824	-20.838435
2323.649457	-20.964480
2325.451883	-21.080696
2327.257106	-21.185206
2329.065135	-21.282856
2330.875975	-21.374682
2332.689633	-21.465389
2334.506116	-21.565268
2336.325430	-21.672763
2338.147581	-21.786188
2339.972578	-21.901668
2341.800425	-22.020029
2343.631130	-22.133207
2345.464700	-22.241235
2347.301141	-22.348041
2349.140461	-22.462407
2350.982665	-22.580998
2352.827760	-22.708637
2354.675754	-22.842314
2356.526653	-22.981765
2358.380464	-23.118413
2360.237195	-23.259174
2362.096851	-23.405831
2363.959440	-23.558852
2365.824968	-23.706994
2367.693444	-23.857482
2369.564873	-24.014598
2371.439263	-24.180687
2373.316620	-24.337946
2375.196953	-24.491847
2377.080267	-24.647693
2378.966570	-24.812701
2380.855869	-24.966482
2382.748171	-25.116644
2384.643484	-25.267282
2386.541815	-25.424669
2388.443170	-25.572123
2390.347557	-25.711842
2392.254984	-25.850748
2394.165457	-25.996708
2396.078984	-26.137464
2397.995572	-26.259799
2399.915229	-26.381863
2401.837961	-26.510518
2403.763777	-26.636726
2405.692684	-26.742173
2407.624689	-26.853905
2409.559800	-26.978531
2411.498023	-27.104200
2413.439368	-27.221164
2415.383840	-27.344993
2417.331449	-27.496439
2419.282201	-27.651382
2421.236104	-27.798152
2423.193165	-27.952774
2425.153393	-28.137864
2427.116795	-28.325329
2429.083378	-28.494527
2431.053151	-28.685957
2433.026121	-28.897995
2435.002297	-29.100664
2436.981685	-29.294408
2438.964293	-29.501792
2440.950131	-29.721932
2442.939204	-29.921334
2444.931522	-30.103321
2446.927092	-30.287438
2448.925923	-30.478026
2450.928022	-30.656606
2452.933397	-30.810306
2454.942056	-30.980653
2456.954008	-31.163098
2458.969260	-31.306600
2460.987821	-31.441745
2463.009699	-31.599501
2465.034902	-31.746515
2467.063437	-31.874105
2469.095315	-31.992496
2471.130542	-32.104221
2473.169127	-32.210246
2475.211078	-32.302163
2477.256404	-32.396003
2479.305112	-32.508031
2481.357212	-32.612822
2483.412713	-32.719288
2485.471621	-32.862126
2487.533946	-33.031007
2489.599696	-33.210194
2491.668880	-33.405500
2493.741507	-33.620866
2495.817585	-33.854611
2497.897122	-34.098509
2499.980127	-34.347460
2502.066609	-34.615249
2504.156578	-34.891203
2506.250040	-35.152559
2508.347006	-35.416010
2510.447483	-35.689116
2512.551482	-35.945724
2514.659010	-36.191870
2516.770076	-36.435074
2518.884690	-36.669219
2521.002861	-36.878472
2523.124597	-37.061362
2525.249907	-37.255516
2527.378801	-37.435500
2529.511287	-37.570141
2531.647375	-37.725124
2533.787074	-37.857730
2535.930393	-37.923796
2538.077340	-38.007868
2540.227927	-38.091033
2542.382160	-38.121025
2544.540051	-38.138155
2546.701608	-38.170227
2548.866840	-38.225303
2551.035757	-38.256633
2553.208369	-38.291104
2555.384684	-38.406013
2557.564713	-38.522873
2559.748465	-38.652858
2561.935948	-38.871909
2564.127174	-39.103879
2566.322152	-39.360863
2568.520890	-39.691055
2570.723399	-40.035388
2572.929689	-40.383158
2575.139769	-40.728422
2577.353649	-41.116020
2579.571340	-41.530989
2581.792849	-41.885271
2584.018189	-42.294944
2586.247368	-42.690812
2588.480396	-43.010439
2590.717284	-43.416701
2592.958041	-43.791909
2595.202678	-44.123695
2597.451204	-44.438577
2599.703630	-44.714744
2601.959966	-44.942912
2604.220222	-45.052198
2606.484408	-45.144173
2608.752535	-45.169291
2611.024612	-45.079003
2613.300651	-44.999154
2615.580661	-44.890227
2617.864653	-44.728719
2620.152638	-44.572522
2622.444625	-44.415372
2624.740626	-44.308149
2627.040651	-44.194015
2629.344710	-44.104800
2631.652814	-44.105967
2633.964974	-44.145548
2636.281200	-44.249718
2638.601504	-44.455748
2640.925896	-44.762869
2643.254386	-45.090755
2645.586987	-45.423390
2647.923707	-45.821759
2650.264559	-46.189187
2652.609554	-46.577407
2654.958702	-47.049453
2657.312015	-47.499609
2659.669503	-48.021382
2662.031178	-48.597006
2664.397051	-49.234798
2666.767132	-49.879894
2669.141434	-50.649655
2671.519968	-51.535478
2673.902745	-52.346778
2676.289776	-53.212310
2678.681072	-53.839095
2681.076646	-54.518503
2683.476508	-55.106673
2685.880671	-55.152631
2688.289145	-54.870144
2690.701942	-54.471483
2693.119075	-53.792347
2695.540554	-53.102412
2697.966391	-52.492297
2700.396599	-51.696105
2702.831189	-51.230477
2705.270172	-50.872404
2707.713561	-50.461196
2710.161368	-50.294485
2712.613605	-50.250381
2715.070283	-50.219012
2717.531416	-50.355645
2719.997014	-50.561350
2722.467090	-50.666647
2724.941657	-50.909086
2727.420726	-51.185134
2729.904310	-51.409929
2732.392421	-51.621351
2734.885072	-51.706891
2737.382275	-52.061518
2739.884042	-52.516600
2742.390387	-52.727892
2744.901321	-53.285053
2747.416857	-54.035125
2749.937008	-54.673715
2752.461787	-55.728888
2754.991206	-56.726533
2757.525279	-57.526609
2760.064017	-59.677916
2762.607434	-61.301893
2765.155544	-62.911725
2767.708358	-67.249662
2770.265890	-70.292927
2772.828153	-73.746152
2775.395160	-67.954747
2777.966924	-64.863041
2780.543459	-63.472039
2783.124778	-60.919249
2785.710894	-60.304108
2788.301821	-59.621676
2790.897572	-58.584209
2793.498160	-58.975124
2796.103599	-58.352085
2798.713903	-58.221457
2801.329085	-59.236653
2803.949159	-58.400607
2806.574139	-58.388801
2809.204038	-58.656868
2811.838871	-57.696993
2814.478650	-57.738978
2817.123391	-57.224538
2819.773107	-56.825097
2822.427812	-57.258443
2825.087521	-56.971629
2827.752247	-57.110931
2830.422005	-57.732312
2833.096808	-57.685804
2835.776672	-58.127839
2838.461611	-58.807392
2841.151638	-59.220965
2843.846769	-60.058985
2846.547019	-61.437888
2849.252401	-62.596483
2851.962930	-64.055338
2854.678621	-67.069032
2857.399489	-70.319005
2860.125549	-75.260465
2862.856815	-81.983583
2865.593302	-81.654592
2868.335026	-77.339133
2871.082002	-73.268452
2873.834244	-72.823861
2876.591767	-71.883848
2879.354588	-72.333918
2882.122721	-73.761393
2884.896181	-74.896100
2887.674984	-76.496981
2890.459146	-75.695325
2893.248681	-73.277582
2896.043606	-71.372972
2898.843937	-67.537532
2901.649687	-66.412240
2904.460875	-65.653622
2907.277515	-64.811203
2910.099623	-63.734955
2912.927215	-64.406009
2915.760308	-63.219494
2918.598916	-63.085470
2921.443057	-62.824790
2924.292747	-62.950987
2927.148002	-62.532802
2930.008837	-63.317738
2932.875270	-63.492117
2935.747318	-65.308459
2938.624995	-66.207933
2941.508320	-67.547077
2944.397308	-69.360879
2947.291977	-73.264316
2950.192343	-77.305914
2953.098423	-77.678710
2956.010234	-79.976745
2958.927792	-76.205071
2961.851116	-73.859102
2964.780221	-72.742920
2967.715126	-71.803836
2970.655847	-71.326795
2973.602402	-72.093543
2976.554808	-71.816721
2979.513083	-74.797247
2982.477243	-75.690872
2985.447308	-74.662674
2988.423293	-77.696632
2991.405218	-86.725581
2994.393099	-81.504331
2997.386955	-77.940728
