# 2022-03-21_12.32.38
# shape = sech2
# FWHM_ps = 0.1
# carrier_nm = 1542
# frep_MHz = 12126
# pow_mW = 8000
# GDD = 0.0
# propa_len = 0.1
# untap_len = 0.01
# taper_len = 0.03
# waist_len = 0.02
# uptap_len = 0.02
# untap_scale = 1.0
# waist_scale = 0.3
# workingDir = NL_20110305_12 (Spirou)
# axis = slow
# window_ps = 10.0
# steps = 200
# points = 13000
# 
# wavelength [nm]	 power spectral density [dB]
1000.248639	-21.122507
1000.582480	-21.037016
1000.916545	-20.954265
1001.250832	-20.871296
1001.585343	-20.788076
1001.920077	-20.704603
1002.255035	-20.620898
1002.590218	-20.537017
1002.925624	-20.453039
1003.261255	-20.369053
1003.597111	-20.285164
1003.933192	-20.201502
1004.269497	-20.118202
1004.606029	-20.035363
1004.942785	-19.953065
1005.279768	-19.871386
1005.616977	-19.790396
1005.954412	-19.710138
1006.292074	-19.630614
1006.629962	-19.551805
1006.968077	-19.473678
1007.306420	-19.396204
1007.644990	-19.319349
1007.983787	-19.243058
1008.322813	-19.167261
1008.662067	-19.091899
1009.001549	-19.016931
1009.341259	-18.942335
1009.681199	-18.868121
1010.021367	-18.794325
1010.361765	-18.720986
1010.702392	-18.648132
1011.043250	-18.575805
1011.384337	-18.504060
1011.725654	-18.432939
1012.067202	-18.362475
1012.408980	-18.292699
1012.750989	-18.223643
1013.093230	-18.155330
1013.435702	-18.087777
1013.778405	-18.020983
1014.121341	-17.954937
1014.464508	-17.889621
1014.807908	-17.825009
1015.151540	-17.761063
1015.495405	-17.697747
1015.839503	-17.635040
1016.183835	-17.572923
1016.528400	-17.511364
1016.873198	-17.450320
1017.218231	-17.389751
1017.563498	-17.329655
1017.908999	-17.270052
1018.254735	-17.210958
1018.600707	-17.152370
1018.946913	-17.094278
1019.293354	-17.036670
1019.640032	-16.979555
1019.986945	-16.922965
1020.334094	-16.866929
1020.681480	-16.811460
1021.029102	-16.756567
1021.376961	-16.702264
1021.725058	-16.648569
1022.073391	-16.595506
1022.421962	-16.543095
1022.770772	-16.491349
1023.119819	-16.440276
1023.469104	-16.389878
1023.818628	-16.340136
1024.168391	-16.291041
1024.518393	-16.242601
1024.868634	-16.194822
1025.219115	-16.147698
1025.569836	-16.101201
1025.920796	-16.055288
1026.271997	-16.009915
1026.623438	-15.965052
1026.975121	-15.920676
1027.327044	-15.876764
1027.679208	-15.833298
1028.031614	-15.790272
1028.384262	-15.747691
1028.737152	-15.705578
1029.090284	-15.663958
1029.443659	-15.622854
1029.797276	-15.582313
1030.151137	-15.542410
1030.505240	-15.503219
1030.859587	-15.464803
1031.214178	-15.427220
1031.569013	-15.390531
1031.924093	-15.354797
1032.279417	-15.320066
1032.634985	-15.286332
1032.990799	-15.253541
1033.346858	-15.221631
1033.703162	-15.190541
1034.059712	-15.160209
1034.416509	-15.130561
1034.773551	-15.101512
1035.130841	-15.072962
1035.488377	-15.044814
1035.846160	-15.016993
1036.204190	-14.989451
1036.562468	-14.962186
1036.920994	-14.935238
1037.279768	-14.908685
1037.638790	-14.882623
1037.998061	-14.857160
1038.357581	-14.832406
1038.717350	-14.808471
1039.077368	-14.785444
1039.437636	-14.763397
1039.798154	-14.742390
1040.158922	-14.722464
1040.519940	-14.703647
1040.881209	-14.685937
1041.242729	-14.669299
1041.604501	-14.653668
1041.966524	-14.638966
1042.328798	-14.625082
1042.691325	-14.611884
1043.054103	-14.599231
1043.417135	-14.587001
1043.780419	-14.575090
1044.143956	-14.563397
1044.507746	-14.551827
1044.871791	-14.540316
1045.236088	-14.528847
1045.600641	-14.517429
1045.965447	-14.506102
1046.330508	-14.494956
1046.695824	-14.484133
1047.061395	-14.473810
1047.427222	-14.464164
1047.793304	-14.455355
1048.159642	-14.447511
1048.526237	-14.440744
1048.893088	-14.435142
1049.260196	-14.430762
1049.627561	-14.427621
1049.995183	-14.425673
1050.363063	-14.424804
1050.731201	-14.424839
1051.099597	-14.425558
1051.468251	-14.426726
1051.837164	-14.428108
1052.206336	-14.429483
1052.575767	-14.430681
1052.945458	-14.431603
1053.315409	-14.432205
1053.685619	-14.432492
1054.056090	-14.432513
1054.426821	-14.432370
1054.797814	-14.432216
1055.169067	-14.432220
1055.540582	-14.432556
1055.912359	-14.433409
1056.284398	-14.434969
1056.656698	-14.437401
1057.029262	-14.440830
1057.402088	-14.445341
1057.775177	-14.451002
1058.148530	-14.457844
1058.522146	-14.465851
1058.896027	-14.474963
1059.270171	-14.485108
1059.644580	-14.496178
1060.019254	-14.508006
1060.394193	-14.520399
1060.769397	-14.533164
1061.144867	-14.546090
1061.520602	-14.558976
1061.896604	-14.571669
1062.272872	-14.584081
1062.649407	-14.596148
1063.026210	-14.607827
1063.403279	-14.619118
1063.780616	-14.630104
1064.158221	-14.640940
1064.536094	-14.651840
1064.914235	-14.663062
1065.292645	-14.674891
1065.671325	-14.687614
1066.050273	-14.701482
1066.429491	-14.716690
1066.808979	-14.733381
1067.188738	-14.751639
1067.568766	-14.771478
1067.949066	-14.792836
1068.329636	-14.815591
1068.710478	-14.839562
1069.091592	-14.864502
1069.472977	-14.890126
1069.854635	-14.916167
1070.236565	-14.942385
1070.618768	-14.968563
1071.001243	-14.994520
1071.383993	-15.020137
1071.767016	-15.045340
1072.150313	-15.070075
1072.533884	-15.094325
1072.917730	-15.118143
1073.301850	-15.141635
1073.686246	-15.164953
1074.070917	-15.188291
1074.455864	-15.211863
1074.841087	-15.235900
1075.226586	-15.260657
1075.612362	-15.286394
1075.998415	-15.313316
1076.384745	-15.341563
1076.771353	-15.371227
1077.158238	-15.402359
1077.545401	-15.434933
1077.932843	-15.468840
1078.320564	-15.503913
1078.708564	-15.539954
1079.096842	-15.576734
1079.485401	-15.614013
1079.874240	-15.651554
1080.263358	-15.689129
1080.652757	-15.726516
1081.042438	-15.763471
1081.432399	-15.799749
1081.822641	-15.835167
1082.213166	-15.869640
1082.603972	-15.903172
1082.995061	-15.935827
1083.386433	-15.967759
1083.778087	-15.999238
1084.170025	-16.030610
1084.562246	-16.062244
1084.954751	-16.094486
1085.347541	-16.127612
1085.740615	-16.161816
1086.133973	-16.197199
1086.527617	-16.233796
1086.921546	-16.271601
1087.315761	-16.310568
1087.710262	-16.350644
1088.105050	-16.391820
1088.500124	-16.434112
1088.895485	-16.477492
1089.291134	-16.521859
1089.687070	-16.567001
1090.083294	-16.612584
1090.479806	-16.658196
1090.876607	-16.703420
1091.273696	-16.747868
1091.671075	-16.791220
1092.068744	-16.833292
1092.466702	-16.874073
1092.864950	-16.913699
1093.263489	-16.952408
1093.662319	-16.990484
1094.061440	-17.028185
1094.460852	-17.065680
1094.860555	-17.103070
1095.260551	-17.140475
1095.660840	-17.178038
1096.061421	-17.215934
1096.462295	-17.254408
1096.863462	-17.293807
1097.264923	-17.334532
1097.666678	-17.376924
1098.068727	-17.421164
1098.471071	-17.467238
1098.873710	-17.514980
1099.276644	-17.564104
1099.679874	-17.614238
1100.083400	-17.664999
1100.487222	-17.716094
1100.891340	-17.767356
1101.295756	-17.818652
1101.700468	-17.869839
1102.105478	-17.920822
1102.510787	-17.971486
1102.916393	-18.021606
1103.322298	-18.070879
1103.728502	-18.119016
1104.135005	-18.165822
1104.541807	-18.211287
1104.948909	-18.255610
1105.356312	-18.299125
1105.764015	-18.342240
1106.172019	-18.385379
1106.580324	-18.428940
1106.988931	-18.473262
1107.397840	-18.518551
1107.807051	-18.564858
1108.216564	-18.612208
1108.626380	-18.660695
1109.036500	-18.710481
1109.446923	-18.761698
1109.857649	-18.814458
1110.268680	-18.868907
1110.680016	-18.925127
1111.091657	-18.982966
1111.503602	-19.042054
1111.915854	-19.101959
1112.328411	-19.162274
1112.741275	-19.222625
1113.154445	-19.282651
1113.567922	-19.342025
1113.981706	-19.400539
1114.395798	-19.458135
1114.810198	-19.514783
1115.224906	-19.570382
1115.639923	-19.624803
1116.055249	-19.677984
1116.470884	-19.729935
1116.886829	-19.780676
1117.303084	-19.830313
1117.719650	-19.879133
1118.136526	-19.927539
1118.553713	-19.975973
1118.971212	-20.024892
1119.389022	-20.074649
1119.807145	-20.125446
1120.225580	-20.177444
1120.644328	-20.230817
1121.063389	-20.285730
1121.482763	-20.342260
1121.902452	-20.400381
1122.322454	-20.460122
1122.742771	-20.521588
1123.163404	-20.584741
1123.584351	-20.649330
1124.005614	-20.715019
1124.427193	-20.781498
1124.849089	-20.848488
1125.271301	-20.915640
1125.693830	-20.982522
1126.116677	-21.048779
1126.539842	-21.114269
1126.963324	-21.178878
1127.387126	-21.242434
1127.811246	-21.304815
1128.235685	-21.365894
1128.660444	-21.425557
1129.085522	-21.483790
1129.510922	-21.540682
1129.936641	-21.596386
1130.362682	-21.651112
1130.789044	-21.705121
1131.215728	-21.758678
1131.642734	-21.812060
1132.070063	-21.865587
1132.497714	-21.919571
1132.925689	-21.974204
1133.353987	-22.029556
1133.782610	-22.085662
1134.211556	-22.142641
1134.640827	-22.200658
1135.070424	-22.259843
1135.500345	-22.320239
1135.930593	-22.381690
1136.361166	-22.443952
1136.792067	-22.506872
1137.223294	-22.570249
1137.654848	-22.633724
1138.086730	-22.697016
1138.518940	-22.759945
1138.951479	-22.822224
1139.384346	-22.883595
1139.817543	-22.943933
1140.251069	-23.003032
1140.684925	-23.060597
1141.119111	-23.116350
1141.553628	-23.170144
1141.988475	-23.222047
1142.423655	-23.272174
1142.859166	-23.320501
1143.295009	-23.367005
1143.731185	-23.411803
1144.167694	-23.455173
1144.604536	-23.497366
1145.041711	-23.538433
1145.479221	-23.578433
1145.917065	-23.617663
1146.355245	-23.656497
1146.793759	-23.695210
1147.232609	-23.733975
1147.671795	-23.772885
1148.111317	-23.812068
1148.551177	-23.851670
1148.991373	-23.891804
1149.431907	-23.932567
1149.872779	-23.973976
1150.313989	-24.015965
1150.755538	-24.058548
1151.197426	-24.101787
1151.639653	-24.145621
1152.082220	-24.189876
1152.525128	-24.234224
1152.968376	-24.278334
1153.411966	-24.322165
1153.855897	-24.365808
1154.300169	-24.409191
1154.744784	-24.451995
1155.189742	-24.493854
1155.635042	-24.534582
1156.080687	-24.574105
1156.526674	-24.612327
1156.973007	-24.649101
1157.419683	-24.684246
1157.866705	-24.717665
1158.314072	-24.749376
1158.761786	-24.779400
1159.209845	-24.807763
1159.658251	-24.834505
1160.107004	-24.859543
1160.556104	-24.882802
1161.005553	-24.904346
1161.455349	-24.924403
1161.905494	-24.943289
1162.355989	-24.961100
1162.806832	-24.977804
1163.258026	-24.993536
1163.709570	-25.008464
1164.161464	-25.022599
1164.613710	-25.035931
1165.066307	-25.048599
1165.519256	-25.060872
1165.972558	-25.072901
1166.426212	-25.084603
1166.880219	-25.095943
1167.334580	-25.106921
1167.789295	-25.117421
1168.244364	-25.127281
1168.699788	-25.136304
1169.155567	-25.144501
1169.611702	-25.151973
1170.068193	-25.158653
1170.525041	-25.164394
1170.982245	-25.168745
1171.439807	-25.171186
1171.897726	-25.171528
1172.356004	-25.169701
1172.814640	-25.165670
1173.273635	-25.159356
1173.732989	-25.150579
1174.192703	-25.139246
1174.652778	-25.125132
1175.113213	-25.107895
1175.574009	-25.087306
1176.035167	-25.063231
1176.496687	-25.035878
1176.958569	-25.005756
1177.420814	-24.973132
1177.883422	-24.937991
1178.346394	-24.900271
1178.809730	-24.859941
1179.273430	-24.817126
1179.737496	-24.772106
1180.201927	-24.725377
1180.666723	-24.677575
1181.131886	-24.629175
1181.597416	-24.580269
1182.063312	-24.530684
1182.529576	-24.480547
1182.996209	-24.430183
1183.463209	-24.379780
1183.930579	-24.329825
1184.398317	-24.280860
1184.866426	-24.232945
1185.334904	-24.185862
1185.803754	-24.139362
1186.272974	-24.093271
1186.742566	-24.047518
1187.212529	-24.002237
1187.682865	-23.957768
1188.153574	-23.914132
1188.624656	-23.870851
1189.096112	-23.827338
1189.567942	-23.783212
1190.040147	-23.738230
1190.512726	-23.692198
1190.985681	-23.645234
1191.459012	-23.597435
1191.932720	-23.548413
1192.406804	-23.497619
1192.881265	-23.444618
1193.356104	-23.389146
1193.831322	-23.331094
1194.306918	-23.270610
1194.782893	-23.208044
1195.259248	-23.143453
1195.735982	-23.076552
1196.213097	-23.007092
1196.690593	-22.935053
1197.168471	-22.860670
1197.646730	-22.784360
1198.125371	-22.706624
1198.604395	-22.627819
1199.083803	-22.547956
1199.563594	-22.467012
1200.043769	-22.385174
1200.524329	-22.302785
1201.005273	-22.220225
1201.486604	-22.137932
1201.968320	-22.056316
1202.450422	-21.975515
1202.932912	-21.895503
1203.415789	-21.816361
1203.899054	-21.738252
1204.382707	-21.661380
1204.866748	-21.585969
1205.351179	-21.512190
1205.836000	-21.439985
1206.321211	-21.369166
1206.806812	-21.299634
1207.292805	-21.231249
1207.779189	-21.163938
1208.265965	-21.097779
1208.753134	-21.032773
1209.240696	-20.968663
1209.728651	-20.905028
1210.217000	-20.841514
1210.705744	-20.777888
1211.194883	-20.714014
1211.684417	-20.649757
1212.174347	-20.584938
1212.664673	-20.519287
1213.155396	-20.452440
1213.646516	-20.384058
1214.138034	-20.313848
1214.629951	-20.241741
1215.122266	-20.167801
1215.614980	-20.091888
1216.108095	-20.013807
1216.601609	-19.933482
1217.095524	-19.850771
1217.589841	-19.765510
1218.084559	-19.677778
1218.579679	-19.587877
1219.075202	-19.496056
1219.571128	-19.402333
1220.067458	-19.306653
1220.564191	-19.209056
1221.061330	-19.109781
1221.558874	-19.009228
1222.056823	-18.907746
1222.555178	-18.805550
1223.053940	-18.702760
1223.553109	-18.599429
1224.052686	-18.495684
1224.552671	-18.391876
1225.053065	-18.288410
1225.553867	-18.185577
1226.055079	-18.083477
1226.556702	-17.982143
1227.058735	-17.881635
1227.561179	-17.782041
1228.064035	-17.683654
1228.567303	-17.586857
1229.070983	-17.491716
1229.575077	-17.398072
1230.079585	-17.305807
1230.584506	-17.214967
1231.089842	-17.125724
1231.595594	-17.038230
1232.101761	-16.952564
1232.608345	-16.868622
1233.115345	-16.786150
1233.622762	-16.704961
1234.130597	-16.625067
1234.638851	-16.546645
1235.147523	-16.469745
1235.656615	-16.394135
1236.166126	-16.319533
1236.676058	-16.245781
1237.186411	-16.172819
1237.697185	-16.100676
1238.208381	-16.029330
1238.719999	-15.958664
1239.232040	-15.888466
1239.744505	-15.818488
1240.257394	-15.748612
1240.770708	-15.678880
1241.284446	-15.609334
1241.798610	-15.539860
1242.313201	-15.470308
1242.828218	-15.400560
1243.343662	-15.330499
1243.859534	-15.260136
1244.375834	-15.189533
1244.892563	-15.118697
1245.409721	-15.047578
1245.927309	-14.976088
1246.445327	-14.904152
1246.963777	-14.831805
1247.482657	-14.759215
1248.001970	-14.686507
1248.521716	-14.613686
1249.041894	-14.540707
1249.562506	-14.467526
1250.083553	-14.394217
1250.605034	-14.320993
1251.126950	-14.248012
1251.649302	-14.175331
1252.172091	-14.102940
1252.695316	-14.030829
1253.218979	-13.959108
1253.743079	-13.887980
1254.267619	-13.817645
1254.792597	-13.748170
1255.318015	-13.679507
1255.843874	-13.611632
1256.370173	-13.544688
1256.896913	-13.478920
1257.424095	-13.414482
1257.951720	-13.351395
1258.479787	-13.289598
1259.008298	-13.229118
1259.537254	-13.170108
1260.066654	-13.112742
1260.596499	-13.057131
1261.126790	-13.003238
1261.657527	-12.950994
1262.188711	-12.900440
1262.720342	-12.851704
1263.252422	-12.804948
1263.784950	-12.760203
1264.317928	-12.717381
1264.851355	-12.676424
1265.385232	-12.637392
1265.919560	-12.600389
1266.454340	-12.565487
1266.989572	-12.532656
1267.525256	-12.501776
1268.061394	-12.472793
1268.597985	-12.445800
1269.135031	-12.420884
1269.672531	-12.398029
1270.210487	-12.377115
1270.748899	-12.358026
1271.287768	-12.340750
1271.827094	-12.325334
1272.366877	-12.311776
1272.907119	-12.300002
1273.447820	-12.289896
1273.988981	-12.281338
1274.530601	-12.274342
1275.072683	-12.268941
1275.615226	-12.265039
1276.158230	-12.262487
1276.701697	-12.261198
1277.245627	-12.261114
1277.790021	-12.262195
1278.334879	-12.264379
1278.880202	-12.267567
1279.425991	-12.271633
1279.972245	-12.276453
1280.518966	-12.281978
1281.066155	-12.288169
1281.613811	-12.294893
1282.161936	-12.302024
1282.710529	-12.309458
1283.259593	-12.317095
1283.809126	-12.324862
1284.359131	-12.332659
1284.909607	-12.340368
1285.460555	-12.347898
1286.011976	-12.355127
1286.563870	-12.361948
1287.116237	-12.368293
1287.669080	-12.374082
1288.222397	-12.379188
1288.776191	-12.383487
1289.330460	-12.386890
1289.885207	-12.389318
1290.440431	-12.390693
1290.996133	-12.390965
1291.552314	-12.390042
1292.108975	-12.387770
1292.666115	-12.384113
1293.223737	-12.379091
1293.781839	-12.372632
1294.340424	-12.364664
1294.899491	-12.355111
1295.459041	-12.343930
1296.019075	-12.331152
1296.579593	-12.316793
1297.140597	-12.300832
1297.702086	-12.283214
1298.264061	-12.263911
1298.826524	-12.243020
1299.389474	-12.220641
1299.952912	-12.196762
1300.516839	-12.171340
1301.081255	-12.144423
1301.646162	-12.116162
1302.211559	-12.086679
1302.777448	-12.056001
1303.343829	-12.024150
1303.910702	-11.991209
1304.478069	-11.957323
1305.045930	-11.922635
1305.614285	-11.887234
1306.183136	-11.851159
1306.752483	-11.814483
1307.322326	-11.777355
1307.892666	-11.739983
1308.463504	-11.702458
1309.034841	-11.664767
1309.606677	-11.627046
1310.179012	-11.589493
1310.751849	-11.552227
1311.325186	-11.515294
1311.899025	-11.478734
1312.473366	-11.442682
1313.048211	-11.407294
1313.623559	-11.372654
1314.199412	-11.338798
1314.775770	-11.305788
1315.352634	-11.273692
1315.930004	-11.242597
1316.507881	-11.212589
1317.086266	-11.183679
1317.665159	-11.155870
1318.244562	-11.129261
1318.824474	-11.103907
1319.404897	-11.079782
1319.985831	-11.056891
1320.567276	-11.035237
1321.149234	-11.014812
1321.731706	-10.995643
1322.314691	-10.977706
1322.898190	-10.960933
1323.482205	-10.945292
1324.066736	-10.930763
1324.651783	-10.917317
1325.237347	-10.904845
1325.823430	-10.893276
1326.410031	-10.882608
1326.997151	-10.872770
1327.584791	-10.863638
1328.172952	-10.855122
1328.761634	-10.847177
1329.350839	-10.839745
1329.940566	-10.832702
1330.530817	-10.825911
1331.121592	-10.819300
1331.712891	-10.812829
1332.304716	-10.806421
1332.897068	-10.799943
1333.489946	-10.793293
1334.083352	-10.786444
1334.677287	-10.779397
1335.271750	-10.772050
1335.866744	-10.764255
1336.462268	-10.756024
1337.058323	-10.747421
1337.654910	-10.738409
1338.252029	-10.728900
1338.849682	-10.718858
1339.447869	-10.708364
1340.046591	-10.697479
1340.645848	-10.686216
1341.245641	-10.674531
1341.845972	-10.662462
1342.446840	-10.650210
1343.048246	-10.637872
1343.650191	-10.625391
1344.252677	-10.612799
1344.855702	-10.600298
1345.459269	-10.588092
1346.063379	-10.576186
1346.668030	-10.564535
1347.273226	-10.553293
1347.878965	-10.542709
1348.485250	-10.532852
1349.092080	-10.523653
1349.699456	-10.515157
1350.307380	-10.507592
1350.915851	-10.501105
1351.524871	-10.495595
1352.134441	-10.491000
1352.744560	-10.487486
1353.355231	-10.485190
1353.966453	-10.484033
1354.578227	-10.483875
1355.190555	-10.484700
1355.803436	-10.486622
1356.416872	-10.489618
1357.030863	-10.493447
1357.645411	-10.497965
1358.260515	-10.503237
1358.876177	-10.509251
1359.492397	-10.515743
1360.109176	-10.522494
1360.726516	-10.529480
1361.344416	-10.536707
1361.962877	-10.543974
1362.581901	-10.551017
1363.201487	-10.557745
1363.821637	-10.564177
1364.442352	-10.570222
1365.063632	-10.575655
1365.685478	-10.580343
1366.307891	-10.584368
1366.930871	-10.587758
1367.554420	-10.590336
1368.178538	-10.592057
1368.803226	-10.593056
1369.428485	-10.593449
1370.054315	-10.593222
1370.680717	-10.592333
1371.307693	-10.590965
1371.935242	-10.589351
1372.563366	-10.587570
1373.192065	-10.585651
1373.821341	-10.583756
1374.451193	-10.582139
1375.081623	-10.580923
1375.712632	-10.580142
1376.344221	-10.579937
1376.976389	-10.580513
1377.609139	-10.581974
1378.242470	-10.584311
1378.876384	-10.587563
1379.510881	-10.591846
1380.145963	-10.597210
1380.781629	-10.603578
1381.417881	-10.610887
1382.054720	-10.619120
1382.692147	-10.628241
1383.330161	-10.638110
1383.968765	-10.648535
1384.607959	-10.659400
1385.247743	-10.670606
1385.888119	-10.681979
1386.529087	-10.693277
1387.170648	-10.704338
1387.812804	-10.715080
1388.455554	-10.725348
1389.098899	-10.734969
1389.742842	-10.743852
1390.387381	-10.751964
1391.032519	-10.759289
1391.678256	-10.765777
1392.324592	-10.771428
1392.971529	-10.776361
1393.619068	-10.780721
1394.267208	-10.784568
1394.915952	-10.788007
1395.565300	-10.791276
1396.215253	-10.794600
1396.865812	-10.798100
1397.516977	-10.801931
1398.168749	-10.806299
1398.821130	-10.811422
1399.474120	-10.817382
1400.127719	-10.824209
1400.781930	-10.832002
1401.436752	-10.840837
1402.092186	-10.850612
1402.748234	-10.861189
1403.404897	-10.872524
1404.062174	-10.884488
1404.720067	-10.896796
1405.378577	-10.909170
1406.037705	-10.921439
1406.697451	-10.933396
1407.357817	-10.944713
1408.018803	-10.955131
1408.680410	-10.964520
1409.342639	-10.972754
1410.005492	-10.979666
1410.668968	-10.985200
1411.333068	-10.989452
1411.997795	-10.992541
1412.663147	-10.994571
1413.329127	-10.995756
1413.995736	-10.996458
1414.662973	-10.997034
1415.330840	-10.997745
1415.999339	-10.998968
1416.668469	-11.001128
1417.338232	-11.004521
1418.008628	-11.009351
1418.679659	-11.015857
1419.351325	-11.024241
1420.023628	-11.034509
1420.696568	-11.046544
1421.370145	-11.060238
1422.044362	-11.075399
1422.719219	-11.091667
1423.394717	-11.108583
1424.070856	-11.125727
1424.747638	-11.142640
1425.425064	-11.158768
1426.103134	-11.173558
1426.781850	-11.186607
1427.461212	-11.197547
1428.141221	-11.205987
1428.821878	-11.211699
1429.503185	-11.214658
1430.185141	-11.214903
1430.867749	-11.212521
1431.551008	-11.207764
1432.234920	-11.201037
1432.919486	-11.192731
1433.604707	-11.183241
1434.290583	-11.173059
1434.977116	-11.162675
1435.664307	-11.152410
1436.352156	-11.142535
1437.040664	-11.133337
1437.729833	-11.124929
1438.419663	-11.117237
1439.110156	-11.110117
1439.801312	-11.103422
1440.493132	-11.096813
1441.185617	-11.089873
1441.878768	-11.082269
1442.572586	-11.073676
1443.267072	-11.063761
1443.962228	-11.052312
1444.658053	-11.039339
1445.354549	-11.024976
1446.051717	-11.009487
1446.749558	-10.993380
1447.448073	-10.977358
1448.147263	-10.962198
1448.847128	-10.948751
1449.547671	-10.937992
1450.248891	-10.930838
1450.950789	-10.928088
1451.653368	-10.930416
1452.356627	-10.938352
1453.060568	-10.952187
1453.765192	-10.971926
1454.470500	-10.997355
1455.176492	-11.028049
1455.883170	-11.063348
1456.590534	-11.102423
1457.298586	-11.144431
1458.007327	-11.188527
1458.716758	-11.233872
1459.426880	-11.279826
1460.137693	-11.326032
1460.849199	-11.372365
1461.561398	-11.418949
1462.274293	-11.466268
1462.987883	-11.515056
1463.702170	-11.566172
1464.417155	-11.620596
1465.132838	-11.679400
1465.849222	-11.743503
1466.566306	-11.813592
1467.284093	-11.890242
1468.002582	-11.973741
1468.721775	-12.063984
1469.441674	-12.160634
1470.162278	-12.263190
1470.883590	-12.370942
1471.605609	-12.483111
1472.328338	-12.599109
1473.051777	-12.718572
1473.775928	-12.841376
1474.500790	-12.967861
1475.226367	-13.098887
1475.952657	-13.235573
1476.679663	-13.379287
1477.407386	-13.531609
1478.135826	-13.693907
1478.864985	-13.867092
1479.594863	-14.051579
1480.325463	-14.247031
1481.056784	-14.452033
1481.788828	-14.664196
1482.521597	-14.880289
1483.255090	-15.096136
1483.989309	-15.306963
1484.724256	-15.507985
1485.459931	-15.694590
1486.196336	-15.862650
1486.933471	-16.009191
1487.671337	-16.132411
1488.409937	-16.231464
1489.149270	-16.306444
1489.889337	-16.358072
1490.630141	-16.386947
1491.371682	-16.393312
1492.113961	-16.376910
1492.856979	-16.336529
1493.600738	-16.270105
1494.345238	-16.175246
1495.090481	-16.049511
1495.836467	-15.890935
1496.583198	-15.698856
1497.330675	-15.474236
1498.078899	-15.219809
1498.827872	-14.940128
1499.577593	-14.641142
1500.328065	-14.329465
1501.079289	-14.011793
1501.831265	-13.694328
1502.583995	-13.382212
1503.337480	-13.079290
1504.091721	-12.788135
1504.846719	-12.510093
1505.602475	-12.245569
1506.358991	-11.994488
1507.116268	-11.756645
1507.874306	-11.532121
1508.633108	-11.321590
1509.392673	-11.126413
1510.153004	-10.948553
1510.914101	-10.790418
1511.675965	-10.654505
1512.438599	-10.543013
1513.202002	-10.457503
1513.966176	-10.398592
1514.731122	-10.365741
1515.496842	-10.357231
1516.263336	-10.370185
1517.030607	-10.400717
1517.798654	-10.444196
1518.567479	-10.495601
1519.337083	-10.549787
1520.107468	-10.601857
1520.878634	-10.647402
1521.650584	-10.682590
1522.423317	-10.704275
1523.196836	-10.709943
1523.971141	-10.697508
1524.746233	-10.665213
1525.522115	-10.611453
1526.298786	-10.534573
1527.076249	-10.432814
1527.854504	-10.304336
1528.633553	-10.147254
1529.413397	-9.959974
1530.194037	-9.741479
1530.975474	-9.491653
1531.757709	-9.211700
1532.540745	-8.904353
1533.324581	-8.573874
1534.109220	-8.225962
1534.894662	-7.867354
1535.680909	-7.505322
1536.467961	-7.147167
1537.255821	-6.799637
1538.044489	-6.468476
1538.833967	-6.158202
1539.624256	-5.871967
1540.415357	-5.611653
1541.207271	-5.378158
1542.000000	-5.171759
1542.793545	-4.992535
1543.587907	-4.840761
1544.383087	-4.717113
1545.179088	-4.622672
1545.975909	-4.558753
1546.773552	-4.526524
1547.572019	-4.526562
1548.371311	-4.558507
1549.171428	-4.620853
1549.972373	-4.711030
1550.774147	-4.825802
1551.576751	-4.961881
1552.380185	-5.116636
1553.184453	-5.288709
1553.989554	-5.478280
1554.795490	-5.686864
1555.602263	-5.916634
1556.409873	-6.169475
1557.218322	-6.445972
1558.027612	-6.744690
1558.837743	-7.061936
1559.648717	-7.392135
1560.460536	-7.728843
1561.273200	-8.066121
1562.086710	-8.399737
1562.901069	-8.727721
1563.716278	-9.049899
1564.532337	-9.366439
1565.349249	-9.676013
1566.167014	-9.974377
1566.985634	-10.254109
1567.805111	-10.506070
1568.625444	-10.722296
1569.446637	-10.899253
1570.268690	-11.039879
1571.091605	-11.153255
1571.915382	-11.251922
1572.740024	-11.348180
1573.565532	-11.450934
1574.391907	-11.564131
1575.219150	-11.687185
1576.047262	-11.817083
1576.876246	-11.951285
1577.706103	-12.090364
1578.536833	-12.239227
1579.368439	-12.406396
1580.200922	-12.601707
1581.034282	-12.833374
1581.868522	-13.105447
1582.703643	-13.416551
1583.539646	-13.760373
1584.376532	-14.127932
1585.214304	-14.511255
1586.052962	-14.907229
1586.892508	-15.319913
1587.732943	-15.760161
1588.574269	-16.242426
1589.416487	-16.779991
1590.259599	-17.380595
1591.103605	-18.043702
1591.948508	-18.760712
1592.794309	-19.519068
1593.641009	-20.309887
1594.488609	-21.137076
1595.337112	-22.023598
1596.186518	-23.011120
1597.036829	-24.154067
1597.888047	-25.511247
1598.740172	-27.137574
1599.593207	-29.074298
1600.447153	-31.326463
1601.302010	-33.792936
1602.157782	-36.056316
1603.014469	-37.105203
1603.872072	-36.185892
1604.730593	-34.068182
1605.590034	-31.730419
1606.450397	-29.580541
1607.311681	-27.729981
1608.173890	-26.185216
1609.037024	-24.910838
1609.901085	-23.851033
1610.766075	-22.940943
1611.631995	-22.118295
1612.498846	-21.336857
1613.366630	-20.576319
1614.235349	-19.841742
1615.105004	-19.152410
1615.975596	-18.527239
1616.847128	-17.974179
1617.719600	-17.486642
1618.593014	-17.046347
1619.467372	-16.630837
1620.342675	-16.222869
1621.218924	-15.817262
1622.096122	-15.421555
1622.974270	-15.050283
1623.853369	-14.716470
1624.733420	-14.424993
1625.614427	-14.170337
1626.496389	-13.939226
1627.379308	-13.716970
1628.263187	-13.494574
1629.148026	-13.272942
1630.033828	-13.061669
1630.920593	-12.873183
1631.808324	-12.715797
1632.697022	-12.589212
1633.586688	-12.484449
1634.477324	-12.388234
1635.368932	-12.289806
1636.261514	-12.186629
1637.155070	-12.085441
1638.049602	-11.997871
1638.945113	-11.933386
1639.841603	-11.893568
1640.739075	-11.870769
1641.637529	-11.851884
1642.536968	-11.825474
1643.437393	-11.788340
1644.338806	-11.747149
1645.241209	-11.713849
1646.144602	-11.697834
1647.048988	-11.699646
1647.954368	-11.709950
1648.860744	-11.714502
1649.768118	-11.702607
1650.676491	-11.673814
1651.585865	-11.637964
1652.496241	-11.608416
1653.407621	-11.593073
1654.320008	-11.589055
1655.233401	-11.584304
1656.147804	-11.565356
1657.063218	-11.526572
1657.979645	-11.474276
1658.897085	-11.422533
1659.815542	-11.383704
1660.735016	-11.360395
1661.655509	-11.344025
1662.577023	-11.320924
1663.499560	-11.282204
1664.423121	-11.230494
1665.347709	-11.178288
1666.273324	-11.139137
1667.199969	-11.118276
1668.127645	-11.109145
1669.056353	-11.098102
1669.986097	-11.074365
1670.916877	-11.038149
1671.848695	-11.000514
1672.781553	-10.974929
1673.715452	-10.967150
1674.650395	-10.970845
1675.586383	-10.972100
1676.523418	-10.959887
1677.461501	-10.934692
1678.400635	-10.908142
1679.340821	-10.893727
1680.282061	-10.896138
1681.224357	-10.907414
1682.167710	-10.912900
1683.112122	-10.902885
1684.057595	-10.880677
1685.004132	-10.859958
1685.951732	-10.853493
1686.900400	-10.862616
1687.850135	-10.875830
1688.800940	-10.877892
1689.752818	-10.862509
1690.705768	-10.837800
1691.659795	-10.819305
1692.614898	-10.816649
1693.571081	-10.825277
1694.528345	-10.830068
1695.486691	-10.818272
1696.446122	-10.790899
1697.406640	-10.762023
1698.368245	-10.746404
1699.330941	-10.746709
1700.294729	-10.751365
1701.259611	-10.745008
1702.225588	-10.722761
1703.192664	-10.695092
1704.160838	-10.678339
1705.130114	-10.679879
1706.100493	-10.691527
1707.071977	-10.697066
1708.044568	-10.687529
1709.018268	-10.669912
1709.993079	-10.660385
1710.969003	-10.668608
1711.946041	-10.688228
1712.924196	-10.702548
1713.903469	-10.700542
1714.883862	-10.687783
1715.865378	-10.680723
1716.848017	-10.689978
1717.831783	-10.709411
1718.816677	-10.721813
1719.802701	-10.716153
1720.789857	-10.699073
1721.778147	-10.688008
1722.767573	-10.693020
1723.758136	-10.706271
1724.749840	-10.709965
1725.742685	-10.695200
1726.736673	-10.671866
1727.731808	-10.658212
1728.728090	-10.661452
1729.725521	-10.670200
1730.724105	-10.666898
1731.723842	-10.647497
1732.724735	-10.626487
1733.726785	-10.621062
1734.729995	-10.632243
1735.734366	-10.643734
1736.739902	-10.640208
1737.746603	-10.625090
1738.754472	-10.616816
1739.763510	-10.627488
1740.773721	-10.648578
1741.785105	-10.660141
1742.797665	-10.653900
1743.811403	-10.643173
1744.826321	-10.646898
1745.842422	-10.666761
1746.859706	-10.684575
1747.878177	-10.683709
1748.897835	-10.669612
1749.918685	-10.663454
1750.940726	-10.676238
1751.963963	-10.695209
1752.988395	-10.699398
1754.014027	-10.686212
1755.040860	-10.675330
1756.068895	-10.684093
1757.098135	-10.705633
1758.128583	-10.717318
1759.160240	-10.709865
1760.193109	-10.699820
1761.227191	-10.707998
1762.262488	-10.732066
1763.299004	-10.748949
1764.336740	-10.744936
1765.375697	-10.734192
1766.415880	-10.739595
1767.457288	-10.761601
1768.499926	-10.777006
1769.543794	-10.770198
1770.588895	-10.755044
1771.635231	-10.755917
1772.682805	-10.774021
1773.731619	-10.785620
1774.781674	-10.775408
1775.832973	-10.758919
1776.885519	-10.760916
1777.939312	-10.780495
1778.994357	-10.792455
1780.050654	-10.783788
1781.108207	-10.773135
1782.167017	-10.783597
1783.227087	-10.808801
1784.288418	-10.821826
1785.351013	-10.814965
1786.414875	-10.811266
1787.480006	-10.829410
1788.546407	-10.855067
1789.614082	-10.862063
1790.683032	-10.852511
1791.753259	-10.853643
1792.824767	-10.875510
1793.897557	-10.895275
1794.971632	-10.892933
1796.046994	-10.883474
1797.123645	-10.893381
1798.201588	-10.918634
1799.280824	-10.931066
1800.361357	-10.923887
1801.443188	-10.923032
1802.526320	-10.944736
1803.610756	-10.968768
1804.696497	-10.971335
1805.783546	-10.964695
1806.871906	-10.976579
1807.961578	-11.003539
1809.052565	-11.016516
1810.144870	-11.010268
1811.238494	-11.012732
1812.333441	-11.037173
1813.429713	-11.059402
1814.527311	-11.059755
1815.626239	-11.058044
1816.726499	-11.078975
1817.828094	-11.108492
1818.931025	-11.118114
1820.035295	-11.115752
1821.140906	-11.131559
1822.247862	-11.163244
1823.356165	-11.179364
1824.465816	-11.176137
1825.576819	-11.184560
1826.689175	-11.213394
1827.802888	-11.232756
1828.917960	-11.229502
1830.034394	-11.232421
1831.152191	-11.258626
1832.271354	-11.281543
1833.391887	-11.281220
1834.513790	-11.282856
1835.637068	-11.308665
1836.761722	-11.334966
1837.887755	-11.337412
1839.015169	-11.338464
1840.143968	-11.363398
1841.274153	-11.390317
1842.405727	-11.392658
1843.538693	-11.392132
1844.673053	-11.415794
1845.808810	-11.441996
1846.945966	-11.443515
1848.084525	-11.442919
1849.224488	-11.467177
1850.365858	-11.492909
1851.508638	-11.493851
1852.652831	-11.494932
1853.798438	-11.520704
1854.945463	-11.544425
1856.093909	-11.543576
1857.243777	-11.547116
1858.395071	-11.574359
1859.547794	-11.594315
1860.701947	-11.591815
1861.857533	-11.600322
1863.014556	-11.630092
1864.173018	-11.646115
1865.332922	-11.644161
1866.494270	-11.660266
1867.657065	-11.691777
1868.821309	-11.702786
1869.987006	-11.703256
1871.154158	-11.726919
1872.322768	-11.756139
1873.492839	-11.761115
1874.664373	-11.766811
1875.837373	-11.796521
1877.011841	-11.819453
1878.187782	-11.821210
1879.365197	-11.836761
1880.544089	-11.869822
1881.724460	-11.884723
1882.906315	-11.889751
1884.089655	-11.917473
1885.274483	-11.947781
1886.460803	-11.955197
1887.648616	-11.969467
1888.837927	-12.004316
1890.028736	-12.024024
1891.221049	-12.029217
1892.414866	-12.055836
1893.610192	-12.088234
1894.807028	-12.097215
1896.005379	-12.111730
1897.205246	-12.147988
1898.406633	-12.169544
1899.609542	-12.177399
1900.813977	-12.206958
1902.019940	-12.238937
1903.227434	-12.247843
1904.436462	-12.266641
1905.647028	-12.302932
1906.859133	-12.319703
1908.072781	-12.331061
1909.287976	-12.366658
1910.504719	-12.394633
1911.723013	-12.403514
1912.942863	-12.432022
1914.164270	-12.467296
1915.387238	-12.477669
1916.611770	-12.495911
1917.837868	-12.532998
1919.065536	-12.550012
1920.294777	-12.563042
1921.525594	-12.600471
1922.757989	-12.626906
1923.991967	-12.638909
1925.227529	-12.673042
1926.464679	-12.704471
1927.703420	-12.714531
1928.943755	-12.741917
1930.185688	-12.775740
1931.429221	-12.787375
1932.674356	-12.812014
1933.921099	-12.850511
1935.169451	-12.867368
1936.419415	-12.890755
1937.670996	-12.930419
1938.924195	-12.948377
1940.179017	-12.967837
1941.435463	-13.006235
1942.693538	-13.025303
1943.953245	-13.044698
1945.214586	-13.086578
1946.477566	-13.109846
1947.742186	-13.129671
1949.008451	-13.172191
1950.276363	-13.195283
1951.545926	-13.212150
1952.817143	-13.253150
1954.090017	-13.277568
1955.364551	-13.297762
1956.640749	-13.342556
1957.918615	-13.369778
1959.198150	-13.392950
1960.479359	-13.437467
1961.762244	-13.460862
1963.046810	-13.483525
1964.333059	-13.527933
1965.620995	-13.552039
1966.910621	-13.582049
1968.201940	-13.630907
1969.494956	-13.656307
1970.789672	-13.690717
1972.086091	-13.735737
1973.384217	-13.756109
1974.684053	-13.794088
1975.985602	-13.838213
1977.288869	-13.862436
1978.593855	-13.910748
1979.900566	-13.954060
1981.209003	-13.980105
1982.519171	-14.029772
1983.831073	-14.063578
1985.144712	-14.092645
1986.460093	-14.146108
1987.777217	-14.178409
1989.096089	-14.219477
1990.416713	-14.273339
1991.739092	-14.300211
1993.063228	-14.345315
1994.389127	-14.389011
1995.716791	-14.416351
1997.046223	-14.471221
1998.377428	-14.511032
1999.710409	-14.548885
2001.045169	-14.604311
2002.381713	-14.632217
2003.720043	-14.675487
2005.060163	-14.722268
2006.402077	-14.751725
2007.745788	-14.809048
2009.091301	-14.849549
2010.438618	-14.888004
2011.787743	-14.941826
2013.138680	-14.968577
2014.491433	-15.016772
2015.846005	-15.062912
2017.202399	-15.098197
2018.560621	-15.159064
2019.920673	-15.193923
2021.282558	-15.238402
2022.646281	-15.287240
2024.011846	-15.317028
2025.379256	-15.376249
2026.748515	-15.416900
2028.119626	-15.464077
2029.492594	-15.519773
2030.867422	-15.549578
2032.244114	-15.606068
2033.622673	-15.645010
2035.003104	-15.692127
2036.385411	-15.752509
2037.769597	-15.787741
2039.155665	-15.848212
2040.543621	-15.885017
2041.933467	-15.931900
2043.325208	-15.989841
2044.718847	-16.029042
2046.114389	-16.097101
2047.511837	-16.135708
2048.911195	-16.189304
2050.312467	-16.241418
2051.715657	-16.284208
2053.120769	-16.355141
2054.527807	-16.396825
2055.936775	-16.464471
2057.347677	-16.511582
2058.760516	-16.564055
2060.175297	-16.630082
2061.592025	-16.677504
2063.010701	-16.755810
2064.431332	-16.800976
2065.853921	-16.871023
2067.278472	-16.924582
2068.704988	-16.985395
2070.133475	-17.060237
2071.563936	-17.113241
2072.996375	-17.193890
2074.430796	-17.238578
2075.867204	-17.317218
2077.305603	-17.372855
2078.745996	-17.447327
2080.188389	-17.516382
2081.632784	-17.573725
2083.079187	-17.649755
2084.527601	-17.699432
2085.978030	-17.786401
2087.430480	-17.836057
2088.884954	-17.919923
2090.341455	-17.970312
2091.799990	-18.044287
2093.260561	-18.105848
2094.723173	-18.174863
2096.187831	-18.247301
2097.654538	-18.301508
2099.123300	-18.379903
2100.594119	-18.428145
2102.067001	-18.516336
2103.541950	-18.564706
2105.018971	-18.649747
2106.498067	-18.690271
2107.979243	-18.780215
2109.462503	-18.834513
2110.947853	-18.907672
2112.435295	-18.970629
2113.924836	-19.039704
2115.416478	-19.104418
2116.910227	-19.175179
2118.406087	-19.245740
2119.904063	-19.310479
2121.404158	-19.382438
2122.906378	-19.444674
2124.410727	-19.526721
2125.917210	-19.587459
2127.425831	-19.667766
2128.936594	-19.726725
2130.449505	-19.812870
2131.964567	-19.873329
2133.481786	-19.960959
2135.001166	-20.019884
2136.522711	-20.108492
2138.046427	-20.170375
2139.572317	-20.261426
2141.100388	-20.323359
2142.630642	-20.414138
2144.163085	-20.479078
2145.697722	-20.572110
2147.234558	-20.639662
2148.773596	-20.729997
2150.314842	-20.799780
2151.858301	-20.893713
2153.403977	-20.969089
2154.951875	-21.059636
2156.502000	-21.136718
2158.054357	-21.229459
2159.608950	-21.315497
2161.165785	-21.405971
2162.724866	-21.494620
2164.286198	-21.584637
2165.849786	-21.683873
2167.415635	-21.770904
2168.983749	-21.874410
2170.554134	-21.958472
2172.126795	-22.073093
2173.701737	-22.153223
2175.278964	-22.269608
2176.858481	-22.344484
2178.440294	-22.468112
2180.024408	-22.544637
2181.610827	-22.664312
2183.199557	-22.737405
2184.790602	-22.853082
2186.383968	-22.937751
2187.979660	-23.041319
2189.577683	-23.130023
2191.178041	-23.220502
2192.780741	-23.324255
2194.385787	-23.401389
2195.993185	-23.503988
2197.602939	-23.579529
2199.215054	-23.679224
