# 2022-03-21_22.57.53
# shape = sech2
# FWHM_ps = 0.1
# carrier_nm = 1542
# frep_MHz = 12126
# pow_mW = 8000
# GDD = 0.0
# propa_len = 0.11866666666666668
# untap_len = 0.01
# taper_len = 0.05866666666666667
# waist_len = 0.02
# uptap_len = 0.02
# untap_scale = 1.0
# waist_scale = 0.3210526315789474
# workingDir = NL_20110305_12 (Spirou)
# axis = slow
# window_ps = 10.0
# steps = 200
# points = 21700
# 
# wavelength [nm]	 power spectral density [dB]
600.043425	-97.087815
600.163550	-96.414663
600.283723	-96.057222
600.403943	-95.966903
600.524212	-96.093206
600.644529	-96.372524
600.764895	-96.720283
600.885308	-97.033343
601.005770	-97.214353
601.126280	-97.214439
601.246839	-97.059901
601.367446	-96.833485
601.488101	-96.630454
601.608804	-96.527524
601.729557	-96.574427
601.850357	-96.797067
601.971206	-97.201433
602.092104	-97.772929
602.213050	-98.468834
602.334045	-99.204264
602.455089	-99.841274
602.576181	-100.209912
602.697322	-100.186923
602.818511	-99.777968
602.939749	-99.100733
603.061036	-98.294105
603.182372	-97.458950
603.303757	-96.653272
603.425191	-95.908214
603.546673	-95.242402
603.668204	-94.669705
603.789785	-94.202025
603.911414	-93.849383
604.033092	-93.618753
604.154820	-93.512250
604.276596	-93.524633
604.398422	-93.639930
604.520297	-93.827387
604.642220	-94.038495
604.764193	-94.209505
604.886216	-94.275301
605.008287	-94.194472
605.130408	-93.971153
605.252578	-93.654785
605.374798	-93.318272
605.497066	-93.033722
605.619385	-92.859695
605.741752	-92.839690
605.864169	-93.005889
605.986636	-93.383651
606.109152	-93.994569
606.231718	-94.856491
606.354333	-95.977085
606.476998	-97.331638
606.599712	-98.805662
606.722476	-100.097117
606.845290	-100.734969
606.968154	-100.505889
607.091067	-99.751122
607.214030	-98.936234
607.337043	-98.325941
607.460106	-98.027156
607.583219	-98.084807
607.706381	-98.534470
607.829594	-99.429414
607.952856	-100.860771
608.076169	-102.969460
608.199531	-105.826715
608.322944	-108.238353
608.446407	-106.705821
608.569920	-103.259502
608.693483	-100.357370
608.817096	-98.149885
608.940759	-96.472843
609.064473	-95.198361
609.188237	-94.244503
609.312051	-93.559960
609.435916	-93.113044
609.559831	-92.884938
609.683796	-92.865281
609.807812	-93.048535
609.931878	-93.429449
610.055995	-93.995136
610.180162	-94.709420
610.304380	-95.483963
610.428648	-96.141927
610.552967	-96.428383
610.677337	-96.157097
610.801757	-95.388630
610.926228	-94.366171
611.050750	-93.316475
611.175323	-92.370418
611.299946	-91.584663
611.424620	-90.976648
611.549345	-90.546022
611.674121	-90.284728
611.798948	-90.180894
611.923826	-90.219634
612.048755	-90.382202
612.173734	-90.644187
612.298765	-90.973425
612.423847	-91.328780
612.548980	-91.661836
612.674165	-91.923667
612.799400	-92.076655
612.924687	-92.106361
613.050025	-92.025623
613.175414	-91.867703
613.300854	-91.673501
613.426346	-91.480563
613.551889	-91.317566
613.677484	-91.203431
613.803130	-91.148773
613.928827	-91.157988
614.054576	-91.231139
614.180377	-91.365408
614.306229	-91.556104
614.432132	-91.797354
614.558087	-92.082533
614.684094	-92.404463
614.810153	-92.755392
614.936263	-93.126740
615.062425	-93.508649
615.188639	-93.889347
615.314904	-94.254518
615.441222	-94.587040
615.567591	-94.867581
615.694012	-95.076575
615.820486	-95.197660
615.947011	-95.221766
616.073588	-95.150225
616.200217	-94.995313
616.326898	-94.777787
616.453632	-94.522751
616.580417	-94.255539
616.707255	-93.998856
616.834144	-93.771457
616.961086	-93.587997
617.088081	-93.459526
617.215127	-93.394216
617.342226	-93.398047
617.469378	-93.475365
617.596581	-93.629215
617.723837	-93.861387
617.851146	-94.172205
617.978507	-94.559989
618.105920	-95.020025
618.233386	-95.543111
618.360905	-96.113587
618.488476	-96.707258
618.616100	-97.290127
618.743777	-97.819714
618.871506	-98.250991
618.999288	-98.547200
619.127123	-98.691301
619.255011	-98.690799
619.382951	-98.572553
619.510945	-98.371604
619.638991	-98.121277
619.767090	-97.848551
619.895243	-97.574237
620.023448	-97.315512
620.151706	-97.088721
620.280017	-96.911484
620.408382	-96.803712
620.536799	-96.787916
620.665270	-96.889455
620.793794	-97.137272
620.922371	-97.565631
621.051002	-98.217627
621.179686	-99.151922
621.308423	-100.455994
621.437213	-102.274137
621.566057	-104.872892
621.694954	-108.792324
621.823905	-114.364224
621.952909	-112.772579
622.081967	-107.445615
622.211079	-103.946332
622.340244	-101.589058
622.469462	-99.937497
622.598735	-98.777221
622.728061	-97.992978
622.857441	-97.517975
622.986874	-97.311801
623.116361	-97.349869
623.245903	-97.617940
623.375498	-98.109090
623.505147	-98.821999
623.634850	-99.759747
623.764606	-100.928727
623.894417	-102.337066
624.024282	-103.991368
624.154201	-105.889495
624.284174	-108.006332
624.414202	-110.269773
624.544283	-112.539797
624.674419	-114.643805
624.804609	-116.516037
624.934853	-118.302349
625.065151	-120.177171
625.195504	-121.704136
625.325911	-121.257551
625.456373	-118.756719
625.586889	-115.970407
625.717460	-113.603972
625.848085	-111.699156
625.978764	-110.173211
626.109498	-108.940781
626.240287	-107.931540
626.371131	-107.090791
626.502029	-106.378307
626.632982	-105.767462
626.763989	-105.244468
626.895052	-104.806953
627.026169	-104.461354
627.157341	-104.219936
627.288568	-104.098335
627.419850	-104.113862
627.551187	-104.284855
627.682579	-104.630752
627.814026	-105.172675
627.945528	-105.933955
628.077085	-106.939496
628.208697	-108.210726
628.340364	-109.746420
628.472087	-111.462309
628.603865	-113.050072
628.735698	-113.894302
628.867586	-113.609851
628.999530	-112.628726
629.131529	-111.570264
629.263584	-110.743646
629.395694	-110.247436
629.527859	-110.108895
629.660080	-110.345529
629.792357	-110.991023
629.924689	-112.114459
630.057077	-113.851220
630.189520	-116.471074
630.322019	-120.494613
630.454574	-125.319070
630.587184	-122.328725
630.719851	-117.585285
630.852573	-114.426020
630.985351	-112.279420
631.118185	-110.783108
631.251075	-109.745566
631.384021	-109.053998
631.517023	-108.632162
631.650081	-108.419078
631.783195	-108.357011
631.916365	-108.384960
632.049592	-108.437990
632.182874	-108.454920
632.316213	-108.393437
632.449608	-108.244585
632.583059	-108.035012
632.716567	-107.815237
632.850131	-107.642951
632.983751	-107.571096
633.117428	-107.644049
633.251161	-107.899541
633.384951	-108.372929
633.518797	-109.102225
633.652700	-110.133801
633.786660	-111.527711
633.920676	-113.354640
634.054749	-115.640289
634.188879	-118.039644
634.323065	-119.029778
634.457308	-117.530420
634.591608	-115.205572
634.725965	-113.164046
634.860379	-111.561541
634.994850	-110.337200
635.129377	-109.416192
635.263962	-108.740450
635.398604	-108.269273
635.533303	-107.976705
635.668058	-107.849747
635.802872	-107.887657
635.937742	-108.102622
636.072669	-108.521683
636.207654	-109.191172
636.342696	-110.187166
636.477796	-111.639020
636.612953	-113.791210
636.748167	-117.192968
636.883439	-123.410481
637.018768	-126.863415
637.154155	-118.361537
637.289599	-113.607957
637.425101	-110.537669
637.560660	-108.360746
637.696277	-106.764009
637.831952	-105.597593
637.967685	-104.782820
638.103475	-104.278311
638.239324	-104.066084
638.375230	-104.146472
638.511194	-104.538065
638.647215	-105.282953
638.783295	-106.461052
638.919433	-108.225174
639.055629	-110.901711
639.191883	-115.382143
639.328195	-126.478963
639.464565	-122.053643
639.600994	-113.810598
639.737481	-109.814960
639.874025	-107.294129
640.010629	-105.576802
640.147290	-104.396481
640.284010	-103.623381
640.420789	-103.188147
640.557625	-103.053479
640.694521	-103.201829
640.831474	-103.629185
640.968487	-104.340909
641.105558	-105.345827
641.242687	-106.639559
641.379876	-108.154752
641.517123	-109.636354
641.654429	-110.510107
641.791793	-110.264342
641.929216	-109.180138
642.066699	-107.902466
642.204240	-106.798309
642.341840	-105.986958
642.479499	-105.492403
642.617217	-105.315279
642.754994	-105.457982
642.892830	-105.933822
643.030726	-106.771036
643.168680	-108.012377
643.306694	-109.696309
643.444767	-111.745121
643.582899	-113.526582
643.721091	-113.545388
643.859342	-111.725984
643.997652	-109.567863
644.136022	-107.755306
644.274451	-106.379466
644.412940	-105.402052
644.551488	-104.778468
644.690096	-104.479783
644.828763	-104.495274
644.967490	-104.833671
645.106277	-105.527497
645.245124	-106.645314
645.384030	-108.321792
645.522997	-110.842001
645.662023	-114.949844
645.801109	-124.007305
645.940255	-124.987890
646.079460	-115.149541
646.218726	-110.807998
646.358052	-108.130067
646.497438	-106.318475
646.636884	-105.072256
646.776391	-104.249129
646.915957	-103.775140
647.055584	-103.612737
647.195271	-103.747602
647.335019	-104.183700
647.474826	-104.943021
647.614695	-106.067321
647.754623	-107.618323
647.894612	-109.651727
648.034662	-112.031532
648.174772	-113.695412
648.314943	-112.851563
648.455174	-110.477260
648.595466	-108.190555
648.735819	-106.366659
648.876233	-104.980229
649.016707	-103.960322
649.157242	-103.250923
649.297838	-102.815180
649.438495	-102.632000
649.579213	-102.693247
649.719992	-103.002095
649.860832	-103.572754
650.001733	-104.430151
650.142695	-105.606632
650.283718	-107.122605
650.424803	-108.902393
650.565949	-110.502302
650.707156	-110.870521
650.848424	-109.582810
650.989754	-107.631856
651.131145	-105.792503
651.272597	-104.275180
651.414111	-103.087607
651.555687	-102.196033
651.697324	-101.566908
651.839022	-101.174822
651.980782	-101.002821
652.122604	-101.041437
652.264488	-101.287889
652.406433	-101.745195
652.548441	-102.421264
652.690510	-103.325820
652.832640	-104.460897
652.974833	-105.792950
653.117088	-107.180708
653.259405	-108.254686
653.401784	-108.479347
653.544224	-107.716596
653.686727	-106.430510
653.829293	-105.097570
653.971920	-103.942145
654.114609	-103.034583
654.257361	-102.388642
654.400175	-102.004074
654.543052	-101.881892
654.685991	-102.030267
654.828992	-102.467424
654.972056	-103.222840
655.115183	-104.334133
655.258372	-105.822556
655.401623	-107.574613
655.544937	-108.960948
655.688314	-108.723241
655.831754	-106.847911
655.975256	-104.586383
656.118822	-102.569037
656.262450	-100.905416
656.406141	-99.567746
656.549894	-98.510896
656.693711	-97.697297
656.837591	-97.099885
656.981534	-96.700866
657.125540	-96.490005
657.269610	-96.463681
657.413742	-96.624483
657.557938	-96.981094
657.702196	-97.548652
657.846519	-98.349286
657.990904	-99.410946
658.135353	-100.760005
658.279866	-102.388786
658.424441	-104.139928
658.569081	-105.441511
658.713784	-105.400659
658.858550	-104.049929
659.003381	-102.289494
659.148274	-100.665588
659.293232	-99.323311
659.438253	-98.267415
659.583339	-97.471720
659.728488	-96.909606
659.873701	-96.560778
660.018978	-96.411768
660.164318	-96.454765
660.309723	-96.685964
660.455192	-97.102573
660.600725	-97.697221
660.746323	-98.445812
660.891984	-99.282376
661.037710	-100.059160
661.183500	-100.524943
661.329354	-100.425609
661.475272	-99.727020
661.621255	-98.651114
661.767303	-97.462294
661.913415	-96.328528
662.059591	-95.326445
662.205833	-94.482024
662.352138	-93.798821
662.498509	-93.271909
662.644944	-92.893756
662.791443	-92.656559
662.938008	-92.552782
663.084638	-92.574573
663.231332	-92.712649
663.378091	-92.954207
663.524915	-93.279700
663.671804	-93.658690
663.818759	-94.045438
663.965778	-94.377566
664.112863	-94.583168
664.260012	-94.600952
664.407227	-94.406255
664.554507	-94.023109
664.701853	-93.510908
664.849264	-92.938503
664.996740	-92.364570
665.144282	-91.830940
665.291889	-91.364390
665.439561	-90.980757
665.587300	-90.688758
665.735103	-90.492835
665.882973	-90.394724
666.030908	-90.394158
666.178909	-90.488631
666.326976	-90.672397
666.475109	-90.934626
666.623307	-91.256674
666.771571	-91.608831
666.919902	-91.947738
667.068298	-92.217346
667.216761	-92.357823
667.365289	-92.323295
667.513884	-92.100675
667.662545	-91.715410
667.811272	-91.219042
667.960065	-90.669435
668.108925	-90.116336
668.257851	-89.596264
668.406843	-89.133518
668.555902	-88.743334
668.705027	-88.434764
668.854219	-88.212966
669.003478	-88.080470
669.152803	-88.037760
669.302195	-88.083476
669.451653	-88.213988
669.601179	-88.422676
669.750771	-88.698873
669.900430	-89.026558
670.050156	-89.383022
670.199949	-89.738033
670.349808	-90.054873
670.499735	-90.294371
670.649729	-90.422500
670.799790	-90.419317
670.949918	-90.285164
671.100114	-90.040272
671.250377	-89.717718
671.400707	-89.354769
671.551104	-88.985937
671.701569	-88.639666
671.852101	-88.337765
672.002700	-88.095987
672.153368	-87.925187
672.304102	-87.832364
672.454905	-87.821415
672.605775	-87.893635
672.756713	-88.048153
672.907718	-88.282148
673.058791	-88.590796
673.209933	-88.967002
673.361142	-89.400708
673.512419	-89.877446
673.663764	-90.375909
673.815177	-90.865314
673.966658	-91.303858
674.118207	-91.641107
674.269825	-91.827742
674.421510	-91.832277
674.573264	-91.655603
674.725086	-91.331681
674.876977	-90.914065
675.028936	-90.458256
675.180963	-90.009818
675.333059	-89.600847
675.485224	-89.251186
675.637457	-88.971481
675.789758	-88.766299
675.942129	-88.636713
676.094568	-88.582135
676.247075	-88.601619
676.399652	-88.694675
676.552298	-88.861317
676.705012	-89.101806
676.857795	-89.415958
677.010648	-89.801562
677.163569	-90.252300
677.316560	-90.755208
677.469619	-91.287393
677.622748	-91.813405
677.775946	-92.285148
677.929214	-92.647727
678.082551	-92.853480
678.235957	-92.878865
678.389432	-92.733584
678.542977	-92.454562
678.696592	-92.090093
678.850276	-91.685358
679.004030	-91.275248
679.157853	-90.883708
679.311746	-90.526132
679.465709	-90.212325
679.619742	-89.948723
679.773844	-89.739980
679.928017	-89.589823
680.082259	-89.501476
680.236571	-89.477840
680.390954	-89.521577
680.545406	-89.635275
680.699929	-89.821510
680.854522	-90.082911
681.009185	-90.422394
681.163918	-90.843134
681.318722	-91.348236
681.473596	-91.940222
681.628540	-92.619434
681.783555	-93.381057
681.938641	-94.209006
682.093797	-95.065470
682.249023	-95.876440
682.404321	-96.521371
682.559689	-96.853391
682.715128	-96.770988
682.870637	-96.292851
683.026218	-95.544325
683.181869	-94.673532
683.337591	-93.791971
683.493385	-92.965592
683.649249	-92.227793
683.805185	-91.593041
683.961191	-91.065836
684.117269	-90.645637
684.273418	-90.329413
684.429639	-90.112686
684.585930	-89.989655
684.742294	-89.953198
684.898728	-89.994447
685.055234	-90.101905
685.211812	-90.260438
685.368461	-90.449592
685.525182	-90.642266
685.681975	-90.804040
685.838839	-90.895316
685.995775	-90.877606
686.152783	-90.723560
686.309863	-90.426864
686.467014	-90.005434
686.624238	-89.495140
686.781534	-88.938709
686.938902	-88.376124
687.096342	-87.839269
687.253854	-87.350553
687.411438	-86.923967
687.569095	-86.567090
687.726824	-86.282885
687.884626	-86.071212
688.042499	-85.929983
688.200446	-85.856126
688.358465	-85.846143
688.516556	-85.896140
688.674720	-86.001708
688.832957	-86.157564
688.991266	-86.356520
689.149649	-86.588510
689.308104	-86.839963
689.466632	-87.093775
689.625233	-87.330516
689.783906	-87.531148
689.942653	-87.680645
690.101473	-87.771287
690.260367	-87.803968
690.419333	-87.786785
690.578372	-87.731576
690.737485	-87.650131
690.896672	-87.551285
691.055931	-87.439765
691.215264	-87.316769
691.374671	-87.181613
691.534151	-87.033131
691.693704	-86.870835
691.853332	-86.695827
692.013033	-86.510702
692.172807	-86.319124
692.332656	-86.125651
692.492578	-85.935611
692.652575	-85.754788
692.812645	-85.589426
692.972789	-85.446150
693.133007	-85.331528
693.293300	-85.251406
693.453666	-85.210414
693.614107	-85.211222
693.774622	-85.254031
693.935211	-85.336577
694.095875	-85.454166
694.256613	-85.600070
694.417426	-85.766131
694.578313	-85.943555
694.739274	-86.123425
694.900311	-86.297059
695.061421	-86.455994
695.222607	-86.591626
695.383868	-86.694865
695.545203	-86.756227
695.706613	-86.766714
695.868098	-86.719244
696.029658	-86.610548
696.191293	-86.442929
696.353003	-86.224735
696.514789	-85.969000
696.676649	-85.691135
696.838585	-85.406124
697.000596	-85.126055
697.162682	-84.858560
697.324844	-84.606105
697.487081	-84.366383
697.649394	-84.133700
697.811782	-83.900662
697.974246	-83.660160
698.136786	-83.407080
698.299401	-83.139087
698.462092	-82.856428
698.624859	-82.560765
698.787702	-82.253810
698.950621	-81.936566
699.113616	-81.609234
699.276686	-81.272025
699.439833	-80.926489
699.603056	-80.576389
699.766355	-80.227766
699.929731	-79.888331
700.093183	-79.565913
700.256711	-79.266859
700.420315	-78.994723
700.583996	-78.749450
700.747754	-78.527504
700.911588	-78.322607
701.075499	-78.126980
701.239486	-77.932985
701.403550	-77.734645
701.567691	-77.528642
701.731909	-77.314527
701.896203	-77.094310
702.060575	-76.871644
702.225024	-76.650974
702.389549	-76.436880
702.554152	-76.233637
702.718832	-76.045032
702.883589	-75.874306
703.048424	-75.723964
703.213335	-75.595525
703.378324	-75.489372
703.543391	-75.404596
703.708535	-75.339081
703.873757	-75.289745
704.039056	-75.253008
704.204433	-75.225435
704.369887	-75.204142
704.535420	-75.187030
704.701030	-75.172841
704.866718	-75.160914
705.032484	-75.151004
705.198328	-75.143291
705.364250	-75.138504
705.530250	-75.138093
705.696328	-75.144547
705.862485	-75.161456
706.028720	-75.193129
706.195033	-75.243887
706.361424	-75.317207
706.527894	-75.414834
706.694442	-75.536247
706.861069	-75.678465
707.027775	-75.836406
707.194559	-76.003774
707.361422	-76.174266
707.528363	-76.342719
707.695384	-76.505934
707.862483	-76.662924
708.029661	-76.814463
708.196918	-76.962269
708.364254	-77.108185
708.531670	-77.253678
708.699164	-77.399974
708.866738	-77.548391
709.034391	-77.700825
709.202123	-77.860161
709.369935	-78.030214
709.537826	-78.215222
709.705796	-78.418914
709.873847	-78.643467
710.041976	-78.888700
710.210186	-79.151459
710.378475	-79.425441
710.546844	-79.701670
710.715292	-79.969391
710.883821	-80.217371
711.052429	-80.435557
711.221118	-80.616504
711.389887	-80.756376
711.558735	-80.855312
711.727664	-80.916785
711.896673	-80.946571
712.065763	-80.951716
712.234932	-80.939292
712.404183	-80.915638
712.573513	-80.885848
712.742924	-80.853458
712.912416	-80.820499
713.081988	-80.787654
713.251641	-80.754668
713.421375	-80.720927
713.591190	-80.686044
713.761085	-80.650257
713.931061	-80.614718
714.101119	-80.581458
714.271257	-80.552693
714.441476	-80.530083
714.611777	-80.513925
714.782159	-80.502641
714.952622	-80.492760
715.123166	-80.479574
715.293792	-80.458455
715.464499	-80.426332
715.635288	-80.382794
715.806158	-80.330621
715.977110	-80.275359
716.148143	-80.223804
716.319259	-80.182269
716.490456	-80.155132
716.661735	-80.143661
716.833096	-80.145563
717.004538	-80.155161
717.176063	-80.164170
717.347670	-80.162957
717.519359	-80.141972
717.691130	-80.093216
717.862984	-80.011351
718.034920	-79.894413
718.206938	-79.743713
718.379039	-79.563203
718.551222	-79.358343
718.723488	-79.135125
718.895836	-78.899258
719.068267	-78.655350
719.240781	-78.406449
719.413377	-78.154000
719.586057	-77.898144
719.758819	-77.638171
719.931664	-77.373230
720.104593	-77.103126
720.277604	-76.829078
720.450699	-76.553959
720.623876	-76.282178
720.797137	-76.019064
720.970482	-75.769843
721.143910	-75.538566
721.317421	-75.327189
721.491016	-75.135088
721.664694	-74.959156
721.838456	-74.794445
722.012302	-74.635434
722.186231	-74.477563
722.360244	-74.318416
722.534342	-74.158520
722.708523	-74.001069
722.882788	-73.850707
723.057137	-73.712016
723.231570	-73.588074
723.406088	-73.479587
723.580689	-73.384839
723.755375	-73.300432
723.930146	-73.222541
724.105000	-73.148261
724.279940	-73.076658
724.454963	-73.009105
724.630072	-72.948882
724.805265	-72.900205
724.980543	-72.867024
725.155905	-72.852190
725.331353	-72.857128
725.506885	-72.881862
725.682503	-72.925582
725.858205	-72.987426
726.033993	-73.067096
726.209865	-73.165277
726.385823	-73.283616
726.561866	-73.424619
726.737995	-73.591326
726.914209	-73.786894
727.090508	-74.014321
727.266893	-74.276104
727.443364	-74.574011
727.619920	-74.908742
727.796562	-75.279519
727.973290	-75.683730
728.150103	-76.116673
728.327003	-76.571912
728.503988	-77.042055
728.681060	-77.520243
728.858218	-78.002008
729.035461	-78.486605
729.212791	-78.977282
729.390208	-79.480092
729.567710	-80.001579
729.745299	-80.545703
729.922975	-81.111085
730.100737	-81.689127
730.278586	-82.263244
730.456521	-82.809736
730.634543	-83.300943
730.812652	-83.710052
730.990848	-84.016551
731.169130	-84.210807
731.347500	-84.296077
731.525957	-84.286225
731.704500	-84.200561
731.883131	-84.057981
732.061850	-83.872169
732.240655	-83.649276
732.419548	-83.388580
732.598528	-83.085616
732.777596	-82.737054
732.956751	-82.344526
733.135994	-81.916094
733.315325	-81.465306
733.494744	-81.007942
733.674250	-80.558981
733.853844	-80.130733
734.033526	-79.732167
734.213296	-79.369208
734.393154	-79.045542
734.573101	-78.762975
734.753135	-78.521638
734.933258	-78.319936
735.113469	-78.154436
735.293769	-78.020075
735.474157	-77.910893
735.654633	-77.820974
735.835198	-77.745831
736.015852	-77.683498
736.196594	-77.634774
736.377426	-77.602879
736.558346	-77.592333
736.739355	-77.607462
736.920453	-77.650961
737.101640	-77.723193
737.282916	-77.822122
737.464282	-77.943735
737.645736	-78.082970
737.827280	-78.235103
738.008914	-78.397019
738.190637	-78.568016
738.372449	-78.750099
738.554351	-78.947426
738.736342	-79.165390
738.918424	-79.409639
739.100595	-79.685289
739.282855	-79.996380
739.465206	-80.345248
739.647647	-80.732034
739.830178	-81.154306
740.012799	-81.606264
740.195510	-82.077342
740.378311	-82.551332
740.561203	-83.006544
740.744185	-83.418418
740.927258	-83.765356
741.110421	-84.036162
741.293674	-84.235458
741.477018	-84.382788
741.660453	-84.505292
741.843979	-84.626928
742.027596	-84.759391
742.211303	-84.897443
742.395102	-85.019511
742.578991	-85.094313
742.762972	-85.093819
742.947044	-85.006087
743.131207	-84.841985
743.315461	-84.630935
743.499807	-84.409174
743.684244	-84.208800
743.868773	-84.052134
744.053394	-83.951384
744.238106	-83.911175
744.422910	-83.931149
744.607805	-84.008084
744.792793	-84.137198
744.977872	-84.311241
745.163044	-84.519266
745.348307	-84.745488
745.533663	-84.968262
745.719111	-85.160886
745.904651	-85.294736
746.090283	-85.343786
746.276008	-85.290674
746.461826	-85.131759
746.647735	-84.877877
746.833738	-84.550981
747.019833	-84.178149
747.206021	-83.785285
747.392302	-83.392516
747.578676	-83.012386
747.765143	-82.650661
747.951703	-82.308925
748.138356	-81.988035
748.325102	-81.690916
748.511941	-81.423725
748.698874	-81.194885
748.885900	-81.012399
749.073019	-80.880708
749.260232	-80.798097
749.447539	-80.755775
749.634939	-80.739351
749.822433	-80.733284
750.010021	-80.727083
750.197703	-80.720661
750.385479	-80.725561
750.573348	-80.761490
750.761312	-80.850184
750.949370	-81.007810
751.137523	-81.239262
751.325769	-81.534946
751.514110	-81.869273
751.702545	-82.203775
751.891075	-82.495468
752.079700	-82.709287
752.268419	-82.829300
752.457233	-82.860654
752.646142	-82.822519
752.835145	-82.737811
753.024244	-82.626212
753.213437	-82.503268
753.402726	-82.383437
753.592110	-82.282965
753.781589	-82.220109
753.971163	-82.212702
754.160833	-82.274605
754.350598	-82.412258
754.540459	-82.622389
754.730415	-82.891367
754.920467	-83.196814
755.110615	-83.511418
755.300858	-83.809546
755.491198	-84.074839
755.681633	-84.304218
755.872164	-84.506728
756.062792	-84.697493
756.253515	-84.890320
756.444335	-85.092289
756.635252	-85.301725
756.826264	-85.509699
757.017373	-85.703656
757.208579	-85.872270
757.399881	-86.010425
757.591280	-86.122255
757.782776	-86.219867
757.974368	-86.320450
758.166058	-86.441682
758.357844	-86.597775
758.549728	-86.796313
758.741708	-87.036009
758.933786	-87.306397
759.125961	-87.587951
759.318233	-87.855489
759.510603	-88.083465
759.703071	-88.253271
759.895635	-88.361017
760.088298	-88.419700
760.281058	-88.455651
760.473916	-88.499755
760.666872	-88.578874
760.859926	-88.709717
761.053078	-88.897317
761.246328	-89.137881
761.439676	-89.424923
761.633122	-89.758516
761.826667	-90.152548
762.020310	-90.636930
762.214052	-91.251005
762.407892	-92.022442
762.601831	-92.922283
762.795868	-93.771752
762.990004	-94.154854
763.184239	-93.642515
763.378573	-92.333451
763.573006	-90.724311
763.767538	-89.179508
763.962169	-87.837609
764.156900	-86.717462
764.351729	-85.791114
764.546658	-85.014361
764.741687	-84.340680
764.936815	-83.729049
765.132042	-83.151298
765.327370	-82.595624
765.522797	-82.064995
765.718324	-81.571789
765.913950	-81.131530
766.109677	-80.757953
766.305504	-80.460307
766.501431	-80.242542
766.697458	-80.103985
766.893586	-80.040399
767.089814	-80.045180
767.286142	-80.111129
767.482571	-80.231174
767.679100	-80.399134
767.875730	-80.610802
768.072461	-80.864559
768.269293	-81.161309
768.466225	-81.503700
768.663259	-81.895878
768.860393	-82.342101
769.057629	-82.845382
769.254966	-83.406694
769.452404	-84.024233
769.649944	-84.694547
769.847585	-85.413409
770.045328	-86.178379
770.243172	-86.990676
770.441118	-87.855959
770.639166	-88.783979
770.837315	-89.785871
771.035567	-90.867901
771.233920	-92.021619
771.432376	-93.209397
771.630934	-94.347413
771.829594	-95.300106
772.028356	-95.918856
772.227220	-96.133074
772.426188	-96.004318
772.625257	-95.669860
772.824430	-95.249105
773.023705	-94.804797
773.223083	-94.353210
773.422563	-93.883124
773.622147	-93.375119
773.821834	-92.815272
774.021624	-92.200212
774.221517	-91.536873
774.421513	-90.840291
774.621613	-90.127589
774.821816	-89.415063
775.022122	-88.717043
775.222532	-88.043903
775.423046	-87.402898
775.623664	-86.797487
775.824385	-86.226843
776.025211	-85.687395
776.226140	-85.173552
776.427173	-84.678186
776.628311	-84.194454
776.829553	-83.718433
777.030899	-83.249828
777.232350	-82.792727
777.433905	-82.355400
777.635564	-81.948497
777.837328	-81.583605
778.039197	-81.271206
778.241171	-81.018569
778.443250	-80.828021
778.645433	-80.695975
778.847722	-80.612247
779.050116	-80.561353
779.252615	-80.525337
779.455219	-80.487434
779.657929	-80.436948
779.860744	-80.372048
780.063665	-80.299508
780.266691	-80.231595
780.469823	-80.181773
780.673061	-80.160034
780.876405	-80.169957
781.079855	-80.207627
781.283410	-80.263186
781.487072	-80.324051
781.690840	-80.378868
781.894715	-80.422385
782.098695	-80.458545
782.302783	-80.499715
782.506976	-80.563272
782.711277	-80.667143
782.915684	-80.825314
783.120198	-81.044638
783.324818	-81.323216
783.529546	-81.648492
783.734381	-81.995867
783.939322	-82.329375
784.144372	-82.605778
784.349528	-82.785194
784.554792	-82.845370
784.760163	-82.793014
784.965642	-82.663761
785.171228	-82.509728
785.376922	-82.383576
785.582724	-82.327721
785.788634	-82.369868
785.994651	-82.521927
786.200777	-82.780185
786.407011	-83.126135
786.613353	-83.526744
786.819804	-83.936863
787.026363	-84.307817
787.233030	-84.602226
787.439806	-84.807952
787.646691	-84.944725
787.853684	-85.057987
788.060786	-85.202168
788.267997	-85.429021
788.475317	-85.782476
788.682746	-86.297497
788.890285	-87.004001
789.097932	-87.928429
789.305689	-89.093139
789.513555	-90.507005
789.721531	-92.129261
789.929617	-93.778422
790.137812	-94.999581
790.346117	-95.247084
790.554531	-94.569138
790.763056	-93.536567
790.971691	-92.575397
791.180436	-91.844437
791.389291	-91.366934
791.598256	-91.114859
791.807332	-91.039654
792.016518	-91.084161
792.225815	-91.193859
792.435222	-91.331846
792.644740	-91.489376
792.854369	-91.685379
793.064109	-91.957809
793.273960	-92.343874
793.483922	-92.857859
793.693995	-93.473922
793.904180	-94.109633
794.114475	-94.625083
794.324882	-94.878205
794.535401	-94.833112
794.746031	-94.598732
794.956774	-94.343415
795.167627	-94.196600
795.378593	-94.207598
795.589671	-94.333874
795.800861	-94.443271
796.012162	-94.356073
796.223577	-93.952579
796.435103	-93.267243
796.646742	-92.437475
796.858493	-91.572947
797.070357	-90.692719
797.282334	-89.743049
797.494423	-88.655660
797.706626	-87.412251
797.918941	-86.066939
798.131369	-84.714173
798.343911	-83.443479
798.556566	-82.316860
798.769334	-81.369480
798.982215	-80.616935
799.195210	-80.061759
799.408319	-79.696625
799.621541	-79.504542
799.834877	-79.455669
800.048327	-79.501757
800.261890	-79.572877
800.475568	-79.582432
800.689360	-79.450009
800.903266	-79.137010
801.117287	-78.667976
801.331422	-78.114887
801.545671	-77.561960
801.760036	-77.078516
801.974514	-76.710784
802.189108	-76.483672
802.403816	-76.405302
802.618640	-76.469918
802.833578	-76.657431
803.048632	-76.932468
803.263800	-77.245442
803.479085	-77.539521
803.694484	-77.766750
803.909999	-77.909805
804.125630	-77.992220
804.341376	-78.069711
804.557239	-78.209465
804.773217	-78.471107
804.989311	-78.895458
805.205521	-79.498524
805.421847	-80.263468
805.638290	-81.125833
805.854849	-81.961518
806.071524	-82.607514
806.288316	-82.950218
806.505225	-83.023489
806.722250	-82.989744
806.939393	-83.034471
807.156652	-83.303363
807.374028	-83.902340
807.591521	-84.925484
807.809132	-86.491235
808.026859	-88.798073
808.244705	-92.265679
808.462667	-98.079579
808.680748	-109.081983
808.898946	-100.147418
809.117261	-95.271619
809.335695	-93.014364
809.554246	-92.016484
809.772916	-91.710714
809.991704	-91.567139
810.210610	-90.944910
810.429634	-89.551540
810.648777	-87.762276
810.868039	-86.065067
811.087419	-84.712074
811.306918	-83.792726
811.526535	-83.337853
811.746272	-83.364166
811.966127	-83.870666
812.186102	-84.763544
812.406196	-85.606592
812.626409	-85.410009
812.846742	-83.732291
813.067194	-81.466135
813.287766	-79.370957
813.508457	-77.671180
813.729269	-76.381141
813.950200	-75.466949
814.171251	-74.890041
814.392422	-74.614122
814.613714	-74.602175
814.835126	-74.810069
815.056658	-75.177997
815.278311	-75.622510
815.500084	-76.036870
815.721978	-76.314134
815.943993	-76.390547
816.166128	-76.277140
816.388385	-76.044963
816.610762	-75.780151
816.833261	-75.549948
817.055881	-75.392134
817.278623	-75.318475
817.501486	-75.320743
817.724471	-75.374488
817.947577	-75.443254
818.170805	-75.485939
818.394155	-75.469938
818.617627	-75.386957
818.841221	-75.262008
819.064937	-75.148893
819.288775	-75.116268
819.512736	-75.233433
819.736819	-75.563681
819.961025	-76.162759
820.185354	-77.077130
820.409805	-78.333360
820.634379	-79.894981
820.859076	-81.539685
821.083897	-82.696931
821.308840	-82.785424
821.533907	-82.055106
821.759097	-81.205124
821.984411	-80.638181
822.209848	-80.469019
822.435409	-80.674952
822.661093	-81.133876
822.886902	-81.592993
823.112834	-81.694480
823.338891	-81.220940
823.565072	-80.321473
823.791377	-79.319984
824.017807	-78.448784
824.244361	-77.807757
824.471039	-77.418328
824.697843	-77.263938
824.924771	-77.306526
825.151824	-77.490646
825.379002	-77.741456
825.606306	-77.966557
825.833734	-78.071341
826.061288	-77.990814
826.288967	-77.721624
826.516772	-77.321889
826.744703	-76.877359
826.972759	-76.462319
827.200941	-76.117107
827.429249	-75.841213
827.657683	-75.593103
827.886243	-75.300871
828.114930	-74.890946
828.343743	-74.330426
828.572682	-73.651392
828.801748	-72.935400
829.030941	-72.276095
829.260260	-71.752104
829.489706	-71.420565
829.719280	-71.322086
829.948980	-71.489095
830.178808	-71.953887
830.408763	-72.756588
830.638845	-73.954014
830.869055	-75.628126
831.099393	-77.873044
831.329858	-80.610184
831.560451	-82.592087
831.791173	-81.467711
832.022022	-78.769916
832.252999	-76.371602
832.484105	-74.538724
832.715339	-73.188511
832.946702	-72.231439
833.178193	-71.607654
833.409813	-71.282291
833.641561	-71.239449
833.873439	-71.478575
834.105445	-72.014792
834.337581	-72.883092
834.569846	-74.149245
834.802241	-75.935271
835.034764	-78.482677
835.267418	-82.326879
835.500201	-88.474314
835.733114	-88.828882
835.966157	-82.654148
836.199329	-78.794271
836.432632	-76.263615
836.666065	-74.503376
836.899629	-73.261361
837.133323	-72.410122
837.367147	-71.879970
837.601102	-71.632471
837.835188	-71.648907
838.069405	-71.925603
838.303752	-72.473448
838.538231	-73.319895
838.772841	-74.515650
839.007582	-76.143464
839.242455	-78.317429
839.477459	-81.058118
839.712595	-83.371788
839.947863	-82.431390
840.183263	-79.379499
840.418794	-76.563627
840.654458	-74.330541
840.890254	-72.577667
841.126182	-71.195781
841.362242	-70.110337
841.598435	-69.273990
841.834761	-68.657646
842.071220	-68.245046
842.307811	-68.029181
842.544536	-68.010534
842.781393	-68.196357
843.018384	-68.601112
843.255508	-69.248569
843.492765	-70.175795
843.730156	-71.442388
843.967681	-73.149858
844.205339	-75.488511
844.443132	-78.876016
844.681058	-84.510145
844.919118	-94.637534
845.157313	-85.162857
845.395642	-79.659792
845.634105	-76.482601
845.872703	-74.356283
846.111436	-72.840911
846.350303	-71.737776
846.589306	-70.944194
846.828443	-70.404865
847.067716	-70.092119
847.307124	-69.997042
847.546667	-70.125726
847.786345	-70.497845
848.026160	-71.147208
848.266110	-72.121438
848.506195	-73.471593
848.746417	-75.189356
848.986775	-76.929986
849.227269	-77.482672
849.467899	-75.971647
849.708666	-73.590077
849.949569	-71.367832
850.190609	-69.543426
850.431785	-68.105489
850.673099	-67.004370
850.914549	-66.196042
851.156137	-65.648064
851.397861	-65.338454
851.639723	-65.253493
851.881723	-65.386261
852.123860	-65.735810
852.366135	-66.305912
852.608547	-67.101670
852.851098	-68.119568
853.093786	-69.318261
853.336613	-70.544782
853.579578	-71.421300
853.822681	-71.430762
854.065923	-70.469437
854.309304	-68.996115
854.552823	-67.462169
854.796481	-66.076523
855.040278	-64.900611
855.284215	-63.939780
855.528290	-63.182597
855.772505	-62.614441
856.016859	-62.221761
856.261353	-61.992514
856.505987	-61.915513
856.750760	-61.978982
856.995673	-62.168497
857.240727	-62.463499
857.485920	-62.832608
857.731254	-63.228582
857.976729	-63.585647
858.222343	-63.826002
858.468099	-63.881357
858.713995	-63.723225
858.960032	-63.378171
859.206211	-62.913184
859.452530	-62.405313
859.698991	-61.919205
859.945593	-61.499927
860.192336	-61.174997
860.439222	-60.959042
860.686248	-60.857776
860.933417	-60.870199
861.180728	-60.988559
861.428181	-61.196662
861.675776	-61.466498
861.923514	-61.753766
862.171394	-61.995758
862.419417	-62.117764
862.667582	-62.053437
862.915890	-61.773235
863.164342	-61.299771
863.412936	-60.695078
863.661674	-60.031899
863.910555	-59.371746
864.159579	-58.757265
864.408747	-58.213863
864.658059	-57.754356
864.907515	-57.383177
865.157114	-57.099267
865.406858	-56.897652
865.656746	-56.770104
865.906778	-56.705117
866.156955	-56.687493
866.407277	-56.697956
866.657743	-56.713649
866.908354	-56.709869
867.159110	-56.663636
867.410011	-56.558391
867.661057	-56.388248
867.912249	-56.159560
868.163586	-55.888906
868.415069	-55.598623
868.666697	-55.311792
868.918472	-55.048558
869.170392	-54.824211
869.422458	-54.648606
869.674671	-54.526388
869.927030	-54.457383
870.179536	-54.436943
870.432188	-54.456076
870.684987	-54.501554
870.937933	-54.556391
871.191026	-54.600909
871.444266	-54.614790
871.697653	-54.580337
871.951188	-54.486102
872.204870	-54.329541
872.458700	-54.117547
872.712677	-53.864541
872.966803	-53.588982
873.221076	-53.309828
873.475498	-53.043824
873.730068	-52.803968
873.984787	-52.599037
874.239654	-52.433697
874.494669	-52.308833
874.749834	-52.221899
875.005147	-52.167201
875.260610	-52.136324
875.516222	-52.118699
875.771983	-52.102352
876.027894	-52.075156
876.283954	-52.026376
876.540164	-51.948297
876.796524	-51.837546
877.053033	-51.695534
877.309693	-51.528024
877.566503	-51.343823
877.823464	-51.153051
878.080575	-50.965534
878.337837	-50.789585
878.595249	-50.631186
878.852813	-50.493617
879.110528	-50.377412
879.368393	-50.280441
879.626410	-50.198168
879.884579	-50.124108
880.142899	-50.050458
880.401371	-49.968873
880.659994	-49.871495
880.918770	-49.752043
881.177698	-49.606812
881.436778	-49.435267
881.696010	-49.240071
881.955395	-49.026601
882.214933	-48.802082
882.474623	-48.574507
882.734467	-48.351666
882.994463	-48.140351
883.254613	-47.945824
883.514916	-47.771582
883.775372	-47.619187
884.035982	-47.488316
884.296746	-47.376876
884.557664	-47.281190
884.818735	-47.196267
885.079961	-47.116253
885.341341	-47.035028
885.602876	-46.946886
885.864565	-46.847208
886.126409	-46.733073
886.388407	-46.603622
886.650561	-46.460111
886.912870	-46.305589
887.175334	-46.144261
887.437953	-45.980769
887.700728	-45.819522
887.963658	-45.664162
888.226745	-45.517153
888.489987	-45.379590
888.753385	-45.251263
889.016940	-45.130823
889.280651	-45.016023
889.544518	-44.904061
889.808543	-44.792007
890.072723	-44.677214
890.337061	-44.557662
890.601556	-44.432202
890.866208	-44.300681
891.131017	-44.163937
891.395984	-44.023623
891.661109	-43.881927
891.926391	-43.741264
892.191831	-43.603978
892.457429	-43.472023
892.723186	-43.346750
892.989100	-43.228811
893.255173	-43.118114
893.521405	-43.013853
893.787796	-42.914613
894.054345	-42.818570
894.321053	-42.723696
894.587921	-42.628004
894.854948	-42.529779
895.122134	-42.427772
895.389480	-42.321355
895.656986	-42.210536
895.924651	-42.095935
896.192477	-41.978693
896.460463	-41.860294
896.728609	-41.742344
896.996915	-41.626365
897.265382	-41.513643
897.534010	-41.405067
897.802799	-41.301055
898.071749	-41.201519
898.340860	-41.105906
898.610132	-41.013286
898.879566	-40.922459
899.149162	-40.832136
899.418919	-40.741124
899.688838	-40.648468
899.958919	-40.553570
900.229162	-40.456303
900.499568	-40.357006
900.770136	-40.256429
901.040867	-40.155649
901.311761	-40.055938
901.582817	-39.958608
901.854037	-39.864846
902.125420	-39.775621
902.396966	-39.691596
902.668676	-39.613079
902.940550	-39.540001
903.212587	-39.471956
903.484788	-39.408275
903.757153	-39.348102
904.029683	-39.290468
904.302377	-39.234418
904.575236	-39.179116
904.848259	-39.123889
905.121447	-39.068274
905.394800	-39.012038
905.668319	-38.955169
905.942002	-38.897818
906.215852	-38.840217
906.489866	-38.782617
906.764047	-38.725219
907.038393	-38.668122
907.312906	-38.611269
907.587584	-38.554427
907.862429	-38.497220
908.137441	-38.439181
908.412619	-38.379771
908.687964	-38.318466
908.963476	-38.254850
909.239155	-38.188692
909.515002	-38.119996
909.791015	-38.049048
910.067197	-37.976426
910.343546	-37.902951
910.620063	-37.829628
910.896748	-37.757562
911.173601	-37.687862
911.450623	-37.621532
911.727813	-37.559379
912.005171	-37.501946
912.282699	-37.449475
912.560395	-37.401880
912.838261	-37.358749
913.116296	-37.319384
913.394500	-37.282869
913.672874	-37.248145
913.951418	-37.214099
914.230131	-37.179670
914.509015	-37.143955
914.788068	-37.106293
915.067292	-37.066308
915.346687	-37.023944
915.626252	-36.979454
915.905988	-36.933326
916.185895	-36.886185
916.465973	-36.838694
916.746223	-36.791444
917.026644	-36.744851
917.307236	-36.699074
917.588000	-36.654003
917.868937	-36.609217
918.150045	-36.564052
918.431325	-36.517657
918.712778	-36.469075
918.994404	-36.417339
919.276202	-36.361588
919.558173	-36.301130
919.840317	-36.235514
920.122634	-36.164577
920.405125	-36.088446
920.687789	-36.007514
920.970627	-35.922427
921.253639	-35.834008
921.536824	-35.743201
921.820184	-35.650986
922.103718	-35.558349
922.387427	-35.466203
922.671310	-35.375323
922.955368	-35.286361
923.239601	-35.199828
923.524009	-35.116069
923.808592	-35.035303
924.093351	-34.957624
924.378285	-34.883011
924.663396	-34.811335
924.948682	-34.742372
925.234144	-34.675784
925.519782	-34.611131
925.805597	-34.547856
926.091589	-34.485318
926.377757	-34.422813
926.664102	-34.359599
926.950624	-34.294928
927.237323	-34.228118
927.524200	-34.158595
927.811255	-34.085920
928.098487	-34.009833
928.385897	-33.930269
928.673485	-33.847356
928.961251	-33.761410
929.249196	-33.672920
929.537319	-33.582536
929.825621	-33.491022
930.114102	-33.399258
930.402762	-33.308206
930.691601	-33.218872
930.980620	-33.132285
931.269818	-33.049463
931.559196	-32.971373
931.848753	-32.898894
932.138491	-32.832767
932.428409	-32.773571
932.718508	-32.721669
933.008787	-32.677206
933.299246	-32.640082
933.589887	-32.609963
933.880709	-32.586298
934.171712	-32.568346
934.462896	-32.555211
934.754262	-32.545884
935.045810	-32.539294
935.337539	-32.534350
935.629451	-32.529980
935.921545	-32.525172
936.213822	-32.518996
936.506281	-32.510627
936.798922	-32.499349
937.091747	-32.484563
937.384755	-32.465780
937.677946	-32.442606
937.971321	-32.414742
938.264879	-32.381964
938.558621	-32.344126
938.852547	-32.301166
939.146657	-32.253119
939.440952	-32.200121
939.735431	-32.142423
940.030095	-32.080411
940.324943	-32.014577
940.619977	-31.945518
940.915196	-31.873908
941.210600	-31.800456
941.506189	-31.725864
941.801965	-31.650779
942.097926	-31.575763
942.394074	-31.501259
942.690407	-31.427585
942.986927	-31.354945
943.283634	-31.283449
943.580527	-31.213149
943.877608	-31.144071
944.174875	-31.076255
944.472330	-31.009779
944.769972	-30.944781
945.067802	-30.881470
945.365820	-30.820109
945.664026	-30.761006
945.962420	-30.704495
946.261002	-30.650912
946.559773	-30.600565
946.858733	-30.553738
947.157881	-30.510650
947.457219	-30.471460
947.756746	-30.436261
948.056462	-30.405082
948.356368	-30.377887
948.656464	-30.354599
948.956749	-30.335100
949.257225	-30.319246
949.557891	-30.306892
949.858748	-30.297884
950.159796	-30.292067
950.461034	-30.289289
950.762463	-30.289391
951.064084	-30.292178
951.365896	-30.297410
951.667900	-30.304784
951.970095	-30.313908
952.272483	-30.324293
952.575063	-30.335353
952.877835	-30.346410
953.180799	-30.356710
953.483956	-30.365450
953.787307	-30.371801
954.090850	-30.374955
954.394586	-30.374141
954.698516	-30.368651
955.002640	-30.357861
955.306957	-30.341238
955.611469	-30.318346
955.916174	-30.288848
956.221074	-30.252504
956.526169	-30.209174
956.831458	-30.158814
957.136942	-30.101486
957.442622	-30.037361
957.748496	-29.966714
958.054567	-29.889935
958.360833	-29.807516
958.667294	-29.720038
958.973952	-29.628152
959.280806	-29.532547
959.587857	-29.433934
959.895104	-29.333018
960.202548	-29.230475
960.510189	-29.126934
960.818027	-29.022981
961.126062	-28.919144
961.434295	-28.815881
961.742726	-28.713594
962.051355	-28.612626
962.360182	-28.513256
962.669207	-28.415717
962.978431	-28.320193
963.287854	-28.226832
963.597475	-28.135747
963.907296	-28.047036
964.217315	-27.960779
964.527535	-27.877044
964.837954	-27.795890
965.148573	-27.717361
965.459392	-27.641495
965.770411	-27.568308
966.081630	-27.497791
966.393051	-27.429921
966.704672	-27.364651
967.016494	-27.301910
967.328517	-27.241616
967.640742	-27.183679
967.953169	-27.128003
968.265797	-27.074503
968.578627	-27.023108
968.891660	-26.973770
969.204895	-26.926462
969.518332	-26.881174
969.831972	-26.837917
970.145816	-26.796712
970.459862	-26.757580
970.774112	-26.720533
971.088565	-26.685558
971.403223	-26.652611
971.718084	-26.621604
972.033149	-26.592402
972.348419	-26.564817
972.663893	-26.538608
972.979572	-26.513496
973.295456	-26.489160
973.611546	-26.465254
973.927840	-26.441426
974.244340	-26.417323
974.561046	-26.392606
974.877958	-26.366966
975.195076	-26.340130
975.512401	-26.311875
975.829932	-26.282034
976.147670	-26.250492
976.465615	-26.217190
976.783767	-26.182105
977.102126	-26.145246
977.420693	-26.106633
977.739468	-26.066294
978.058451	-26.024255
978.377642	-25.980529
978.697041	-25.935125
979.016649	-25.888044
979.336466	-25.839290
979.656492	-25.788876
979.976727	-25.736835
980.297171	-25.683230
980.617825	-25.628168
980.938689	-25.571800
981.259763	-25.514322
981.581048	-25.455969
981.902542	-25.396999
982.224248	-25.337684
982.546164	-25.278303
982.868291	-25.219138
983.190630	-25.160476
983.513180	-25.102597
983.835942	-25.045784
984.158916	-24.990304
984.482101	-24.936409
984.805500	-24.884339
985.129110	-24.834312
985.452934	-24.786541
985.776970	-24.741240
986.101220	-24.698625
986.425683	-24.658927
986.750359	-24.622379
987.075250	-24.589226
987.400354	-24.559708
987.725673	-24.534073
988.051206	-24.512565
988.376954	-24.495431
988.702916	-24.482919
989.029094	-24.475266
989.355487	-24.472701
989.682095	-24.475424
990.008919	-24.483604
990.335959	-24.497370
990.663216	-24.516810
990.990688	-24.541970
991.318377	-24.572854
991.646283	-24.609443
991.974406	-24.651687
992.302746	-24.699505
992.631304	-24.752794
992.960079	-24.811420
993.289072	-24.875229
993.618283	-24.944046
993.947713	-25.017682
994.277361	-25.095940
994.607227	-25.178621
994.937313	-25.265519
995.267618	-25.356422
995.598142	-25.451099
995.928886	-25.549293
996.259849	-25.650709
996.591033	-25.755005
996.922437	-25.861784
997.254061	-25.970602
997.585906	-26.080973
997.917972	-26.192367
998.250260	-26.304209
998.582768	-26.415875
998.915498	-26.526691
999.248450	-26.635937
999.581624	-26.742841
999.915020	-26.846599
1000.248639	-26.946373
1000.582480	-27.041331
1000.916545	-27.130658
1001.250832	-27.213586
1001.585343	-27.289395
1001.920077	-27.357429
1002.255035	-27.417099
1002.590218	-27.467906
1002.925624	-27.509448
1003.261255	-27.541437
1003.597111	-27.563709
1003.933192	-27.576235
1004.269497	-27.579127
1004.606029	-27.572634
1004.942785	-27.557138
1005.279768	-27.533132
1005.616977	-27.501213
1005.954412	-27.462064
1006.292074	-27.416434
1006.629962	-27.365117
1006.968077	-27.308940
1007.306420	-27.248743
1007.644990	-27.185372
1007.983787	-27.119667
1008.322813	-27.052462
1008.662067	-26.984572
1009.001549	-26.916791
1009.341259	-26.849893
1009.681199	-26.784624
1010.021367	-26.721702
1010.361765	-26.661810
1010.702392	-26.605569
1011.043250	-26.553549
1011.384337	-26.506269
1011.725654	-26.464218
1012.067202	-26.427859
1012.408980	-26.397638
1012.750989	-26.373996
1013.093230	-26.357373
1013.435702	-26.348195
1013.778405	-26.346866
1014.121341	-26.353757
1014.464508	-26.369221
1014.807908	-26.393595
1015.151540	-26.427201
1015.495405	-26.470358
1015.839503	-26.523366
1016.183835	-26.586520
1016.528400	-26.660108
1016.873198	-26.744421
1017.218231	-26.839768
1017.563498	-26.946475
1017.908999	-27.064901
1018.254735	-27.195433
1018.600707	-27.338486
1018.946913	-27.494509
1019.293354	-27.663990
1019.640032	-27.847465
1019.986945	-28.045517
1020.334094	-28.258781
1020.681480	-28.487938
1021.029102	-28.733724
1021.376961	-28.996945
1021.725058	-29.278484
1022.073391	-29.579322
1022.421962	-29.900559
1022.770772	-30.243416
1023.119819	-30.609231
1023.469104	-30.999467
1023.818628	-31.415717
1024.168391	-31.859709
1024.518393	-32.333268
1024.868634	-32.838244
1025.219115	-33.376382
1025.569836	-33.949067
1025.920796	-34.556882
1026.271997	-35.198875
1026.623438	-35.871338
1026.975121	-36.565844
1027.327044	-37.266341
1027.679208	-37.945338
1028.031614	-38.560140
1028.384262	-39.052279
1028.737152	-39.355423
1029.090284	-39.414929
1029.443659	-39.211522
1029.797276	-38.771208
1030.151137	-38.152233
1030.505240	-37.420963
1030.859587	-36.633939
1031.214178	-35.831608
1031.569013	-35.039631
1031.924093	-34.272766
1032.279417	-33.538589
1032.634985	-32.840302
1032.990799	-32.178544
1033.346858	-31.552535
1033.703162	-30.960743
1034.059712	-30.401296
1034.416509	-29.872213
1034.773551	-29.371544
1035.130841	-28.897447
1035.488377	-28.448217
1035.846160	-28.022289
1036.204190	-27.618229
1036.562468	-27.234729
1036.920994	-26.870599
1037.279768	-26.524753
1037.638790	-26.196206
1037.998061	-25.884068
1038.357581	-25.587525
1038.717350	-25.305807
1039.077368	-25.038190
1039.437636	-24.784000
1039.798154	-24.542599
1040.158922	-24.313384
1040.519940	-24.095779
1040.881209	-23.889234
1041.242729	-23.693216
1041.604501	-23.507219
1041.966524	-23.330758
1042.328798	-23.163360
1042.691325	-23.004572
1043.054103	-22.853967
1043.417135	-22.711138
1043.780419	-22.575691
1044.143956	-22.447256
1044.507746	-22.325482
1044.871791	-22.210045
1045.236088	-22.100646
1045.600641	-21.996999
1045.965447	-21.898835
1046.330508	-21.805905
1046.695824	-21.717984
1047.061395	-21.634873
1047.427222	-21.556401
1047.793304	-21.482428
1048.159642	-21.412835
1048.526237	-21.347528
1048.893088	-21.286447
1049.260196	-21.229561
1049.627561	-21.176866
1049.995183	-21.128378
1050.363063	-21.084130
1050.731201	-21.044171
1051.099597	-21.008561
1051.468251	-20.977381
1051.837164	-20.950732
1052.206336	-20.928717
1052.575767	-20.911431
1052.945458	-20.898963
1053.315409	-20.891400
1053.685619	-20.888828
1054.056090	-20.891331
1054.426821	-20.898993
1054.797814	-20.911909
1055.169067	-20.930182
1055.540582	-20.953924
1055.912359	-20.983257
1056.284398	-21.018306
1056.656698	-21.059196
1057.029262	-21.106059
1057.402088	-21.159031
1057.775177	-21.218239
1058.148530	-21.283801
1058.522146	-21.355815
1058.896027	-21.434359
1059.270171	-21.519486
1059.644580	-21.611232
1060.019254	-21.709614
1060.394193	-21.814629
1060.769397	-21.926255
1061.144867	-22.044443
1061.520602	-22.169121
1061.896604	-22.300205
1062.272872	-22.437622
1062.649407	-22.581315
1063.026210	-22.731244
1063.403279	-22.887405
1063.780616	-23.049837
1064.158221	-23.218613
1064.536094	-23.393852
1064.914235	-23.575726
1065.292645	-23.764450
1065.671325	-23.960272
1066.050273	-24.163483
1066.429491	-24.374420
1066.808979	-24.593455
1067.188738	-24.820975
1067.568766	-25.057396
1067.949066	-25.303166
1068.329636	-25.558753
1068.710478	-25.824643
1069.091592	-26.101358
1069.472977	-26.389469
1069.854635	-26.689607
1070.236565	-27.002459
1070.618768	-27.328753
1071.001243	-27.669286
1071.383993	-28.024933
1071.767016	-28.396625
1072.150313	-28.785296
1072.533884	-29.191803
1072.917730	-29.616835
1073.301850	-30.060812
1073.686246	-30.523622
1074.070917	-31.004295
1074.455864	-31.500625
1074.841087	-32.008586
1075.226586	-32.521553
1075.612362	-33.029358
1075.998415	-33.517330
1076.384745	-33.965665
1076.771353	-34.349677
1077.158238	-34.641754
1077.545401	-34.815526
1077.932843	-34.851560
1078.320564	-34.742621
1078.708564	-34.495827
1079.096842	-34.130406
1079.485401	-33.672388
1079.874240	-33.148934
1080.263358	-32.584334
1080.652757	-31.998135
1081.042438	-31.404930
1081.432399	-30.815019
1081.822641	-30.235294
1082.213166	-29.670135
1082.603972	-29.122190
1082.995061	-28.592914
1083.386433	-28.082931
1083.778087	-27.592326
1084.170025	-27.120840
1084.562246	-26.667967
1084.954751	-26.232980
1085.347541	-25.815000
1085.740615	-25.413061
1086.133973	-25.026127
1086.527617	-24.653081
1086.921546	-24.292728
1087.315761	-23.943838
1087.710262	-23.605202
1088.105050	-23.275655
1088.500124	-22.954105
1088.895485	-22.639544
1089.291134	-22.331063
1089.687070	-22.027892
1090.083294	-21.729434
1090.479806	-21.435245
1090.876607	-21.145025
1091.273696	-20.858623
1091.671075	-20.576029
1092.068744	-20.297341
1092.466702	-20.022745
1092.864950	-19.752491
1093.263489	-19.486858
1093.662319	-19.226132
1094.061440	-18.970594
1094.460852	-18.720505
1094.860555	-18.476079
1095.260551	-18.237461
1095.660840	-18.004733
1096.061421	-17.777905
1096.462295	-17.556913
1096.863462	-17.341628
1097.264923	-17.131871
1097.666678	-16.927427
1098.068727	-16.728031
1098.471071	-16.533391
1098.873710	-16.343221
1099.276644	-16.157243
1099.679874	-15.975180
1100.083400	-15.796763
1100.487222	-15.621753
1100.891340	-15.449962
1101.295756	-15.281257
1101.700468	-15.115547
1102.105478	-14.952773
1102.510787	-14.792935
1102.916393	-14.636079
1103.322298	-14.482272
1103.728502	-14.331601
1104.135005	-14.184167
1104.541807	-14.040089
1104.948909	-13.899473
1105.356312	-13.762389
1105.764015	-13.628891
1106.172019	-13.499012
1106.580324	-13.372743
1106.988931	-13.250029
1107.397840	-13.130766
1107.807051	-13.014802
1108.216564	-12.901944
1108.626380	-12.791953
1109.036500	-12.684547
1109.446923	-12.579406
1109.857649	-12.476181
1110.268680	-12.374510
1110.680016	-12.274047
1111.091657	-12.174460
1111.503602	-12.075443
1111.915854	-11.976744
1112.328411	-11.878181
1112.741275	-11.779642
1113.154445	-11.681094
1113.567922	-11.582586
1113.981706	-11.484249
1114.395798	-11.386279
1114.810198	-11.288928
1115.224906	-11.192493
1115.639923	-11.097301
1116.055249	-11.003677
1116.470884	-10.911939
1116.886829	-10.822397
1117.303084	-10.735346
1117.719650	-10.651039
1118.136526	-10.569700
1118.553713	-10.491520
1118.971212	-10.416639
1119.389022	-10.345147
1119.807145	-10.277088
1120.225580	-10.212458
1120.644328	-10.151204
1121.063389	-10.093230
1121.482763	-10.038402
1121.902452	-9.986558
1122.322454	-9.937496
1122.742771	-9.890968
1123.163404	-9.846694
1123.584351	-9.804375
1124.005614	-9.763685
1124.427193	-9.724288
1124.849089	-9.685859
1125.271301	-9.648104
1125.693830	-9.610774
1126.116677	-9.573674
1126.539842	-9.536673
1126.963324	-9.499706
1127.387126	-9.462769
1127.811246	-9.425908
1128.235685	-9.389211
1128.660444	-9.352801
1129.085522	-9.316830
1129.510922	-9.281466
1129.936641	-9.246902
1130.362682	-9.213352
1130.789044	-9.181040
1131.215728	-9.150200
1131.642734	-9.121072
1132.070063	-9.093899
1132.497714	-9.068902
1132.925689	-9.046276
1133.353987	-9.026187
1133.782610	-9.008767
1134.211556	-8.994106
1134.640827	-8.982252
1135.070424	-8.973225
1135.500345	-8.967015
1135.930593	-8.963581
1136.361166	-8.962853
1136.792067	-8.964734
1137.223294	-8.969104
1137.654848	-8.975819
1138.086730	-8.984708
1138.518940	-8.995580
1138.951479	-9.008237
1139.384346	-9.022468
1139.817543	-9.038062
1140.251069	-9.054813
1140.684925	-9.072537
1141.119111	-9.091057
1141.553628	-9.110226
1141.988475	-9.129929
1142.423655	-9.150063
1142.859166	-9.170544
1143.295009	-9.191327
1143.731185	-9.212396
1144.167694	-9.233754
1144.604536	-9.255424
1145.041711	-9.277462
1145.479221	-9.299950
1145.917065	-9.322996
1146.355245	-9.346727
1146.793759	-9.371279
1147.232609	-9.396800
1147.671795	-9.423448
1148.111317	-9.451376
1148.551177	-9.480725
1148.991373	-9.511628
1149.431907	-9.544211
1149.872779	-9.578584
1150.313989	-9.614845
1150.755538	-9.653075
1151.197426	-9.693342
1151.639653	-9.735712
1152.082220	-9.780237
1152.525128	-9.826947
1152.968376	-9.875864
1153.411966	-9.927003
1153.855897	-9.980354
1154.300169	-10.035886
1154.744784	-10.093552
1155.189742	-10.153278
1155.635042	-10.214963
1156.080687	-10.278504
1156.526674	-10.343792
1156.973007	-10.410707
1157.419683	-10.479145
1157.866705	-10.549014
1158.314072	-10.620226
1158.761786	-10.692716
1159.209845	-10.766434
1159.658251	-10.841334
1160.107004	-10.917375
1160.556104	-10.994528
1161.005553	-11.072764
1161.455349	-11.152051
1161.905494	-11.232350
1162.355989	-11.313621
1162.806832	-11.395823
1163.258026	-11.478906
1163.709570	-11.562836
1164.161464	-11.647599
1164.613710	-11.733200
1165.066307	-11.819667
1165.519256	-11.907039
1165.972558	-11.995370
1166.426212	-12.084729
1166.880219	-12.175184
1167.334580	-12.266784
1167.789295	-12.359568
1168.244364	-12.453565
1168.699788	-12.548767
1169.155567	-12.645152
1169.611702	-12.742707
1170.068193	-12.841412
1170.525041	-12.941247
1170.982245	-13.042228
1171.439807	-13.144382
1171.897726	-13.247750
1172.356004	-13.352392
1172.814640	-13.458376
1173.273635	-13.565761
1173.732989	-13.674614
1174.192703	-13.784969
1174.652778	-13.896822
1175.113213	-14.010168
1175.574009	-14.124981
1176.035167	-14.241199
1176.496687	-14.358801
1176.958569	-14.477781
1177.420814	-14.598136
1177.883422	-14.719904
1178.346394	-14.843138
1178.809730	-14.967904
1179.273430	-15.094270
1179.737496	-15.222283
1180.201927	-15.351968
1180.666723	-15.483322
1181.131886	-15.616307
1181.597416	-15.750848
1182.063312	-15.886850
1182.529576	-16.024224
1182.996209	-16.162911
1183.463209	-16.302861
1183.930579	-16.444056
1184.398317	-16.586530
1184.866426	-16.730314
1185.334904	-16.875423
1185.803754	-17.021900
1186.272974	-17.169761
1186.742566	-17.318955
1187.212529	-17.469387
1187.682865	-17.620939
1188.153574	-17.773474
1188.624656	-17.926847
1189.096112	-18.080955
1189.567942	-18.235746
1190.040147	-18.391198
1190.512726	-18.547294
1190.985681	-18.704057
1191.459012	-18.861517
1191.932720	-19.019658
1192.406804	-19.178423
1192.881265	-19.337720
1193.356104	-19.497394
1193.831322	-19.657232
1194.306918	-19.817016
1194.782893	-19.976550
1195.259248	-20.135664
1195.735982	-20.294250
1196.213097	-20.452270
1196.690593	-20.609722
1197.168471	-20.766561
1197.646730	-20.922741
1198.125371	-21.078227
1198.604395	-21.232852
1199.083803	-21.386370
1199.563594	-21.538541
1200.043769	-21.689077
1200.524329	-21.837699
1201.005273	-21.984196
1201.486604	-22.128397
1201.968320	-22.270278
1202.450422	-22.409834
1202.932912	-22.547067
1203.415789	-22.682019
1203.899054	-22.814600
1204.382707	-22.944648
1204.866748	-23.072008
1205.351179	-23.196472
1205.836000	-23.317785
1206.321211	-23.435712
1206.806812	-23.550166
1207.292805	-23.661187
1207.779189	-23.768904
1208.265965	-23.873494
1208.753134	-23.975152
1209.240696	-24.074093
1209.728651	-24.170420
1210.217000	-24.264135
1210.705744	-24.355262
1211.194883	-24.443668
1211.684417	-24.529222
1212.174347	-24.611964
1212.664673	-24.692029
1213.155396	-24.769694
1213.646516	-24.845340
1214.138034	-24.919382
1214.629951	-24.992088
1215.122266	-25.063613
1215.614980	-25.134110
1216.108095	-25.203447
1216.601609	-25.271409
1217.095524	-25.337809
1217.589841	-25.402467
1218.084559	-25.465361
1218.579679	-25.526487
1219.075202	-25.585990
1219.571128	-25.644085
1220.067458	-25.700831
1220.564191	-25.756298
1221.061330	-25.810260
1221.558874	-25.862362
1222.056823	-25.912264
1222.555178	-25.959549
1223.053940	-26.003965
1223.553109	-26.045395
1224.052686	-26.083968
1224.552671	-26.119994
1225.053065	-26.153864
1225.553867	-26.185902
1226.055079	-26.216268
1226.556702	-26.245021
1227.058735	-26.272017
1227.561179	-26.297169
1228.064035	-26.320374
1228.567303	-26.341686
1229.070983	-26.361516
1229.575077	-26.380310
1230.079585	-26.398689
1230.584506	-26.417285
1231.089842	-26.436532
1231.595594	-26.456552
1232.101761	-26.477210
1232.608345	-26.498360
1233.115345	-26.519651
1233.622762	-26.540955
1234.130597	-26.562272
1234.638851	-26.583693
1235.147523	-26.605651
1235.656615	-26.628481
1236.166126	-26.652271
1236.676058	-26.676841
1237.186411	-26.701692
1237.697185	-26.726085
1238.208381	-26.749427
1238.719999	-26.771078
1239.232040	-26.790741
1239.744505	-26.808594
1240.257394	-26.824758
1240.770708	-26.839470
1241.284446	-26.852728
1241.798610	-26.864206
1242.313201	-26.873291
1242.828218	-26.879336
1243.343662	-26.881873
1243.859534	-26.880620
1244.375834	-26.875636
1244.892563	-26.867373
1245.409721	-26.856393
1245.927309	-26.843218
1246.445327	-26.828283
1246.963777	-26.811430
1247.482657	-26.792446
1248.001970	-26.771152
1248.521716	-26.747436
1249.041894	-26.721513
1249.562506	-26.694171
1250.083553	-26.666308
1250.605034	-26.638664
1251.126950	-26.611966
1251.649302	-26.586452
1252.172091	-26.562065
1252.695316	-26.538579
1253.218979	-26.515856
1253.743079	-26.494044
1254.267619	-26.473804
1254.792597	-26.455879
1255.318015	-26.441027
1255.843874	-26.429810
1256.370173	-26.422341
1256.896913	-26.418408
1257.424095	-26.417631
1257.951720	-26.419643
1258.479787	-26.424338
1259.008298	-26.432076
1259.537254	-26.443435
1260.066654	-26.458961
1260.596499	-26.478834
1261.126790	-26.503070
1261.657527	-26.531109
1262.188711	-26.562372
1262.720342	-26.596186
1263.252422	-26.632207
1263.784950	-26.670643
1264.317928	-26.711945
1264.851355	-26.756403
1265.385232	-26.804120
1265.919560	-26.854737
1266.454340	-26.907463
1266.989572	-26.961473
1267.525256	-27.016243
1268.061394	-27.071478
1268.597985	-27.127406
1269.135031	-27.184415
1269.672531	-27.243015
1270.210487	-27.303369
1270.748899	-27.364943
1271.287768	-27.427153
1271.827094	-27.489362
1272.366877	-27.551392
1272.907119	-27.613493
1273.447820	-27.676344
1273.988981	-27.740843
1274.530601	-27.807668
1275.072683	-27.877079
1275.615226	-27.948870
1276.158230	-28.022623
1276.701697	-28.098250
1277.245627	-28.176147
1277.790021	-28.257177
1278.334879	-28.342414
1278.880202	-28.432935
1279.425991	-28.529534
1279.972245	-28.632334
1280.518966	-28.741051
1281.066155	-28.855611
1281.613811	-28.976323
1282.161936	-29.104124
1282.710529	-29.240266
1283.259593	-29.385922
1283.809126	-29.542014
1284.359131	-29.708824
1284.909607	-29.886185
1285.460555	-30.073899
1286.011976	-30.272060
1286.563870	-30.481616
1287.116237	-30.703881
1287.669080	-30.940086
1288.222397	-31.191127
1288.776191	-31.457008
1289.330460	-31.737232
1289.885207	-32.031400
1290.440431	-32.339387
1290.996133	-32.661440
1291.552314	-32.998567
1292.108975	-33.351426
1292.666115	-33.719827
1293.223737	-34.102389
1293.781839	-34.496604
1294.340424	-34.899339
1294.899491	-35.307287
1295.459041	-35.716890
1296.019075	-36.124291
1296.579593	-36.524300
1297.140597	-36.909633
1297.702086	-37.270735
1298.264061	-37.595889
1298.826524	-37.873468
1299.389474	-38.092844
1299.952912	-38.246504
1300.516839	-38.330072
1301.081255	-38.343194
1301.646162	-38.289155
1302.211559	-38.173676
1302.777448	-38.004330
1303.343829	-37.789815
1303.910702	-37.539934
1304.478069	-37.265532
1305.045930	-36.976582
1305.614285	-36.681440
1306.183136	-36.386645
1306.752483	-36.096514
1307.322326	-35.813326
1307.892666	-35.538761
1308.463504	-35.274272
1309.034841	-35.022070
1309.606677	-34.784091
1310.179012	-34.561348
1310.751849	-34.353784
1311.325186	-34.160691
1311.899025	-33.981086
1312.473366	-33.813881
1313.048211	-33.658939
1313.623559	-33.516833
1314.199412	-33.387750
1314.775770	-33.271186
1315.352634	-33.165908
1315.930004	-33.070504
1316.507881	-32.983900
1317.086266	-32.905111
1317.665159	-32.833943
1318.244562	-32.770350
1318.824474	-32.713602
1319.404897	-32.662245
1319.985831	-32.614437
1320.567276	-32.568475
1321.149234	-32.523219
1321.731706	-32.477813
1322.314691	-32.431207
1322.898190	-32.382391
1323.482205	-32.329652
1324.066736	-32.270566
1324.651783	-32.203043
1325.237347	-32.125692
1325.823430	-32.037415
1326.410031	-31.937264
1326.997151	-31.824194
1327.584791	-31.696965
1328.172952	-31.554193
1328.761634	-31.394733
1329.350839	-31.218289
1329.940566	-31.025188
1330.530817	-30.816180
1331.121592	-30.591772
1331.712891	-30.352508
1332.304716	-30.098885
1332.897068	-29.831650
1333.489946	-29.551981
1334.083352	-29.261465
1334.677287	-28.961909
1335.271750	-28.654672
1335.866744	-28.340660
1336.462268	-28.020835
1337.058323	-27.696321
1337.654910	-27.368267
1338.252029	-27.037798
1338.849682	-26.706280
1339.447869	-26.374592
1340.046591	-26.043087
1340.645848	-25.712374
1341.245641	-25.382814
1341.845972	-25.055087
1342.446840	-24.729856
1343.048246	-24.407581
1343.650191	-24.088519
1344.252677	-23.772699
1344.855702	-23.460097
1345.459269	-23.150955
1346.063379	-22.845633
1346.668030	-22.544357
1347.273226	-22.247201
1347.878965	-21.954198
1348.485250	-21.665202
1349.092080	-21.380152
1349.699456	-21.099245
1350.307380	-20.822660
1350.915851	-20.550386
1351.524871	-20.282353
1352.134441	-20.018455
1352.744560	-19.758554
1353.355231	-19.502593
1353.966453	-19.250676
1354.578227	-19.002850
1355.190555	-18.759037
1355.803436	-18.519120
1356.416872	-18.282978
1357.030863	-18.050544
1357.645411	-17.821903
1358.260515	-17.597142
1358.876177	-17.376217
1359.492397	-17.159010
1360.109176	-16.945397
1360.726516	-16.735342
1361.344416	-16.528891
1361.962877	-16.326092
1362.581901	-16.126926
1363.201487	-15.931275
1363.821637	-15.738986
1364.442352	-15.549991
1365.063632	-15.364328
1365.685478	-15.182030
1366.307891	-15.003083
1366.930871	-14.827380
1367.554420	-14.654831
1368.178538	-14.485377
1368.803226	-14.319069
1369.428485	-14.155985
1370.054315	-13.996077
1370.680717	-13.839245
1371.307693	-13.685360
1371.935242	-13.534366
1372.563366	-13.386293
1373.192065	-13.241155
1373.821341	-13.098874
1374.451193	-12.959319
1375.081623	-12.822361
1375.712632	-12.687958
1376.344221	-12.556135
1376.976389	-12.426901
1377.609139	-12.300202
1378.242470	-12.175917
1378.876384	-12.053977
1379.510881	-11.934413
1380.145963	-11.817276
1380.781629	-11.702575
1381.417881	-11.590191
1382.054720	-11.479999
1382.692147	-11.371918
1383.330161	-11.265967
1383.968765	-11.162175
1384.607959	-11.060503
1385.247743	-10.960880
1385.888119	-10.863270
1386.529087	-10.767735
1387.170648	-10.674392
1387.812804	-10.583287
1388.455554	-10.494370
1389.098899	-10.407565
1389.742842	-10.322809
1390.387381	-10.240074
1391.032519	-10.159328
1391.678256	-10.080461
1392.324592	-10.003314
1392.971529	-9.927740
1393.619068	-9.853701
1394.267208	-9.781214
1394.915952	-9.710270
1395.565300	-9.640802
1396.215253	-9.572762
1396.865812	-9.506187
1397.516977	-9.441194
1398.168749	-9.377898
1398.821130	-9.316351
1399.474120	-9.256557
1400.127719	-9.198554
1400.781930	-9.142443
1401.436752	-9.088298
1402.092186	-9.036100
1402.748234	-8.985756
1403.404897	-8.937182
1404.062174	-8.890373
1404.720067	-8.845401
1405.378577	-8.802314
1406.037705	-8.761170
1406.697451	-8.722084
1407.357817	-8.685271
1408.018803	-8.651041
1408.680410	-8.619657
1409.342639	-8.591273
1410.005492	-8.565988
1410.668968	-8.543869
1411.333068	-8.524978
1411.997795	-8.509287
1412.663147	-8.496642
1413.329127	-8.486837
1413.995736	-8.479739
1414.662973	-8.475323
1415.330840	-8.473592
1415.999339	-8.474551
1416.668469	-8.478214
1417.338232	-8.484697
1418.008628	-8.494206
1418.679659	-8.506938
1419.351325	-8.523013
1420.023628	-8.542453
1420.696568	-8.565301
1421.370145	-8.591630
1422.044362	-8.621489
1422.719219	-8.654814
1423.394717	-8.691452
1424.070856	-8.731277
1424.747638	-8.774228
1425.425064	-8.820221
1426.103134	-8.869049
1426.781850	-8.920423
1427.461212	-8.974089
1428.141221	-9.029908
1428.821878	-9.087729
1429.503185	-9.147348
1430.185141	-9.208576
1430.867749	-9.271365
1431.551008	-9.335851
1432.234920	-9.402187
1432.919486	-9.470466
1433.604707	-9.540703
1434.290583	-9.612916
1434.977116	-9.687120
1435.664307	-9.763089
1436.352156	-9.840283
1437.040664	-9.917906
1437.729833	-9.995112
1438.419663	-10.071017
1439.110156	-10.144618
1439.801312	-10.214834
1440.493132	-10.280730
1441.185617	-10.341766
1441.878768	-10.397778
1442.572586	-10.448823
1443.267072	-10.495152
1443.962228	-10.537305
1444.658053	-10.576140
1445.354549	-10.612573
1446.051717	-10.647281
1446.749558	-10.680637
1447.448073	-10.712786
1448.147263	-10.743664
1448.847128	-10.772797
1449.547671	-10.799214
1450.248891	-10.821664
1450.950789	-10.838933
1451.653368	-10.850030
1452.356627	-10.854143
1453.060568	-10.850779
1453.765192	-10.840062
1454.470500	-10.822951
1455.176492	-10.801119
1455.883170	-10.776630
1456.590534	-10.751809
1457.298586	-10.729262
1458.007327	-10.711639
1458.716758	-10.701198
1459.426880	-10.699489
1460.137693	-10.707309
1460.849199	-10.724781
1461.561398	-10.751194
1462.274293	-10.784850
1462.987883	-10.823139
1463.702170	-10.862981
1464.417155	-10.901151
1465.132838	-10.934450
1465.849222	-10.959931
1466.566306	-10.975418
1467.284093	-10.979966
1468.002582	-10.973919
1468.721775	-10.958641
1469.441674	-10.936431
1470.162278	-10.910430
1470.883590	-10.884271
1471.605609	-10.861495
1472.328338	-10.845150
1473.051777	-10.837710
1473.775928	-10.840967
1474.500790	-10.855787
1475.226367	-10.881912
1475.952657	-10.918027
1476.679663	-10.962011
1477.407386	-11.011005
1478.135826	-11.061414
1478.864985	-11.109105
1479.594863	-11.149861
1480.325463	-11.179800
1481.056784	-11.195543
1481.788828	-11.194427
1482.521597	-11.174905
1483.255090	-11.136818
1483.989309	-11.081323
1484.724256	-11.010605
1485.459931	-10.927731
1486.196336	-10.836508
1486.933471	-10.741122
1487.671337	-10.645658
1488.409937	-10.553854
1489.149270	-10.469034
1489.889337	-10.393966
1490.630141	-10.330615
1491.371682	-10.280107
1492.113961	-10.242772
1492.856979	-10.218271
1493.600738	-10.205573
1494.345238	-10.202991
1495.090481	-10.208404
1495.836467	-10.219533
1496.583198	-10.234130
1497.330675	-10.250104
1498.078899	-10.265810
1498.827872	-10.280326
1499.577593	-10.293566
1500.328065	-10.306257
1501.079289	-10.319872
1501.831265	-10.336643
1502.583995	-10.359323
1503.337480	-10.390939
1504.091721	-10.434486
1504.846719	-10.492778
1505.602475	-10.568244
1506.358991	-10.662642
1507.116268	-10.776733
1507.874306	-10.910083
1508.633108	-11.060800
1509.392673	-11.225096
1510.153004	-11.396726
1510.914101	-11.566661
1511.675965	-11.722916
1512.438599	-11.850640
1513.202002	-11.932843
1513.966176	-11.952305
1514.731122	-11.894425
1515.496842	-11.750162
1516.263336	-11.518298
1517.030607	-11.206099
1517.798654	-10.828003
1518.567479	-10.402710
1519.337083	-9.950128
1520.107468	-9.489027
1520.878634	-9.035721
1521.650584	-8.603505
1522.423317	-8.202661
1523.196836	-7.840913
1523.971141	-7.523943
1524.746233	-7.255773
1525.522115	-7.039062
1526.298786	-6.875444
1527.076249	-6.765760
1527.854504	-6.710122
1528.633553	-6.707900
1529.413397	-6.757753
1530.194037	-6.857627
1530.975474	-7.004595
1531.757709	-7.194690
1532.540745	-7.422786
1533.324581	-7.682520
1534.109220	-7.966210
1534.894662	-8.264880
1535.680909	-8.568511
1536.467961	-8.866624
1537.255821	-9.149082
1538.044489	-9.407024
1538.833967	-9.633918
1539.624256	-9.826500
1540.415357	-9.985279
1541.207271	-10.114404
1542.000000	-10.221127
1542.793545	-10.315022
1543.587907	-10.407209
1544.383087	-10.509578
1545.179088	-10.634228
1545.975909	-10.793307
1546.773552	-10.999089
1547.572019	-11.264148
1548.371311	-11.601612
1549.171428	-12.025764
1549.972373	-12.552971
1550.774147	-13.202916
1551.576751	-14.000360
1552.380185	-14.978353
1553.184453	-16.184019
1553.989554	-17.689112
1554.795490	-19.611557
1555.602263	-22.165490
1556.409873	-25.785483
1557.218322	-31.222632
1558.027612	-33.374485
1558.837743	-27.667418
1559.648717	-23.574323
1560.460536	-20.797336
1561.273200	-18.766265
1562.086710	-17.204892
1562.901069	-15.966375
1563.716278	-14.964279
1564.532337	-14.143610
1565.349249	-13.466993
1566.167014	-12.907805
1566.985634	-12.446730
1567.805111	-12.069514
1568.625444	-11.765360
1569.446637	-11.526114
1570.268690	-11.345863
1571.091605	-11.220323
1571.915382	-11.146233
1572.740024	-11.121219
1573.565532	-11.143681
1574.391907	-11.212247
1575.219150	-11.325489
1576.047262	-11.482018
1576.876246	-11.680271
1577.706103	-11.918034
1578.536833	-12.192498
1579.368439	-12.500390
1580.200922	-12.837631
1581.034282	-13.199098
1581.868522	-13.579059
1582.703643	-13.971267
1583.539646	-14.368618
1584.376532	-14.763598
1585.214304	-15.149032
1586.052962	-15.517921
1586.892508	-15.863579
1587.732943	-16.180615
1588.574269	-16.465050
1589.416487	-16.713735
1590.259599	-16.924844
1591.103605	-17.098143
1591.948508	-17.233863
1592.794309	-17.332378
1593.641009	-17.394722
1594.488609	-17.421755
1595.337112	-17.413483
1596.186518	-17.369937
1597.036829	-17.291435
1597.888047	-17.178152
1598.740172	-17.031031
1599.593207	-16.852723
1600.447153	-16.647221
1601.302010	-16.419649
1602.157782	-16.176719
1603.014469	-15.926039
1603.872072	-15.674926
1604.730593	-15.430325
1605.590034	-15.198588
1606.450397	-14.984505
1607.311681	-14.791190
1608.173890	-14.620558
1609.037024	-14.472991
1609.901085	-14.347249
1610.766075	-14.241263
1611.631995	-14.152411
1612.498846	-14.077461
1613.366630	-14.013341
1614.235349	-13.957722
1615.105004	-13.908851
1615.975596	-13.865744
1616.847128	-13.828464
1617.719600	-13.797605
1618.593014	-13.773708
1619.467372	-13.757163
1620.342675	-13.747720
1621.218924	-13.743862
1622.096122	-13.742911
1622.974270	-13.741257
1623.853369	-13.734484
1624.733420	-13.718021
1625.614427	-13.688154
1626.496389	-13.642646
1627.379308	-13.581080
1628.263187	-13.505272
1629.148026	-13.418984
1630.033828	-13.327001
1630.920593	-13.234447
1631.808324	-13.146036
1632.697022	-13.065155
1633.586688	-12.993466
1634.477324	-12.930959
1635.368932	-12.876007
1636.261514	-12.825725
1637.155070	-12.776816
1638.049602	-12.726287
1638.945113	-12.671947
1639.841603	-12.612999
1640.739075	-12.550253
1641.637529	-12.485670
1642.536968	-12.421900
1643.437393	-12.361775
1644.338806	-12.307454
1645.241209	-12.259964
1646.144602	-12.219199
1647.048988	-12.183880
1647.954368	-12.151891
1648.860744	-12.121087
1649.768118	-12.089872
1650.676491	-12.057601
1651.585865	-12.025062
1652.496241	-11.994347
1653.407621	-11.968251
1654.320008	-11.949775
1655.233401	-11.941350
1656.147804	-11.944060
1657.063218	-11.957347
1657.979645	-11.978995
1658.897085	-12.005315
1659.815542	-12.031863
1660.735016	-12.054442
1661.655509	-12.069832
1662.577023	-12.076496
1663.499560	-12.074907
1664.423121	-12.067071
1665.347709	-12.055818
1666.273324	-12.043963
1667.199969	-12.033335
1668.127645	-12.024260
1669.056353	-12.015628
1669.986097	-12.005166
1670.916877	-11.990218
1671.848695	-11.968767
1672.781553	-11.940051
1673.715452	-11.904953
1674.650395	-11.865905
1675.586383	-11.826156
1676.523418	-11.788957
1677.461501	-11.756763
1678.400635	-11.730643
1679.340821	-11.710204
1680.282061	-11.693947
1681.224357	-11.679917
1682.167710	-11.666523
1683.112122	-11.653178
1684.057595	-11.640594
1685.004132	-11.630612
1685.951732	-11.625561
1686.900400	-11.627497
1687.850135	-11.637463
1688.800940	-11.654992
1689.752818	-11.678202
1690.705768	-11.704201
1691.659795	-11.729829
1692.614898	-11.752628
1693.571081	-11.771398
1694.528345	-11.786359
1695.486691	-11.798929
1696.446122	-11.810919
1697.406640	-11.823690
1698.368245	-11.837697
1699.330941	-11.852164
1700.294729	-11.865412
1701.259611	-11.875692
1702.225588	-11.881744
1703.192664	-11.883456
1704.160838	-11.882105
1705.130114	-11.879762
1706.100493	-11.878758
1707.071977	-11.881002
1708.044568	-11.887241
1709.018268	-11.897221
1709.993079	-11.909956
1710.969003	-11.924137
1711.946041	-11.939020
1712.924196	-11.954618
1713.903469	-11.971574
1714.883862	-11.991036
1715.865378	-12.013811
1716.848017	-12.039927
1717.831783	-12.068600
1718.816677	-12.098124
1719.802701	-12.126552
1720.789857	-12.152352
1721.778147	-12.174658
1722.767573	-12.193650
1723.758136	-12.210285
1724.749840	-12.225693
1725.742685	-12.240921
1726.736673	-12.256452
1727.731808	-12.272147
1728.728090	-12.287689
1729.725521	-12.302738
1730.724105	-12.317362
1731.723842	-12.332283
1732.724735	-12.348578
1733.726785	-12.367529
1734.729995	-12.390158
1735.734366	-12.416767
1736.739902	-12.446892
1737.746603	-12.479278
1738.754472	-12.512169
1739.763510	-12.543925
1740.773721	-12.573423
1741.785105	-12.600386
1742.797665	-12.625421
1743.811403	-12.649483
1744.826321	-12.673325
1745.842422	-12.697004
1746.859706	-12.719620
1747.878177	-12.739884
1748.897835	-12.756883
1749.918685	-12.770867
1750.940726	-12.783646
1751.963963	-12.797938
1752.988395	-12.816225
1754.014027	-12.839490
1755.040860	-12.866477
1756.068895	-12.894268
1757.098135	-12.919778
1758.128583	-12.941483
1759.160240	-12.960476
1760.193109	-12.979812
1761.227191	-13.002566
1762.262488	-13.029728
1763.299004	-13.059045
1764.336740	-13.086080
1765.375697	-13.106845
1766.415880	-13.120478
1767.457288	-13.130348
1768.499926	-13.142215
1769.543794	-13.160733
1770.588895	-13.186404
1771.635231	-13.214898
1772.682805	-13.239836
1773.731619	-13.257202
1774.781674	-13.268562
1775.832973	-13.280668
1776.885519	-13.301064
1777.939312	-13.332891
1778.994357	-13.372292
1780.050654	-13.410404
1781.108207	-13.439440
1782.167017	-13.458371
1783.227087	-13.474086
1784.288418	-13.496550
1785.351013	-13.531117
1786.414875	-13.574043
1787.480006	-13.614268
1788.546407	-13.641334
1789.614082	-13.653786
1790.683032	-13.660995
1791.753259	-13.676587
1792.824767	-13.707933
1793.897557	-13.750074
1794.971632	-13.788851
1796.046994	-13.811701
1797.123645	-13.818354
1798.201588	-13.821725
1799.280824	-13.837754
1800.361357	-13.872270
1801.443188	-13.915541
1802.526320	-13.949549
1803.610756	-13.963148
1804.696497	-13.962716
1805.783546	-13.967759
1806.871906	-13.994689
1807.961578	-14.042636
1809.052565	-14.093093
1810.144870	-14.125022
1811.238494	-14.133670
1812.333441	-14.135643
1813.429713	-14.154089
1814.527311	-14.197496
1815.626239	-14.250997
1816.726499	-14.288450
1817.828094	-14.296701
1818.931025	-14.289251
1820.035295	-14.294418
1821.140906	-14.328747
1822.247862	-14.380802
1823.356165	-14.420441
1824.465816	-14.427275
1825.576819	-14.411944
1826.689175	-14.406362
1827.802888	-14.432358
1828.917960	-14.479765
1830.034394	-14.515064
1831.152191	-14.514809
1832.271354	-14.491323
1833.391887	-14.481264
1834.513790	-14.508235
1835.637068	-14.558379
1836.761722	-14.593082
1837.887755	-14.589178
1839.015169	-14.565427
1840.143968	-14.563011
1841.274153	-14.601235
1842.405727	-14.655699
1843.538693	-14.682092
1844.673053	-14.664704
1845.808810	-14.635437
1846.945966	-14.638180
1848.084525	-14.679784
1849.224488	-14.721331
1850.365858	-14.720807
1851.508638	-14.683304
1852.652831	-14.656862
1853.798438	-14.677025
1854.945463	-14.726025
1856.093909	-14.751682
1857.243777	-14.729003
1858.395071	-14.692289
1859.547794	-14.693896
1860.701947	-14.741273
1861.857533	-14.786557
1863.014556	-14.782878
1864.173018	-14.743812
1865.332922	-14.726654
1866.494270	-14.759959
1867.657065	-14.807248
1868.821309	-14.811036
1869.987006	-14.767826
1871.154158	-14.734149
1872.322768	-14.752723
1873.492839	-14.797490
1874.664373	-14.806361
1875.837373	-14.764487
1877.011841	-14.725962
1878.187782	-14.740056
1879.365197	-14.784860
1880.544089	-14.795406
1881.724460	-14.753680
1882.906315	-14.715564
1884.089655	-14.731521
1885.274483	-14.775286
1886.460803	-14.778434
1887.648616	-14.728976
1888.837927	-14.690762
1890.028736	-14.710079
1891.221049	-14.747511
1892.414866	-14.732816
1893.610192	-14.671267
1894.807028	-14.638776
1896.005379	-14.668695
1897.205246	-14.700563
1898.406633	-14.668289
1899.609542	-14.604643
1900.813977	-14.593065
1902.019940	-14.639189
1903.227434	-14.657890
1904.436462	-14.602489
1905.647028	-14.542219
1906.859133	-14.553855
1908.072781	-14.600657
1909.287976	-14.585767
1910.504719	-14.508569
1911.723013	-14.469675
1912.942863	-14.509391
1914.164270	-14.541928
1915.387238	-14.491444
1916.611770	-14.420820
1917.837868	-14.427411
1919.065536	-14.481716
1920.294777	-14.472254
1921.525594	-14.393406
1922.757989	-14.356953
1923.991967	-14.400827
1925.227529	-14.424094
1926.464679	-14.358973
1927.703420	-14.293026
1928.943755	-14.314937
1930.185688	-14.359853
1931.429221	-14.320599
1932.674356	-14.241498
1933.921099	-14.238465
1935.169451	-14.290061
1936.419415	-14.273367
1937.670996	-14.188868
1938.924195	-14.161061
1940.179017	-14.208198
1941.435463	-14.207838
1942.693538	-14.124763
1943.953245	-14.079908
1945.214586	-14.121081
1946.477566	-14.133257
1947.742186	-14.056672
1949.008451	-14.003950
1950.276363	-14.040152
1951.545926	-14.057349
1952.817143	-13.983837
1954.090017	-13.927166
1955.364551	-13.958988
1956.640749	-13.974549
1957.918615	-13.902132
1959.198150	-13.849839
1960.479359	-13.884466
1961.762244	-13.896943
1963.046810	-13.825005
1964.333059	-13.782517
1965.620995	-13.820704
1966.910621	-13.822195
1968.201940	-13.747016
1969.494956	-13.717925
1970.789672	-13.759093
1972.086091	-13.745946
1973.384217	-13.672670
1974.684053	-13.664019
1975.985602	-13.704043
1977.288869	-13.671134
1978.593855	-13.605062
1979.900566	-13.617207
1981.209003	-13.644458
1982.519171	-13.590590
1983.831073	-13.542703
1985.144712	-13.572520
1986.460093	-13.575446
1987.777217	-13.509426
1989.096089	-13.490762
1990.416713	-13.524811
1991.739092	-13.494884
1993.063228	-13.434381
1994.389127	-13.446655
1995.716791	-13.462498
1997.046223	-13.404795
1998.377428	-13.372048
1999.710409	-13.401707
2001.045169	-13.382117
2002.381713	-13.322480
2003.720043	-13.328786
2005.060163	-13.345527
2006.402077	-13.292777
2007.745788	-13.262903
2009.091301	-13.290856
2010.438618	-13.269292
2011.787743	-13.217546
2013.138680	-13.231494
2014.491433	-13.241954
2015.846005	-13.190870
2017.202399	-13.178554
2018.560621	-13.206044
2019.920673	-13.173904
2021.282558	-13.139560
2022.646281	-13.166844
2024.011846	-13.160196
2025.379256	-13.115466
2026.748515	-13.129676
2028.119626	-13.144167
2029.492594	-13.101064
2030.867422	-13.097283
2032.244114	-13.123822
2033.622673	-13.090880
2035.003104	-13.071092
2036.385411	-13.100927
2037.769597	-13.081345
2039.155665	-13.049655
2040.543621	-13.075485
2041.933467	-13.067999
2043.325208	-13.029562
2044.718847	-13.049156
2046.114389	-13.052376
2047.511837	-13.011439
2048.911195	-13.023475
2050.312467	-13.033448
2051.715657	-12.992061
2053.120769	-12.998218
2054.527807	-13.013808
2055.936775	-12.974352
2057.347677	-12.976760
2058.760516	-12.995087
2060.175297	-12.956788
2061.592025	-12.958141
2063.010701	-12.979271
2064.431332	-12.943100
2065.853921	-12.946203
2067.278472	-12.968057
2068.704988	-12.932484
2070.133475	-12.939942
2071.563936	-12.962100
2072.996375	-12.927821
2074.430796	-12.942053
2075.867204	-12.961196
2077.305603	-12.927294
2078.745996	-12.949966
2080.188389	-12.963798
2081.632784	-12.932495
2083.079187	-12.963560
2084.527601	-12.966678
2085.978030	-12.940399
2087.430480	-12.978460
2088.884954	-12.968300
2090.341455	-12.952547
2091.799990	-12.991720
2093.260561	-12.966401
2094.723173	-12.967073
2096.187831	-12.999705
2097.654538	-12.964809
2099.123300	-12.985430
2100.594119	-13.000049
2102.067001	-12.966616
2103.541950	-13.004781
2105.018971	-12.995330
2106.498067	-12.979571
2107.979243	-13.021017
2109.462503	-12.990153
2110.947853	-13.005089
2112.435295	-13.030420
2113.924836	-12.996904
2115.416478	-13.039117
2116.910227	-13.032727
2118.406087	-13.024253
2119.904063	-13.071220
2121.404158	-13.041157
2122.906378	-13.072844
2124.410727	-13.091904
2125.917210	-13.072335
2127.425831	-13.128404
2128.936594	-13.110356
2130.449505	-13.133859
2131.964567	-13.169775
2133.481786	-13.148573
2135.001166	-13.208064
2136.522711	-13.198297
2138.046427	-13.219505
2139.572317	-13.260955
2141.100388	-13.240491
2142.630642	-13.300583
2144.163085	-13.289385
2145.697722	-13.313786
2147.234558	-13.348862
2148.773596	-13.330568
2150.314842	-13.388714
2151.858301	-13.369041
2153.403977	-13.403362
2154.951875	-13.422014
2156.502000	-13.414223
2158.054357	-13.465631
2159.608950	-13.441155
2161.165785	-13.490300
2162.724866	-13.487851
2164.286198	-13.505042
2165.849786	-13.539400
2167.415635	-13.527895
2168.983749	-13.583891
2170.554134	-13.569003
2172.126795	-13.617413
2173.701737	-13.625620
2175.278964	-13.649933
2176.858481	-13.688603
2178.440294	-13.690584
2180.024408	-13.748990
2181.610827	-13.746521
2183.199557	-13.805630
2184.790602	-13.815069
2186.383968	-13.860811
2187.979660	-13.892099
2189.577683	-13.920375
2191.178041	-13.970178
2192.780741	-13.985851
2194.385787	-14.046599
2195.993185	-14.058179
2197.602939	-14.118408
2199.215054	-14.133769
2200.829537	-14.187370
2202.446392	-14.210873
2204.065624	-14.253044
2205.687239	-14.286053
2207.311242	-14.318274
2208.937638	-14.359048
2210.566433	-14.382489
2212.197631	-14.429365
2213.831239	-14.448739
2215.467261	-14.498636
2217.105703	-14.516427
2218.746570	-14.568523
2220.389867	-14.588301
2222.035601	-14.640092
2223.683776	-14.663163
2225.334398	-14.715115
2226.987472	-14.742795
2228.643004	-14.793241
2230.300999	-14.826852
2231.961463	-14.877262
2233.624402	-14.916863
2235.289820	-14.966767
2236.957723	-15.013690
2238.628118	-15.063791
2240.301009	-15.116291
2241.976402	-15.166675
2243.654303	-15.225171
2245.334717	-15.275485
2247.017650	-15.338221
2248.703108	-15.390073
2250.391096	-15.456228
2252.081620	-15.508317
2253.774686	-15.576333
2255.470300	-15.629120
2257.168467	-15.695540
2258.869193	-15.748226
2260.572484	-15.812769
2262.278345	-15.865783
2263.986783	-15.926646
2265.697804	-15.982722
2267.411412	-16.039552
2269.127615	-16.098479
2270.846417	-16.151243
2272.567826	-16.215013
2274.291846	-16.262573
2276.018484	-16.332378
2277.747745	-16.377974
2279.479637	-16.452253
2281.214164	-16.498101
2282.951333	-16.575320
2284.691149	-16.623761
2286.433619	-16.698598
2288.178750	-16.756206
2289.926546	-16.824655
2291.677014	-16.895803
2293.430161	-16.958551
2295.185992	-17.044066
2296.944513	-17.102123
2298.705732	-17.198529
2300.469653	-17.258028
2302.236283	-17.355266
2304.005629	-17.427991
2305.777696	-17.516824
2307.552492	-17.608361
2309.330022	-17.686541
2311.110292	-17.791297
2312.893310	-17.863373
2314.679080	-17.968204
2316.467611	-18.046080
2318.258907	-18.136203
2320.052976	-18.230436
2321.849824	-18.301451
2323.649457	-18.405405
2325.451883	-18.470831
2327.257106	-18.564630
2329.065135	-18.643146
2330.875975	-18.717603
2332.689633	-18.811467
2334.506116	-18.879323
2336.325430	-18.971783
2338.147581	-19.052423
2339.972578	-19.129893
2341.800425	-19.226957
2343.631130	-19.298004
2345.464700	-19.396527
2347.301141	-19.480855
2349.140461	-19.569260
2350.982665	-19.671851
2352.827760	-19.759939
2354.675754	-19.867838
2356.526653	-19.972867
2358.380464	-20.076503
2360.237195	-20.198427
2362.096851	-20.304027
2363.959440	-20.427565
2365.824968	-20.547017
2367.693444	-20.661924
2369.564873	-20.794600
2371.439263	-20.906856
2373.316620	-21.031461
2375.196953	-21.155468
2377.080267	-21.258676
2378.966570	-21.383532
2380.855869	-21.492969
2382.748171	-21.588725
2384.643484	-21.715392
2386.541815	-21.807228
2388.443170	-21.903451
2390.347557	-22.029877
2392.254984	-22.112312
2394.165457	-22.217991
2396.078984	-22.348878
2397.995572	-22.430249
2399.915229	-22.542156
2401.837961	-22.678277
2403.763777	-22.758215
2405.692684	-22.875449
2407.624689	-23.017723
2409.559800	-23.101834
2411.498023	-23.216995
2413.439368	-23.372301
2415.383840	-23.469434
2417.331449	-23.589930
2419.282201	-23.764687
2421.236104	-23.886872
2423.193165	-24.008577
2425.153393	-24.194880
2427.116795	-24.348031
2429.083378	-24.468383
2431.053151	-24.648416
2433.026121	-24.821317
2435.002297	-24.941158
2436.981685	-25.095156
2438.964293	-25.276327
2440.950131	-25.401226
2442.939204	-25.517215
2444.931522	-25.671450
2446.927092	-25.803829
2448.925923	-25.900631
2450.928022	-26.025404
2452.933397	-26.161223
2454.942056	-26.261292
2456.954008	-26.367479
2458.969260	-26.508876
2460.987821	-26.636899
2463.009699	-26.740774
2465.034902	-26.869773
2467.063437	-27.019154
2469.095315	-27.140035
2471.130542	-27.257673
2473.169127	-27.415570
2475.211078	-27.575136
2477.256404	-27.697971
2479.305112	-27.834254
2481.357212	-28.027586
2483.412713	-28.229874
2485.471621	-28.374781
2487.533946	-28.526519
2489.599696	-28.740320
2491.668880	-28.983552
2493.741507	-29.157182
2495.817585	-29.287030
2497.897122	-29.487679
2499.980127	-29.728445
2502.066609	-29.934672
2504.156578	-30.071365
2506.250040	-30.162305
2508.347006	-30.342029
2510.447483	-30.558103
2512.551482	-30.699247
2514.659010	-30.750693
2516.770076	-30.803180
2518.884690	-30.947641
2521.002861	-31.132118
2523.124597	-31.269313
2525.249907	-31.339769
2527.378801	-31.404127
2529.511287	-31.537231
2531.647375	-31.726417
2533.787074	-31.913094
2535.930393	-32.064020
2538.077340	-32.177145
2540.227927	-32.310244
2542.382160	-32.486875
2544.540051	-32.711468
2546.701608	-32.946995
2548.866840	-33.148441
2551.035757	-33.341011
2553.208369	-33.539797
2555.384684	-33.771287
2557.564713	-34.029461
2559.748465	-34.287816
2561.935948	-34.556922
2564.127174	-34.814920
2566.322152	-35.066675
2568.520890	-35.306871
2570.723399	-35.528335
2572.929689	-35.705244
2575.139769	-35.818070
2577.353649	-35.870552
2579.571340	-35.931014
2581.792849	-36.036146
2584.018189	-36.166707
2586.247368	-36.330186
2588.480396	-36.471875
2590.717284	-36.565934
2592.958041	-36.627454
2595.202678	-36.674729
2597.451204	-36.714090
2599.703630	-36.781976
2601.959966	-36.855748
2604.220222	-37.049551
2606.484408	-37.318055
2608.752535	-37.608760
2611.024612	-37.865401
2613.300651	-38.174611
2615.580661	-38.359424
2617.864653	-38.623863
2620.152638	-38.892086
2622.444625	-39.097520
2624.740626	-39.335842
2627.040651	-39.521721
2629.344710	-39.830927
2631.652814	-40.103042
2633.964974	-40.427874
2636.281200	-40.817619
2638.601504	-41.165002
2640.925896	-41.364074
2643.254386	-41.557163
2645.586987	-41.769723
2647.923707	-41.905994
2650.264559	-41.972106
2652.609554	-42.078440
2654.958702	-42.195317
2657.312015	-42.279332
2659.669503	-42.322325
2662.031178	-42.394398
2664.397051	-42.512486
2666.767132	-42.645499
2669.141434	-42.676687
2671.519968	-42.703982
2673.902745	-42.828800
2676.289776	-42.976307
2678.681072	-43.055271
2681.076646	-43.179621
2683.476508	-43.404237
2685.880671	-43.619915
2688.289145	-43.894688
2690.701942	-44.237037
2693.119075	-44.633435
2695.540554	-45.011173
2697.966391	-45.438979
2700.396599	-45.825524
2702.831189	-46.198843
2705.270172	-46.589503
2707.713561	-46.954340
2710.161368	-47.377313
2712.613605	-47.690046
2715.070283	-48.083554
2717.531416	-48.667078
2719.997014	-49.215084
2722.467090	-49.516376
2724.941657	-49.993193
2727.420726	-50.590832
2729.904310	-50.420075
2732.392421	-50.569204
2734.885072	-50.014683
2737.382275	-49.819126
2739.884042	-48.925008
2742.390387	-48.630566
2744.901321	-48.271969
2747.416857	-47.915075
2749.937008	-47.858415
2752.461787	-47.913641
2754.991206	-48.067580
2757.525279	-48.309272
2760.064017	-48.580750
2762.607434	-48.767116
2765.155544	-48.856992
2767.708358	-48.983797
2770.265890	-49.264879
2772.828153	-49.644163
2775.395160	-50.262374
2777.966924	-51.103467
2780.543459	-51.690033
2783.124778	-52.263552
2785.710894	-53.156311
2788.301821	-54.013430
2790.897572	-54.961775
2793.498160	-56.123947
2796.103599	-56.767034
2798.713903	-56.881525
2801.329085	-57.161702
2803.949159	-57.905655
2806.574139	-59.517117
2809.204038	-61.538378
2811.838871	-60.946325
2814.478650	-59.224376
2817.123391	-58.169724
2819.773107	-57.460897
2822.427812	-57.464474
2825.087521	-57.024837
2827.752247	-55.425751
2830.422005	-54.350620
2833.096808	-53.964854
2835.776672	-54.069631
2838.461611	-54.628301
2841.151638	-54.663010
2843.846769	-54.246998
2846.547019	-54.292862
2849.252401	-54.679913
2851.962930	-55.222508
2854.678621	-55.858379
2857.399489	-56.169671
2860.125549	-56.220385
2862.856815	-56.485266
2865.593302	-57.138197
2868.335026	-58.009574
2871.082002	-58.528021
2873.834244	-58.130702
2876.591767	-58.098988
2879.354588	-59.580586
2882.122721	-61.903563
2884.896181	-62.624878
2887.674984	-62.442763
2890.459146	-64.732143
2893.248681	-72.766133
2896.043606	-76.634994
2898.843937	-74.347862
2901.649687	-82.671723
2904.460875	-68.289864
2907.277515	-64.707664
2910.099623	-66.086731
2912.927215	-66.036027
2915.760308	-62.475059
2918.598916	-62.074023
2921.443057	-64.031847
2924.292747	-63.016391
2927.148002	-61.344023
2930.008837	-62.491350
2932.875270	-63.781924
2935.747318	-62.299281
2938.624995	-62.912194
2941.508320	-65.556301
2944.397308	-63.059273
2947.291977	-61.819223
2950.192343	-62.768384
2953.098423	-62.082531
2956.010234	-61.632899
2958.927792	-62.463547
2961.851116	-62.454792
2964.780221	-61.130635
2967.715126	-62.556018
2970.655847	-65.538041
2973.602402	-63.859721
2976.554808	-66.010829
2979.513083	-69.859910
2982.477243	-67.794770
2985.447308	-73.509089
2988.423293	-79.261603
2991.405218	-75.167153
2994.393099	-80.393984
2997.386955	-77.751369
