# 2022-03-22_02.06.19
# shape = sech2
# FWHM_ps = 0.1
# carrier_nm = 1542
# frep_MHz = 12126
# pow_mW = 8000
# GDD = 0.0
# propa_len = 0.16
# untap_len = 0.01
# taper_len = 0.1
# waist_len = 0.02
# uptap_len = 0.02
# untap_scale = 1.0
# waist_scale = 0.1631578947368421
# workingDir = NL_20110305_12 (Spirou)
# axis = slow
# window_ps = 10.0
# steps = 200
# points = 21700
# 
# wavelength [nm]	 power spectral density [dB]
600.043425	-93.386108
600.163550	-93.505189
600.283723	-92.953282
600.403943	-92.747077
600.524212	-93.978170
600.644529	-95.678732
600.764895	-95.526159
600.885308	-94.366722
601.005770	-93.708808
601.126280	-93.098199
601.246839	-92.934183
601.367446	-92.671144
601.488101	-91.096189
601.608804	-90.407518
601.729557	-90.188155
601.850357	-89.408062
601.971206	-88.556616
602.092104	-88.562313
602.213050	-88.326036
602.334045	-88.163004
602.455089	-87.972560
602.576181	-87.667066
602.697322	-87.624066
602.818511	-87.952675
602.939749	-88.292631
603.061036	-88.754636
603.182372	-89.294992
603.303757	-90.292190
603.425191	-91.165380
603.546673	-91.963376
603.668204	-93.837077
603.789785	-95.518717
603.911414	-96.415876
604.033092	-98.062700
604.154820	-100.997994
604.276596	-102.949091
604.398422	-105.416739
604.520297	-100.072639
604.642220	-95.506117
604.764193	-93.101560
604.886216	-92.709386
605.008287	-93.390155
605.130408	-91.052588
605.252578	-89.037855
605.374798	-88.324470
605.497066	-88.896974
605.619385	-89.283428
605.741752	-87.985026
605.864169	-86.908280
605.986636	-87.783373
606.109152	-88.576312
606.231718	-88.549644
606.354333	-88.280520
606.476998	-89.055866
606.599712	-90.817322
606.722476	-91.697121
606.845290	-91.021233
606.968154	-92.888478
607.091067	-95.101379
607.214030	-94.702169
607.337043	-94.816349
607.460106	-97.466861
607.583219	-96.946748
607.706381	-94.579513
607.829594	-94.079502
607.952856	-96.431400
608.076169	-94.603777
608.199531	-91.064059
608.322944	-90.573694
608.446407	-92.122867
608.569920	-90.128257
608.693483	-87.679586
608.817096	-87.706723
608.940759	-89.036552
609.064473	-88.321158
609.188237	-86.223917
609.312051	-86.208937
609.435916	-88.402732
609.559831	-89.051695
609.683796	-87.074167
609.807812	-87.031739
609.931878	-89.689128
610.055995	-91.313715
610.180162	-88.574588
610.304380	-87.625967
610.428648	-90.477152
610.552967	-92.070709
610.677337	-87.732190
610.801757	-87.043373
610.926228	-89.694622
611.050750	-90.776427
611.175323	-88.527000
611.299946	-87.718041
611.424620	-89.800257
611.549345	-92.535848
611.674121	-89.044555
611.798948	-88.202991
611.923826	-91.086405
612.048755	-95.076933
612.173734	-90.213054
612.298765	-88.510043
612.423847	-91.344849
612.548980	-97.793640
612.674165	-91.572268
612.799400	-89.124591
612.924687	-90.843814
613.050025	-99.153473
613.175414	-97.124494
613.300854	-92.157228
613.426346	-91.391800
613.551889	-94.311527
613.677484	-100.882593
613.803130	-108.044481
613.928827	-94.829042
614.054576	-91.845741
614.180377	-92.144698
614.306229	-97.098972
614.432132	-97.437866
614.558087	-91.604135
614.684094	-90.716453
614.810153	-93.765980
614.936263	-95.994607
615.062425	-90.693153
615.188639	-89.472902
615.314904	-91.275859
615.441222	-91.566188
615.567591	-88.180142
615.694012	-87.442336
615.820486	-88.649140
615.947011	-89.304408
616.073588	-86.945364
616.200217	-86.287494
616.326898	-88.961521
616.453632	-91.439091
616.580417	-87.729616
616.707255	-86.678782
616.834144	-90.158710
616.961086	-94.279524
617.088081	-88.862948
617.215127	-87.608503
617.342226	-91.386369
617.469378	-92.829947
617.596581	-87.227719
617.723837	-86.685651
617.851146	-90.352338
617.978507	-90.713871
618.105920	-86.414678
618.233386	-85.856717
618.360905	-88.148515
618.488476	-88.721931
618.616100	-86.011475
618.743777	-85.695218
618.871506	-87.257811
618.999288	-85.897827
619.127123	-84.158666
619.255011	-84.565854
619.382951	-85.542542
619.510945	-84.777763
619.638991	-83.713586
619.767090	-84.149180
619.895243	-84.909414
620.023448	-83.887392
620.151706	-83.526542
620.280017	-84.996821
620.408382	-85.942800
620.536799	-84.179884
620.665270	-83.340488
620.793794	-85.138503
620.922371	-86.385927
621.051002	-84.511592
621.179686	-84.059781
621.308423	-86.042451
621.437213	-86.142487
621.566057	-84.415315
621.694954	-84.437319
621.823905	-86.438496
621.952909	-86.835076
622.081967	-86.026957
622.211079	-86.734599
622.340244	-89.789669
622.469462	-89.973490
622.598735	-88.774009
622.728061	-91.817180
622.857441	-94.260924
622.986874	-90.738352
623.116361	-91.570824
623.245903	-98.259488
623.375498	-97.739465
623.505147	-93.511688
623.634850	-95.693136
623.764606	-99.366982
623.894417	-93.975817
624.024282	-97.438494
624.154201	-105.977660
624.284174	-91.342392
624.414202	-88.821431
624.544283	-92.815324
624.674419	-96.486913
624.804609	-88.502404
624.934853	-88.105500
625.065151	-94.744709
625.195504	-92.263833
625.325911	-87.109619
625.456373	-88.170577
625.586889	-93.371749
625.717460	-88.966331
625.848085	-86.131013
625.978764	-88.719270
626.109498	-92.402897
626.240287	-86.083399
626.371131	-85.223595
626.502029	-89.815290
626.632982	-88.235794
626.763989	-84.364554
626.895052	-85.129408
627.026169	-90.504637
627.157341	-86.468884
627.288568	-83.844441
627.419850	-86.854339
627.551187	-91.163888
627.682579	-84.606833
627.814026	-83.696708
627.945528	-88.530474
628.077085	-88.237140
628.208697	-82.988371
628.340364	-83.430625
628.472087	-90.752529
628.603865	-87.108203
628.735698	-83.052581
628.867586	-85.514100
628.999530	-97.984852
629.131529	-86.224064
629.263584	-84.290432
629.395694	-89.068919
629.527859	-95.542226
629.660080	-86.053649
629.792357	-86.374270
629.924689	-94.465168
630.057077	-87.462686
630.189520	-84.449448
630.322019	-87.792954
630.454574	-93.359122
630.587184	-86.222832
630.719851	-85.455921
630.852573	-93.090015
630.985351	-88.659259
631.118185	-83.931343
631.251075	-86.057169
631.384021	-92.364971
631.517023	-84.929244
631.650081	-82.667961
631.783195	-86.374181
631.916365	-92.246739
632.049592	-83.999148
632.182874	-82.982132
632.316213	-89.215344
632.449608	-90.738071
632.583059	-83.502824
632.716567	-84.300458
632.850131	-95.067013
632.983751	-89.280652
633.117428	-85.093819
633.251161	-89.100432
633.384951	-97.865033
633.518797	-86.707630
633.652700	-87.535942
633.786660	-104.722761
633.920676	-89.902833
634.054749	-86.756110
634.188879	-93.161158
634.323065	-93.653425
634.457308	-86.856439
634.591608	-90.356438
634.725965	-95.468553
634.860379	-84.312243
634.994850	-83.348740
635.129377	-90.605164
635.263962	-90.226410
635.398604	-82.828895
635.533303	-83.419260
635.668058	-93.205950
635.802872	-87.184314
635.937742	-82.189657
636.072669	-83.646418
636.207654	-96.889507
636.342696	-86.272580
636.477796	-81.589183
636.612953	-83.145323
636.748167	-95.963780
636.883439	-86.800438
637.018768	-82.754439
637.154155	-86.667832
637.289599	-97.141506
637.425101	-83.990296
637.560660	-83.635428
637.696277	-92.817849
637.831952	-86.155422
637.967685	-82.519276
638.103475	-86.277747
638.239324	-93.551755
638.375230	-83.857597
638.511194	-85.155966
638.647215	-100.176691
638.783295	-82.459002
638.919433	-80.741502
639.055629	-87.466051
639.191883	-84.812397
639.328195	-79.421988
639.464565	-81.423149
639.600994	-92.275659
639.737481	-80.641364
639.874025	-78.838345
640.010629	-84.272483
640.147290	-85.622596
640.284010	-79.563756
640.420789	-81.182488
640.557625	-92.252726
640.694521	-83.911889
640.831474	-81.568995
640.968487	-87.590770
641.105558	-90.257348
641.242687	-82.926361
641.379876	-84.542292
641.517123	-95.153530
641.654429	-90.707051
641.791793	-87.067939
641.929216	-85.652926
642.066699	-86.154106
642.204240	-93.839514
642.341840	-90.844073
642.479499	-84.072708
642.617217	-85.511273
642.754994	-98.575130
642.892830	-86.020190
643.030726	-84.105506
643.168680	-90.342492
643.306694	-90.906530
643.444767	-83.871059
643.582899	-85.422649
643.721091	-98.865491
643.859342	-88.586311
643.997652	-87.116315
644.136022	-92.238047
644.274451	-89.290438
644.412940	-88.641711
644.551488	-98.359875
644.690096	-90.897800
644.828763	-89.894607
644.967490	-115.073735
645.106277	-87.167977
645.245124	-84.498351
645.384030	-89.707401
645.522997	-86.919227
645.662023	-81.764112
645.801109	-83.743015
645.940255	-91.580633
646.079460	-82.957390
646.218726	-81.333512
646.358052	-88.358693
646.497438	-88.246385
646.636884	-82.068386
646.776391	-84.174556
646.915957	-103.308237
647.055584	-85.643176
647.195271	-84.490299
647.335019	-92.055302
647.474826	-93.405364
647.614695	-86.307492
647.754623	-87.554519
647.894612	-98.064037
648.034662	-94.579699
648.174772	-88.132629
648.314943	-88.484204
648.455174	-99.828237
648.595466	-90.779672
648.735819	-86.668289
648.876233	-89.668703
649.016707	-91.641723
649.157242	-88.042125
649.297838	-92.278167
649.438495	-89.419044
649.579213	-84.006867
649.719992	-86.226770
649.860832	-95.427636
650.001733	-84.360543
650.142695	-84.019668
650.283718	-97.837239
650.424803	-85.342366
650.565949	-81.314510
650.707156	-85.120979
650.848424	-91.378269
650.989754	-82.417394
651.131145	-82.607109
651.272597	-89.854049
651.414111	-85.268411
651.555687	-83.054560
651.697324	-86.472040
651.839022	-87.329016
651.980782	-83.758382
652.122604	-85.891015
652.264488	-89.450373
652.406433	-85.957304
652.548441	-87.316371
652.690510	-97.085909
652.832640	-89.328711
652.974833	-86.660364
653.117088	-93.509184
653.259405	-93.730003
653.401784	-86.146404
653.544224	-87.288260
653.686727	-100.482478
653.829293	-92.190645
653.971920	-89.239306
654.114609	-94.126631
654.257361	-93.911707
654.400175	-89.799008
654.543052	-91.616370
654.685991	-99.097725
654.828992	-99.045273
654.972056	-97.012663
655.115183	-104.039158
655.258372	-107.668438
655.401623	-98.829686
655.544937	-96.801731
655.688314	-98.399937
655.831754	-103.531243
655.975256	-105.358051
656.118822	-95.009327
656.262450	-90.488866
656.406141	-90.599900
656.549894	-100.767737
656.693711	-93.511992
656.837591	-89.630392
656.981534	-91.952562
657.125540	-103.937232
657.269610	-90.461091
657.413742	-90.403055
657.557938	-102.174795
657.702196	-92.783373
657.846519	-88.366634
657.990904	-91.509970
658.135353	-98.375494
658.279866	-91.343181
658.424441	-91.420857
658.569081	-95.252469
658.713784	-95.155271
658.858550	-98.369405
659.003381	-95.780010
659.148274	-90.602503
659.293232	-90.064166
659.438253	-94.145976
659.583339	-109.776048
659.728488	-96.019417
659.873701	-90.885868
660.018978	-93.673481
660.164318	-104.058956
660.309723	-92.429931
660.455192	-96.330810
660.600725	-96.311695
660.746323	-88.922426
660.891984	-91.925660
661.037710	-99.247832
661.183500	-88.383001
661.329354	-89.084663
661.475272	-92.305766
661.621255	-88.357697
661.767303	-91.806936
661.913415	-91.237597
662.059591	-86.007865
662.205833	-89.890521
662.352138	-91.936251
662.498509	-84.957212
662.644944	-88.258545
662.791443	-93.789769
662.938008	-83.745808
663.084638	-84.709039
663.231332	-96.789430
663.378091	-87.602021
663.524915	-87.603198
663.671804	-97.897673
663.818759	-87.961297
663.965778	-90.890448
664.112863	-101.021569
664.260012	-88.398438
664.407227	-88.069986
664.554507	-87.695500
664.701853	-87.562413
664.849264	-91.967614
664.996740	-87.477182
665.144282	-86.282353
665.291889	-87.544954
665.439561	-84.220410
665.587300	-84.651839
665.735103	-87.255302
665.882973	-83.866806
666.030908	-85.442628
666.178909	-86.235727
666.326976	-81.965029
666.475109	-86.381264
666.623307	-88.519363
666.771571	-79.925055
666.919902	-81.307356
667.068298	-90.968748
667.216761	-80.731790
667.365289	-81.924213
667.513884	-91.047958
667.662545	-81.677302
667.811272	-81.873348
667.960065	-86.203748
668.108925	-78.310441
668.257851	-78.757267
668.406843	-89.025551
668.555902	-81.746243
668.705027	-79.859733
668.854219	-93.373817
669.003478	-80.577311
669.152803	-78.715085
669.302195	-89.091477
669.451653	-82.199876
669.601179	-78.072790
669.750771	-83.306155
669.900430	-86.949160
670.050156	-80.868603
670.199949	-87.046225
670.349808	-85.587300
670.499735	-79.564125
670.649729	-82.846320
670.799790	-91.471619
670.949918	-82.358516
671.100114	-84.893646
671.250377	-102.271589
671.400707	-86.138680
671.551104	-89.262795
671.701569	-92.042553
671.852101	-83.874291
672.002700	-83.007592
672.153368	-88.562224
672.304102	-89.276316
672.454905	-80.054087
672.605775	-79.302059
672.756713	-88.258018
672.907718	-85.280736
673.058791	-80.912815
673.209933	-90.097979
673.361142	-82.143930
673.512419	-78.195919
673.663764	-81.990493
673.815177	-86.530179
673.966658	-80.515245
674.118207	-84.093158
674.269825	-96.589435
674.421510	-84.912333
674.573264	-93.359639
674.725086	-84.782131
674.876977	-81.692586
675.028936	-88.617392
675.180963	-86.039070
675.333059	-82.522428
675.485224	-93.753868
675.637457	-82.433960
675.789758	-79.320970
675.942129	-85.396014
676.094568	-80.620348
676.247075	-75.949005
676.399652	-79.118500
676.552298	-82.549482
676.705012	-78.110672
676.857795	-83.032861
677.010648	-81.066427
677.163569	-75.975518
677.316560	-78.472046
677.469619	-79.503097
677.622748	-77.125450
677.775946	-84.460460
677.929214	-82.926125
678.082551	-79.061110
678.235957	-92.905908
678.389432	-81.632393
678.542977	-81.147430
678.696592	-88.012557
678.850276	-78.640111
679.004030	-81.294237
679.157853	-86.910622
679.311746	-78.529505
679.465709	-81.993779
679.619742	-88.701599
679.773844	-80.395336
679.928017	-82.360859
680.082259	-87.849176
680.236571	-86.623463
680.390954	-83.154848
680.545406	-85.372564
680.699929	-89.709479
680.854522	-80.926251
681.009185	-84.679927
681.163918	-83.454356
681.318722	-77.418885
681.473596	-81.590328
681.628540	-87.206344
681.783555	-78.656486
681.938641	-83.840512
682.093797	-88.068553
682.249023	-80.902349
682.404321	-84.013295
682.559689	-88.253814
682.715128	-86.474163
682.870637	-82.708299
683.026218	-84.337447
683.181869	-90.056455
683.337591	-80.995246
683.493385	-82.123193
683.649249	-91.287910
683.805185	-84.227899
683.961191	-91.853343
684.117269	-86.146849
684.273418	-83.255048
684.429639	-96.384706
684.585930	-86.545991
684.742294	-88.665455
684.898728	-88.161912
685.055234	-82.672221
685.211812	-89.075814
685.368461	-84.940812
685.525182	-81.132884
685.681975	-85.753966
685.838839	-100.396792
685.995775	-88.631306
686.152783	-92.108781
686.309863	-88.735119
686.467014	-85.037204
686.624238	-84.063064
686.781534	-83.587815
686.938902	-81.571635
687.096342	-82.093903
687.253854	-81.700752
687.411438	-80.351488
687.569095	-83.579101
687.726824	-86.026025
687.884626	-86.126335
688.042499	-87.826988
688.200446	-85.857473
688.358465	-88.572679
688.516556	-88.619599
688.674720	-86.451136
688.832957	-85.781702
688.991266	-82.830876
689.149649	-86.132360
689.308104	-82.015078
689.466632	-78.716096
689.625233	-82.420348
689.783906	-80.687081
689.942653	-79.238613
690.101473	-82.283055
690.260367	-83.549315
690.419333	-91.444192
690.578372	-87.332310
690.737485	-84.729306
690.896672	-88.886146
691.055931	-81.298528
691.215264	-84.008019
691.374671	-79.708288
691.534151	-77.393993
691.693704	-90.906991
691.853332	-78.148282
692.013033	-76.509900
692.172807	-89.080415
692.332656	-80.342382
692.492578	-80.372400
692.652575	-98.617130
692.812645	-81.106413
692.972789	-82.171482
693.133007	-84.748201
693.293300	-88.485975
693.453666	-84.145127
693.614107	-84.968214
693.774622	-95.035529
693.935211	-80.352593
694.095875	-81.794859
694.256613	-87.983265
694.417426	-83.357771
694.578313	-81.766117
694.739274	-79.052295
694.900311	-81.357435
695.061421	-86.858578
695.222607	-84.656110
695.383868	-83.166880
695.545203	-80.149098
695.706613	-79.997508
695.868098	-81.410385
696.029658	-86.957951
696.191293	-83.227524
696.353003	-80.366719
696.514789	-91.076872
696.676649	-77.372522
696.838585	-77.680235
697.000596	-88.253506
697.162682	-74.901845
697.324844	-75.866212
697.487081	-81.490088
697.649394	-74.879867
697.811782	-78.874747
697.974246	-81.326840
698.136786	-76.777471
698.299401	-91.100981
698.462092	-77.106695
698.624859	-76.626162
698.787702	-92.006351
698.950621	-83.041793
699.113616	-97.864930
699.276686	-78.668181
699.439833	-78.963964
699.603056	-84.043132
699.766355	-75.999808
699.929731	-79.526330
700.093183	-83.685938
700.256711	-78.709685
700.420315	-82.340496
700.583996	-85.687615
700.747754	-84.654695
700.911588	-84.493270
701.075499	-84.828683
701.239486	-83.234069
701.403550	-86.620151
701.567691	-87.950183
701.731909	-78.892113
701.896203	-82.531300
702.060575	-88.766000
702.225024	-87.451950
702.389549	-91.366041
702.554152	-79.886917
702.718832	-81.002381
702.883589	-88.294668
703.048424	-91.246245
703.213335	-88.595812
703.378324	-80.302682
703.543391	-80.047812
703.708535	-87.260821
703.873757	-82.753165
704.039056	-83.129933
704.204433	-84.040604
704.369887	-89.153896
704.535420	-83.999098
704.701030	-78.609682
704.866718	-86.115510
705.032484	-83.226083
705.198328	-80.355549
705.364250	-82.471708
705.530250	-78.079860
705.696328	-84.564959
705.862485	-80.046507
706.028720	-76.704910
706.195033	-80.493808
706.361424	-81.989313
706.527894	-79.873564
706.694442	-79.671198
706.861069	-83.241452
707.027775	-75.699535
707.194559	-77.469834
707.361422	-83.361691
707.528363	-73.468147
707.695384	-77.662363
707.862483	-80.595008
708.029661	-72.717348
708.196918	-77.078048
708.364254	-82.805081
708.531670	-77.478953
708.699164	-83.455466
708.866738	-74.462160
709.034391	-75.646140
709.202123	-84.953179
709.369935	-73.218621
709.537826	-76.278316
709.705796	-83.725027
709.873847	-75.701755
710.041976	-80.825672
710.210186	-82.695062
710.378475	-78.981427
710.546844	-81.981475
710.715292	-94.095408
710.883821	-77.340037
711.052429	-77.292877
711.221118	-93.217143
711.389887	-81.845219
711.558735	-83.899594
711.727664	-75.001784
711.896673	-73.556235
712.065763	-74.226166
712.234932	-71.867913
712.404183	-72.975048
712.573513	-75.330587
712.742924	-74.301705
712.912416	-78.017440
713.081988	-83.337742
713.251641	-80.441764
713.421375	-87.264743
713.591190	-78.497582
713.761085	-78.580071
713.931061	-83.972047
714.101119	-81.250740
714.271257	-81.412470
714.441476	-92.035994
714.611777	-79.020099
714.782159	-79.060486
714.952622	-79.090344
715.123166	-77.567717
715.293792	-89.487795
715.464499	-86.404056
715.635288	-97.562596
715.806158	-83.015820
715.977110	-90.343747
716.148143	-81.426541
716.319259	-79.769920
716.490456	-86.330852
716.661735	-87.465909
716.833096	-75.839101
717.004538	-75.973377
717.176063	-83.513434
717.347670	-73.098507
717.519359	-79.813002
717.691130	-76.796436
717.862984	-76.136788
718.034920	-82.314582
718.206938	-74.040251
718.379039	-88.357726
718.551222	-76.372401
718.723488	-81.864122
718.895836	-79.399020
719.068267	-81.676706
719.240781	-77.115982
719.413377	-72.821549
719.586057	-73.310839
719.758819	-68.886654
719.931664	-70.130272
720.104593	-71.051326
720.277604	-70.170708
720.450699	-73.857088
720.623876	-75.291479
720.797137	-75.164275
720.970482	-83.249981
721.143910	-88.476822
721.317421	-90.614787
721.491016	-82.611555
721.664694	-83.613744
721.838456	-75.763892
722.012302	-78.524242
722.186231	-75.556838
722.360244	-74.242763
722.534342	-87.689964
722.708523	-74.058311
722.882788	-82.433724
723.057137	-78.398575
723.231570	-83.751711
723.406088	-68.659238
723.580689	-69.341462
723.755375	-69.507398
723.930146	-67.022875
724.105000	-71.888034
724.279940	-69.137693
724.454963	-72.521401
724.630072	-73.210275
724.805265	-72.254105
724.980543	-78.008052
725.155905	-74.917615
725.331353	-83.288297
725.506885	-86.970803
725.682503	-85.942816
725.858205	-78.193233
726.033993	-76.291752
726.209865	-82.219677
726.385823	-77.370904
726.561866	-79.428584
726.737995	-78.762304
726.914209	-77.803959
727.090508	-80.999227
727.266893	-85.513617
727.443364	-74.233914
727.619920	-71.535573
727.796562	-73.353092
727.973290	-67.427650
728.150103	-72.392031
728.327003	-69.824803
728.503988	-71.061493
728.681060	-74.719923
728.858218	-71.633881
729.035461	-75.890440
729.212791	-68.702332
729.390208	-75.362782
729.567710	-71.060718
729.745299	-77.335900
729.922975	-72.260162
730.100737	-74.035265
730.278586	-77.299383
730.456521	-72.227134
730.634543	-69.482068
730.812652	-66.784197
730.990848	-68.579447
731.169130	-71.597243
731.347500	-74.418810
731.525957	-84.819355
731.704500	-79.299700
731.883131	-81.972064
732.061850	-76.638359
732.240655	-75.417248
732.419548	-87.165362
732.598528	-77.022000
732.777596	-68.658247
732.956751	-70.898516
733.135994	-68.775631
733.315325	-67.866663
733.494744	-71.957030
733.674250	-66.016589
733.853844	-69.956992
734.033526	-66.006014
734.213296	-70.701476
734.393154	-67.306338
734.573101	-68.624201
734.753135	-67.414261
734.933258	-66.742366
735.113469	-68.607114
735.293769	-66.637018
735.474157	-73.068063
735.654633	-71.147502
735.835198	-81.355454
736.015852	-73.358939
736.196594	-82.392252
736.377426	-82.383052
736.558346	-77.797533
736.739355	-77.318360
736.920453	-73.572158
737.101640	-69.494596
737.282916	-71.493675
737.464282	-67.714416
737.645736	-69.046120
737.827280	-67.908331
738.008914	-70.656407
738.190637	-74.277613
738.372449	-78.586168
738.554351	-73.955295
738.736342	-72.112393
738.918424	-68.636696
739.100595	-71.676221
739.282855	-70.569914
739.465206	-79.228560
739.647647	-75.860323
739.830178	-108.109264
740.012799	-71.574549
740.195510	-77.476984
740.378311	-70.866353
740.561203	-75.055407
740.744185	-74.730332
740.927258	-77.844835
741.110421	-73.505602
741.293674	-77.180400
741.477018	-71.300266
741.660453	-70.315315
741.843979	-72.249888
742.027596	-69.587640
742.211303	-76.480084
742.395102	-69.056172
742.578991	-73.567757
742.762972	-68.338300
742.947044	-71.346433
743.131207	-69.265492
743.315461	-69.957545
743.499807	-71.601183
743.684244	-72.657759
743.868773	-84.829974
744.053394	-80.663483
744.238106	-82.588427
744.422910	-74.744607
744.607805	-76.145736
744.792793	-70.451497
744.977872	-71.762373
745.163044	-77.931398
745.348307	-76.634506
745.533663	-71.829415
745.719111	-69.084768
745.904651	-69.407854
746.090283	-67.244156
746.276008	-68.498848
746.461826	-69.057049
746.647735	-70.479196
746.833738	-73.463158
747.019833	-76.116438
747.206021	-79.387353
747.392302	-79.933215
747.578676	-90.726081
747.765143	-76.803351
747.951703	-85.309115
748.138356	-73.156489
748.325102	-78.871978
748.511941	-67.052495
748.698874	-70.494017
748.885900	-65.052661
749.073019	-68.104340
749.260232	-69.036013
749.447539	-69.766541
749.634939	-76.681310
749.822433	-75.241699
750.010021	-73.608184
750.197703	-74.649252
750.385479	-72.780569
750.573348	-72.288254
750.761312	-76.690494
750.949370	-76.607455
751.137523	-78.115618
751.325769	-85.611383
751.514110	-69.704176
751.702545	-69.010155
751.891075	-65.506237
752.079700	-66.926500
752.268419	-70.455986
752.457233	-74.022559
752.646142	-78.444734
752.835145	-87.195998
753.024244	-72.501017
753.213437	-72.826973
753.402726	-68.159016
753.592110	-70.104780
753.781589	-72.670269
753.971163	-75.350385
754.160833	-78.797520
754.350598	-81.761018
754.540459	-70.009370
754.730415	-72.167553
754.920467	-67.787707
755.110615	-68.675343
755.300858	-72.021400
755.491198	-74.617027
755.681633	-71.821644
755.872164	-71.382807
756.062792	-70.434690
756.253515	-70.296473
756.444335	-71.900547
756.635252	-69.915463
756.826264	-73.083298
757.017373	-69.584808
757.208579	-78.172387
757.399881	-74.751431
757.591280	-70.832025
757.782776	-69.891111
757.974368	-73.934995
758.166058	-70.282416
758.357844	-82.253059
758.549728	-81.432311
758.741708	-66.256118
758.933786	-67.419220
759.125961	-65.037607
759.318233	-67.235827
759.510603	-71.622081
759.703071	-73.698215
759.895635	-70.658564
760.088298	-73.021743
760.281058	-70.761477
760.473916	-80.556308
760.666872	-68.337121
760.859926	-69.236854
761.053078	-64.454004
761.246328	-68.200554
761.439676	-67.732087
761.633122	-77.016275
761.826667	-72.476375
762.020310	-69.759807
762.214052	-63.272579
762.407892	-66.614725
762.601831	-64.087380
762.795868	-70.181630
762.990004	-68.421744
763.184239	-78.770979
763.378573	-73.083242
763.573006	-78.731552
763.767538	-68.662035
763.962169	-68.150777
764.156900	-63.227402
764.351729	-67.216021
764.546658	-64.312332
764.741687	-72.697408
764.936815	-72.673434
765.132042	-73.000213
765.327370	-66.991544
765.522797	-67.205713
765.718324	-66.120193
765.913950	-66.742487
766.109677	-66.448887
766.305504	-71.500720
766.501431	-75.286855
766.697458	-70.029983
766.893586	-75.187184
767.089814	-64.917763
767.286142	-68.128901
767.482571	-63.102246
767.679100	-67.167545
767.875730	-65.266972
768.072461	-72.945250
768.269293	-66.586771
768.466225	-71.697394
768.663259	-65.086405
768.860393	-74.796248
769.057629	-65.861320
769.254966	-71.594402
769.452404	-66.649441
769.649944	-75.261063
769.847585	-66.316438
770.045328	-66.870372
770.243172	-63.955537
770.441118	-64.758159
770.639166	-63.626358
770.837315	-65.126454
771.035567	-66.153750
771.233920	-67.654035
771.432376	-70.303736
771.630934	-62.657016
771.829594	-66.572254
772.028356	-64.480882
772.227220	-76.817946
772.426188	-64.399823
772.625257	-76.932178
772.824430	-64.175649
773.023705	-70.148711
773.223083	-62.829575
773.422563	-68.081302
773.622147	-63.721815
773.821834	-67.107934
774.021624	-65.097184
774.221517	-68.907517
774.421513	-74.930475
774.621613	-63.616584
774.821816	-66.949075
775.022122	-61.735103
775.222532	-70.120613
775.423046	-62.457949
775.623664	-67.004205
775.824385	-61.725443
776.025211	-66.067836
776.226140	-60.999369
776.427173	-64.583727
776.628311	-62.270627
776.829553	-64.899820
777.030899	-61.866288
777.232350	-62.898924
777.433905	-62.601740
777.635564	-69.621183
777.837328	-76.904947
778.039197	-64.400155
778.241171	-69.525151
778.443250	-63.362147
778.645433	-67.483761
778.847722	-61.284844
779.050116	-65.229284
779.252615	-62.078343
779.455219	-63.904796
779.657929	-63.771604
779.860744	-62.146372
780.063665	-64.693072
780.266691	-58.953638
780.469823	-63.325002
780.673061	-59.486233
780.876405	-70.215696
781.079855	-61.812274
781.283410	-65.839635
781.487072	-61.563155
781.690840	-62.680953
781.894715	-62.246702
782.098695	-60.847443
782.302783	-65.641097
782.506976	-61.162158
782.711277	-68.499588
782.915684	-61.548769
783.120198	-66.745960
783.324818	-61.746710
783.529546	-61.321415
783.734381	-60.716823
783.939322	-59.884368
784.144372	-62.693990
784.349528	-60.489391
784.554792	-65.181567
784.760163	-60.853181
784.965642	-65.301275
785.171228	-61.047533
785.376922	-64.439985
785.582724	-62.369857
785.788634	-61.864970
785.994651	-63.005811
786.200777	-62.534768
786.407011	-65.708969
786.613353	-60.211514
786.819804	-61.600611
787.026363	-57.915658
787.233030	-60.114437
787.439806	-58.516674
787.646691	-60.801860
787.853684	-61.139350
788.060786	-60.862821
788.267997	-63.366985
788.475317	-59.471858
788.682746	-62.488425
788.890285	-57.638736
789.097932	-60.226897
789.305689	-59.037973
789.513555	-60.572597
789.721531	-61.743414
789.929617	-58.811008
790.137812	-62.295303
790.346117	-57.447591
790.554531	-61.737631
790.763056	-58.674726
790.971691	-61.405598
791.180436	-61.185842
791.389291	-59.146964
791.598256	-62.657113
791.807332	-57.934455
792.016518	-60.652037
792.225815	-57.184691
792.435222	-60.162102
792.644740	-59.702250
792.854369	-59.408428
793.064109	-61.946058
793.273960	-58.893398
793.483922	-61.710300
793.693995	-57.828854
793.904180	-58.589536
794.114475	-57.418506
794.324882	-56.940877
794.535401	-57.832290
794.746031	-56.723775
794.956774	-60.369642
795.167627	-57.545186
795.378593	-58.593712
795.589671	-57.311564
795.800861	-58.658078
796.012162	-59.582856
796.223577	-58.047387
796.435103	-62.029777
796.646742	-58.331885
796.858493	-58.635390
797.070357	-56.663569
797.282334	-56.628568
797.494423	-58.460802
797.706626	-56.824500
797.918941	-59.964072
798.131369	-58.016174
798.343911	-59.970387
798.556566	-58.407711
798.769334	-57.346859
798.982215	-59.992308
799.195210	-56.613217
799.408319	-58.219570
799.621541	-56.095027
799.834877	-56.201633
800.048327	-56.782914
800.261890	-55.685767
800.475568	-58.149705
800.689360	-55.864183
800.903266	-56.771525
801.117287	-55.665130
801.331422	-57.116136
801.545671	-59.043555
801.760036	-56.585515
801.974514	-59.000163
802.189108	-56.791720
802.403816	-56.363704
802.618640	-56.028715
802.833578	-56.264071
803.048632	-59.411105
803.263800	-57.320231
803.479085	-57.925476
803.694484	-56.340358
803.909999	-55.964677
804.125630	-56.649639
804.341376	-55.342895
804.557239	-57.966765
804.773217	-55.544620
804.989311	-55.294464
805.205521	-55.918278
805.421847	-55.633898
805.638290	-57.824081
805.854849	-55.755704
806.071524	-57.055089
806.288316	-56.454579
806.505225	-55.227638
806.722250	-57.167458
806.939393	-55.847467
807.156652	-58.190403
807.374028	-56.334618
807.591521	-55.266633
807.809132	-57.225417
808.026859	-54.812733
808.244705	-57.405842
808.462667	-57.268217
808.680748	-56.404707
808.898946	-57.120983
809.117261	-54.516497
809.335695	-56.462733
809.554246	-55.656682
809.772916	-55.343517
809.991704	-56.939674
810.210610	-54.825340
810.429634	-56.106868
810.648777	-55.066397
810.868039	-55.422927
811.087419	-57.354913
811.306918	-54.427712
811.526535	-56.055776
811.746272	-55.897494
811.966127	-55.593537
812.186102	-57.785250
812.406196	-55.759024
812.626409	-56.840588
812.846742	-56.228343
813.067194	-55.058796
813.287766	-57.237191
813.508457	-55.840087
813.729269	-56.161245
813.950200	-56.252111
814.171251	-55.395734
814.392422	-55.852169
814.613714	-54.150687
814.835126	-55.493112
815.056658	-56.259594
815.278311	-55.887901
815.500084	-57.254946
815.721978	-55.824019
815.943993	-56.128096
816.166128	-56.122236
816.388385	-55.313086
816.610762	-56.866994
816.833261	-55.079932
817.055881	-55.455130
817.278623	-57.076263
817.501486	-55.523413
817.724471	-56.426183
817.947577	-55.818409
818.170805	-55.330421
818.394155	-56.798967
818.617627	-55.506498
818.841221	-56.884780
819.064937	-56.731710
819.288775	-54.193285
819.512736	-55.116072
819.736819	-54.869203
819.961025	-55.106579
820.185354	-55.931464
820.409805	-55.641253
820.634379	-56.869387
820.859076	-56.065693
821.083897	-55.153177
821.308840	-56.479965
821.533907	-57.435816
821.759097	-58.745249
821.984411	-57.409316
822.209848	-55.647761
822.435409	-55.464040
822.661093	-55.029946
822.886902	-55.453646
823.112834	-55.069496
823.338891	-54.142279
823.565072	-55.095117
823.791377	-55.450680
824.017807	-56.369600
824.244361	-56.309653
824.471039	-54.433215
824.697843	-55.391815
824.924771	-56.193711
825.151824	-56.490359
825.379002	-58.714553
825.606306	-56.571425
825.833734	-54.508927
826.061288	-55.339898
826.288967	-54.874687
826.516772	-55.460287
826.744703	-56.061565
826.972759	-54.374001
827.200941	-54.265983
827.429249	-53.953448
827.657683	-53.707678
827.886243	-55.628032
828.114930	-55.761637
828.343743	-55.414809
828.572682	-56.425489
828.801748	-56.122288
829.030941	-56.028549
829.260260	-55.747480
829.489706	-54.179693
829.719280	-53.807230
829.948980	-53.780798
830.178808	-54.247130
830.408763	-54.475944
830.638845	-52.571631
830.869055	-51.957723
831.099393	-52.876296
831.329858	-54.066363
831.560451	-56.883244
831.791173	-57.457484
832.022022	-54.434299
832.252999	-54.439766
832.484105	-54.271403
832.715339	-53.565999
832.946702	-53.770065
833.178193	-52.449174
833.409813	-52.724381
833.641561	-54.181930
833.873439	-52.863588
834.105445	-52.992077
834.337581	-53.079746
834.569846	-51.582490
834.802241	-52.885167
835.034764	-54.032452
835.267418	-53.049786
835.500201	-53.643930
835.733114	-52.486792
835.966157	-51.273055
836.199329	-51.853746
836.432632	-51.521107
836.666065	-52.244427
836.899629	-52.747267
837.133323	-51.125137
837.367147	-51.385215
837.601102	-51.646345
837.835188	-51.102336
838.069405	-52.250855
838.303752	-51.461565
838.538231	-50.470899
838.772841	-51.832954
839.007582	-51.867052
839.242455	-50.986495
839.477459	-50.295001
839.712595	-49.940958
839.947863	-51.116892
840.183263	-51.442114
840.418794	-50.608528
840.654458	-50.305881
840.890254	-49.886681
841.126182	-50.293947
841.362242	-51.085800
841.598435	-50.679389
841.834761	-50.519665
842.071220	-49.356695
842.307811	-48.679984
842.544536	-48.692468
842.781393	-48.468565
843.018384	-49.232264
843.255508	-50.069571
843.492765	-50.409093
843.730156	-51.681883
843.967681	-49.742284
844.205339	-48.011457
844.443132	-47.901065
844.681058	-46.784974
844.919118	-47.518479
845.157313	-50.038128
845.395642	-49.685043
845.634105	-49.339045
845.872703	-48.642360
846.111436	-47.324227
846.350303	-47.403782
846.589306	-47.264768
846.828443	-47.216247
847.067716	-48.007578
847.307124	-48.808725
847.546667	-49.968693
847.786345	-47.881403
848.026160	-46.232199
848.266110	-46.567548
848.506195	-46.838764
848.746417	-47.959280
848.986775	-48.367497
849.227269	-46.848397
849.467899	-47.195363
849.708666	-47.337604
849.949569	-46.755810
850.190609	-46.607666
850.431785	-45.803536
850.673099	-46.319279
850.914549	-47.848420
851.156137	-47.158889
851.397861	-46.434999
851.639723	-45.717557
851.881723	-45.834721
852.123860	-46.553147
852.366135	-46.272706
852.608547	-46.127066
852.851098	-45.644625
853.093786	-45.780617
853.336613	-47.002181
853.579578	-46.178010
853.822681	-45.641867
854.065923	-45.939481
854.309304	-45.381526
854.552823	-45.521320
854.796481	-45.637424
855.040278	-45.139566
855.284215	-45.133305
855.528290	-45.605333
855.772505	-46.162913
856.016859	-45.729744
856.261353	-45.030410
856.505987	-44.748333
856.750760	-44.248451
856.995673	-44.706175
857.240727	-45.153790
857.485920	-44.605200
857.731254	-45.035588
857.976729	-45.977215
858.222343	-45.548165
858.468099	-44.292395
858.713995	-43.581431
858.960032	-43.685407
859.206211	-44.306176
859.452530	-45.086812
859.698991	-44.851620
859.945593	-44.322506
860.192336	-44.474467
860.439222	-44.147580
860.686248	-43.402386
860.933417	-43.409213
861.180728	-44.216884
861.428181	-44.834553
861.675776	-44.760736
861.923514	-44.144579
862.171394	-43.299860
862.419417	-43.359938
862.667582	-44.148692
862.915890	-43.911295
863.164342	-43.661372
863.412936	-43.876981
863.661674	-43.890032
863.910555	-43.369636
864.159579	-42.895188
864.408747	-43.450683
864.658059	-43.676872
864.907515	-43.595116
865.157114	-43.699789
865.406858	-43.088429
865.656746	-43.160757
865.906778	-43.388608
866.156955	-43.217803
866.407277	-43.176409
866.657743	-43.102533
866.908354	-43.562087
867.159110	-43.016726
867.410011	-42.431422
867.661057	-43.317417
867.912249	-43.517669
868.163586	-42.963266
868.415069	-42.265543
868.666697	-42.418203
868.918472	-43.241223
869.170392	-42.736066
869.422458	-42.680054
869.674671	-42.940717
869.927030	-42.916141
870.179536	-43.071998
870.432188	-42.428650
870.684987	-42.474380
870.937933	-42.797668
871.191026	-42.833293
871.444266	-42.476175
871.697653	-41.420948
871.951188	-42.067226
872.204870	-43.151372
872.458700	-42.652228
872.712677	-42.249210
872.966803	-42.379609
873.221076	-43.004394
873.475498	-42.038515
873.730068	-41.377847
873.984787	-42.400137
874.239654	-42.869333
874.494669	-42.765965
874.749834	-41.995691
875.005147	-41.882085
875.260610	-42.170459
875.516222	-41.925442
875.771983	-42.153714
876.027894	-42.052056
876.283954	-42.213798
876.540164	-42.649043
876.796524	-42.165321
877.053033	-41.693243
877.309693	-41.566672
877.566503	-42.339948
877.823464	-42.303119
878.080575	-41.321568
878.337837	-41.539499
878.595249	-42.082038
878.852813	-42.183585
879.110528	-41.666972
879.368393	-41.707674
879.626410	-42.448513
879.884579	-42.027093
880.142899	-41.490343
880.401371	-41.507006
880.659994	-41.877739
880.918770	-41.670363
881.177698	-41.333847
881.436778	-42.063965
881.696010	-41.945838
881.955395	-41.328093
882.214933	-41.478639
882.474623	-41.942148
882.734467	-41.652649
882.994463	-40.879917
883.254613	-41.404126
883.514916	-41.976262
883.775372	-41.630675
884.035982	-41.145726
884.296746	-41.331424
884.557664	-41.926491
884.818735	-41.283210
885.079961	-40.853287
885.341341	-41.261184
885.602876	-41.848467
885.864565	-41.749147
886.126409	-41.018876
886.388407	-41.204515
886.650561	-41.499295
886.912870	-41.482774
887.175334	-40.968723
887.437953	-41.070547
887.700728	-41.717836
887.963658	-41.046562
888.226745	-40.755160
888.489987	-41.201562
888.753385	-41.450640
889.016940	-41.276694
889.280651	-41.028239
889.544518	-40.973417
889.808543	-40.812933
890.072723	-41.159712
890.337061	-40.870905
890.601556	-41.027743
890.866208	-41.754998
891.131017	-41.036803
891.395984	-40.524579
891.661109	-40.738332
891.926391	-41.087961
892.191831	-40.949623
892.457429	-40.935034
892.723186	-40.789354
892.989100	-40.679704
893.255173	-41.138975
893.521405	-40.361183
893.787796	-40.512464
894.054345	-41.210530
894.321053	-40.716798
894.587921	-40.410989
894.854948	-40.703838
895.122134	-41.058747
895.389480	-40.685583
895.656986	-40.833254
895.924651	-40.566978
896.192477	-40.692916
896.460463	-41.011385
896.728609	-40.200744
896.996915	-40.555005
897.265382	-40.812678
897.534010	-40.423858
897.802799	-40.253662
898.071749	-40.545542
898.340860	-40.872613
898.610132	-40.784233
898.879566	-40.443741
899.149162	-39.822641
899.418919	-40.774439
899.688838	-40.869903
899.958919	-39.988557
900.229162	-40.478914
900.499568	-40.686410
900.770136	-40.300591
901.040867	-39.941827
901.311761	-40.288199
901.582817	-40.262301
901.854037	-40.277165
902.125420	-39.993243
902.396966	-39.770529
902.668676	-40.276901
902.940550	-39.784006
903.212587	-40.062657
903.484788	-40.207467
903.757153	-39.763932
904.029683	-39.658627
904.302377	-39.897725
904.575236	-40.156630
904.848259	-39.902059
905.121447	-39.700773
905.394800	-39.301424
905.668319	-40.019162
905.942002	-39.533861
906.215852	-38.804055
906.489866	-39.688148
906.764047	-39.787037
907.038393	-39.314232
907.312906	-39.080093
907.587584	-39.283095
907.862429	-39.092541
908.137441	-39.601728
908.412619	-39.173700
908.687964	-38.787776
908.963476	-39.530911
909.239155	-39.064021
909.515002	-39.000979
909.791015	-38.942913
910.067197	-38.777999
910.343546	-38.648979
910.620063	-39.022902
910.896748	-38.545779
911.173601	-38.377700
911.450623	-38.851868
911.727813	-38.258236
912.005171	-38.501702
912.282699	-38.615886
912.560395	-38.516018
912.838261	-37.982616
913.116296	-37.999785
913.394500	-38.355943
913.672874	-38.409425
913.951418	-37.908701
914.230131	-37.658318
914.509015	-38.522497
914.788068	-37.971611
915.067292	-37.461717
915.346687	-37.490591
915.626252	-37.965784
915.905988	-37.741194
916.185895	-37.509192
916.465973	-37.846827
916.746223	-37.443440
917.026644	-37.031766
917.307236	-37.103942
917.588000	-37.569081
917.868937	-36.922915
918.150045	-36.984958
918.431325	-37.188025
918.712778	-37.195893
918.994404	-37.267296
919.276202	-36.979228
919.558173	-36.979449
919.840317	-36.747154
920.122634	-36.617867
920.405125	-36.702591
920.687789	-37.174622
920.970627	-36.313117
921.253639	-36.272166
921.536824	-36.578123
921.820184	-36.422924
922.103718	-36.465800
922.387427	-36.255017
922.671310	-36.490432
922.955368	-36.320809
923.239601	-35.750030
923.524009	-35.747749
923.808592	-36.437739
924.093351	-35.418002
924.378285	-35.758440
924.663396	-36.461480
924.948682	-35.693223
925.234144	-35.787723
925.519782	-35.818928
925.805597	-35.387851
926.091589	-35.600508
926.377757	-35.526743
926.664102	-35.064474
926.950624	-35.945582
927.237323	-35.036697
927.524200	-34.940389
927.811255	-35.675116
928.098487	-35.056433
928.385897	-34.895381
928.673485	-35.245387
928.961251	-34.617294
929.249196	-34.791695
929.537319	-35.176457
929.825621	-34.534936
930.114102	-35.164870
930.402762	-34.742226
930.691601	-34.404404
930.980620	-34.641702
931.269818	-34.589981
931.559196	-34.406099
931.848753	-34.487542
932.138491	-34.145324
932.428409	-34.616432
932.718508	-34.387593
933.008787	-33.760575
933.299246	-34.325439
933.589887	-33.944896
933.880709	-33.648061
934.171712	-33.814963
934.462896	-33.882774
934.754262	-33.877763
935.045810	-33.768181
935.337539	-33.071917
935.629451	-33.743939
935.921545	-33.612856
936.213822	-33.164600
936.506281	-33.536315
936.798922	-33.436406
937.091747	-33.280901
937.384755	-33.197776
937.677946	-32.989393
937.971321	-33.434962
938.264879	-33.201318
938.558621	-32.398433
938.852547	-33.508336
939.146657	-33.094391
939.440952	-32.313207
939.735431	-32.947380
940.030095	-33.075179
940.324943	-32.503198
940.619977	-32.625446
940.915196	-32.322208
941.210600	-33.003190
941.506189	-32.612656
941.801965	-31.717551
942.097926	-32.949500
942.394074	-32.990695
942.690407	-31.554702
942.986927	-32.226293
943.283634	-32.992232
943.580527	-32.080071
943.877608	-32.109373
944.174875	-32.217298
944.472330	-32.549712
944.769972	-32.044666
945.067802	-31.711734
945.365820	-32.230714
945.664026	-32.364139
945.962420	-31.539264
946.261002	-31.979942
946.559773	-31.947243
946.858733	-31.748798
947.157881	-31.768078
947.457219	-31.545647
947.756746	-31.565729
948.056462	-31.955799
948.356368	-31.381154
948.656464	-31.261520
948.956749	-31.725291
949.257225	-31.541782
949.557891	-31.248570
949.858748	-31.178750
950.159796	-31.619409
950.461034	-31.584835
950.762463	-30.902150
951.064084	-31.060188
951.365896	-31.817902
951.667900	-30.991473
951.970095	-31.089099
952.272483	-31.276513
952.575063	-31.012358
952.877835	-31.243453
953.180799	-31.061429
953.483956	-30.503854
953.787307	-31.453915
954.090850	-30.991060
954.394586	-30.502207
954.698516	-30.879947
955.002640	-30.810853
955.306957	-30.727399
955.611469	-30.811633
955.916174	-30.203365
956.221074	-30.931502
956.526169	-30.825268
956.831458	-29.925830
957.136942	-30.561506
957.442622	-30.858973
957.748496	-30.024206
958.054567	-30.459338
958.360833	-30.396158
958.667294	-30.072621
958.973952	-30.490645
959.280806	-30.193092
959.587857	-29.949189
959.895104	-30.189473
960.202548	-30.176887
960.510189	-30.173746
960.818027	-29.727976
961.126062	-29.718766
961.434295	-30.429547
961.742726	-29.680796
962.051355	-29.475086
962.360182	-30.000027
962.669207	-29.690207
962.978431	-29.582917
963.287854	-29.802003
963.597475	-29.345485
963.907296	-29.620415
964.217315	-29.768601
964.527535	-29.413133
964.837954	-29.295480
965.148573	-29.564472
965.459392	-29.392842
965.770411	-29.533182
966.081630	-29.268662
966.393051	-29.257834
966.704672	-29.584872
967.016494	-29.288211
967.328517	-29.105972
967.640742	-29.649549
967.953169	-28.928102
968.265797	-29.239075
968.578627	-29.558618
968.891660	-28.823175
969.204895	-29.097657
969.518332	-29.496979
969.831972	-28.810296
970.145816	-29.196619
970.459862	-29.018237
970.774112	-28.866663
971.088565	-29.118383
971.403223	-28.915774
971.718084	-28.693455
972.033149	-29.136581
972.348419	-28.732321
972.663893	-28.810425
972.979572	-28.914373
973.295456	-28.538352
973.611546	-28.724589
973.927840	-29.003402
974.244340	-28.324455
974.561046	-28.750109
974.877958	-28.815006
975.195076	-28.431604
975.512401	-28.619834
975.829932	-28.677490
976.147670	-28.335856
976.465615	-28.587350
976.783767	-28.519060
977.102126	-28.355226
977.420693	-28.387998
977.739468	-28.472193
978.058451	-28.233112
978.377642	-28.375751
978.697041	-28.225258
979.016649	-28.141650
979.336466	-28.258532
979.656492	-28.072716
979.976727	-28.041854
980.297171	-28.117337
980.617825	-27.829564
980.938689	-28.010359
981.259763	-27.959822
981.581048	-27.697112
981.902542	-27.937837
982.224248	-27.760221
982.546164	-27.567487
982.868291	-27.848556
983.190630	-27.612691
983.513180	-27.462039
983.835942	-27.830622
984.158916	-27.406473
984.482101	-27.458878
984.805500	-27.655544
985.129110	-27.405021
985.452934	-27.356451
985.776970	-27.565064
986.101220	-27.215019
986.425683	-27.383026
986.750359	-27.426354
987.075250	-27.208899
987.400354	-27.155110
987.725673	-27.443188
988.051206	-27.024547
988.376954	-27.232065
988.702916	-27.218534
989.029094	-27.055622
989.355487	-27.089534
989.682095	-27.206660
990.008919	-26.926286
990.335959	-27.008630
990.663216	-27.085751
990.990688	-26.938996
991.318377	-26.889308
991.646283	-27.056287
991.974406	-26.755345
992.302746	-26.876443
992.631304	-27.008957
992.960079	-26.671879
993.289072	-26.884654
993.618283	-26.814486
993.947713	-26.732687
994.277361	-26.729368
994.607227	-26.767059
994.937313	-26.586200
995.267618	-26.764526
995.598142	-26.576532
995.928886	-26.635668
996.259849	-26.545012
996.591033	-26.578445
996.922437	-26.516973
997.254061	-26.547976
997.585906	-26.410103
997.917972	-26.518733
998.250260	-26.367743
998.582768	-26.417043
998.915498	-26.417735
999.248450	-26.291545
999.581624	-26.341007
999.915020	-26.257669
1000.248639	-26.265472
1000.582480	-26.220791
1000.916545	-26.287382
1001.250832	-26.015922
1001.585343	-26.249161
1001.920077	-26.047534
1002.255035	-26.052564
1002.590218	-26.109002
1002.925624	-25.983507
1003.261255	-25.881743
1003.597111	-26.080132
1003.933192	-25.792220
1004.269497	-25.873183
1004.606029	-25.956807
1004.942785	-25.647406
1005.279768	-25.841997
1005.616977	-25.744839
1005.954412	-25.625397
1006.292074	-25.688963
1006.629962	-25.715882
1006.968077	-25.436974
1007.306420	-25.710223
1007.644990	-25.512912
1007.983787	-25.492168
1008.322813	-25.541087
1008.662067	-25.496491
1009.001549	-25.411023
1009.341259	-25.535937
1009.681199	-25.412952
1010.021367	-25.343792
1010.361765	-25.527992
1010.702392	-25.298533
1011.043250	-25.456133
1011.384337	-25.319985
1011.725654	-25.398431
1012.067202	-25.311576
1012.408980	-25.382506
1012.750989	-25.269546
1013.093230	-25.324461
1013.435702	-25.300360
1013.778405	-25.255542
1014.121341	-25.313030
1014.464508	-25.126200
1014.807908	-25.324879
1015.151540	-25.127240
1015.495405	-25.205247
1015.839503	-25.198520
1016.183835	-25.135366
1016.528400	-25.129553
1016.873198	-25.177215
1017.218231	-25.004257
1017.563498	-25.124339
1017.908999	-25.109514
1018.254735	-24.983183
1018.600707	-25.173874
1018.946913	-24.962019
1019.293354	-25.078807
1019.640032	-25.014484
1019.986945	-24.984513
1020.334094	-24.992531
1020.681480	-25.023495
1021.029102	-24.945846
1021.376961	-25.001855
1021.725058	-24.952143
1022.073391	-24.880445
1022.421962	-24.996928
1022.770772	-24.784043
1023.119819	-24.954683
1023.469104	-24.823584
1023.818628	-24.811795
1024.168391	-24.837902
1024.518393	-24.729496
1024.868634	-24.741539
1025.219115	-24.748875
1025.569836	-24.666764
1025.920796	-24.648867
1026.271997	-24.690270
1026.623438	-24.494247
1026.975121	-24.690078
1027.327044	-24.477103
1027.679208	-24.543858
1028.031614	-24.549953
1028.384262	-24.402259
1028.737152	-24.561048
1029.090284	-24.371710
1029.443659	-24.461999
1029.797276	-24.399659
1030.151137	-24.403441
1030.505240	-24.396090
1030.859587	-24.373524
1031.214178	-24.339576
1031.569013	-24.354038
1031.924093	-24.350098
1032.279417	-24.274649
1032.634985	-24.383270
1032.990799	-24.207717
1033.346858	-24.364456
1033.703162	-24.220313
1034.059712	-24.244669
1034.416509	-24.311612
1034.773551	-24.136519
1035.130841	-24.316270
1035.488377	-24.110669
1035.846160	-24.245609
1036.204190	-24.189161
1036.562468	-24.146163
1036.920994	-24.200834
1037.279768	-24.120567
1037.638790	-24.177873
1037.998061	-24.120874
1038.357581	-24.188290
1038.717350	-24.092937
1039.077368	-24.210335
1039.437636	-24.073825
1039.798154	-24.160354
1040.158922	-24.172334
1040.519940	-24.063406
1040.881209	-24.234235
1041.242729	-24.008018
1041.604501	-24.227074
1041.966524	-24.064734
1042.328798	-24.093894
1042.691325	-24.135757
1043.054103	-23.973379
1043.417135	-24.165889
1043.780419	-23.925654
1044.143956	-24.070263
1044.507746	-23.981774
1044.871791	-23.916161
1045.236088	-23.986838
1045.600641	-23.833955
1045.965447	-23.939127
1046.330508	-23.829696
1046.695824	-23.825746
1047.061395	-23.795629
1047.427222	-23.774385
1047.793304	-23.756663
1048.159642	-23.712670
1048.526237	-23.720316
1048.893088	-23.642141
1049.260196	-23.700540
1049.627561	-23.578179
1049.995183	-23.641806
1050.363063	-23.573911
1050.731201	-23.527410
1051.099597	-23.593082
1051.468251	-23.426495
1051.837164	-23.579066
1052.206336	-23.386396
1052.575767	-23.447550
1052.945458	-23.443515
1053.315409	-23.295879
1053.685619	-23.469274
1054.056090	-23.216158
1054.426821	-23.380697
1054.797814	-23.269086
1055.169067	-23.210242
1055.540582	-23.334917
1055.912359	-23.100430
1056.284398	-23.307299
1056.656698	-23.106183
1057.029262	-23.182153
1057.402088	-23.197145
1057.775177	-23.038887
1058.148530	-23.239702
1058.522146	-23.005156
1058.896027	-23.180132
1059.270171	-23.079448
1059.644580	-23.029696
1060.019254	-23.173607
1060.394193	-22.954902
1060.769397	-23.145247
1061.144867	-22.979438
1061.520602	-23.015348
1061.896604	-23.067731
1062.272872	-22.889451
1062.649407	-23.076242
1063.026210	-22.868057
1063.403279	-22.971894
1063.780616	-22.919936
1064.158221	-22.816668
1064.536094	-22.973370
1064.914235	-22.721555
1065.292645	-22.894616
1065.671325	-22.745630
1066.050273	-22.731475
1066.429491	-22.806970
1066.808979	-22.579121
1067.188738	-22.781705
1067.568766	-22.553406
1067.949066	-22.624194
1068.329636	-22.609098
1068.710478	-22.450898
1069.091592	-22.626711
1069.472977	-22.365557
1069.854635	-22.510968
1070.236565	-22.397423
1070.618768	-22.320163
1071.001243	-22.441720
1071.383993	-22.200230
1071.767016	-22.366112
1072.150313	-22.176206
1072.533884	-22.191242
1072.917730	-22.235653
1073.301850	-22.045804
1073.686246	-22.209513
1074.070917	-22.010013
1074.455864	-22.085335
1074.841087	-22.043960
1075.226586	-21.942025
1075.612362	-22.065407
1075.998415	-21.898506
1076.384745	-21.985773
1076.771353	-21.928080
1077.158238	-21.886267
1077.545401	-21.942839
1077.932843	-21.832941
1078.320564	-21.903538
1078.708564	-21.852682
1079.096842	-21.832099
1079.485401	-21.858911
1079.874240	-21.808129
1080.263358	-21.814600
1080.652757	-21.813105
1081.042438	-21.786998
1081.432399	-21.812922
1081.822641	-21.793342
1082.213166	-21.741188
1082.603972	-21.839454
1082.995061	-21.703169
1083.386433	-21.818522
1083.778087	-21.729930
1084.170025	-21.714385
1084.562246	-21.789573
1084.954751	-21.618866
1085.347541	-21.778515
1085.740615	-21.608342
1086.133973	-21.660549
1086.527617	-21.671965
1086.921546	-21.540060
1087.315761	-21.668552
1087.710262	-21.510605
1088.105050	-21.584002
1088.500124	-21.539667
1088.895485	-21.472978
1089.291134	-21.524482
1089.687070	-21.436657
1090.083294	-21.426045
1090.479806	-21.387993
1090.876607	-21.335283
1091.273696	-21.285374
1091.671075	-21.278716
1092.068744	-21.125217
1092.466702	-21.187679
1092.864950	-21.026973
1093.263489	-21.009891
1093.662319	-20.998718
1094.061440	-20.818754
1094.460852	-20.926720
1094.860555	-20.739740
1095.260551	-20.785811
1095.660840	-20.723947
1096.061421	-20.644691
1096.462295	-20.687549
1096.863462	-20.579396
1097.264923	-20.578100
1097.666678	-20.544931
1098.068727	-20.487373
1098.471071	-20.428714
1098.873710	-20.449079
1099.276644	-20.294343
1099.679874	-20.351339
1100.083400	-20.221934
1100.487222	-20.200128
1100.891340	-20.196226
1101.295756	-20.049437
1101.700468	-20.148060
1102.105478	-20.017716
1102.510787	-20.043755
1102.916393	-20.037765
1103.322298	-20.013901
1103.728502	-20.027196
1104.135005	-20.045609
1104.541807	-20.026422
1104.948909	-20.073520
1105.356312	-20.071668
1105.764015	-20.031747
1106.172019	-20.131433
1106.580324	-19.995711
1106.988931	-20.087128
1107.397840	-20.003140
1107.807051	-19.969552
1108.216564	-19.966325
1108.626380	-19.879864
1109.036500	-19.850628
1109.446923	-19.815714
1109.857649	-19.737533
1110.268680	-19.716834
1110.680016	-19.695063
1111.091657	-19.599491
1111.503602	-19.667948
1111.915854	-19.566146
1112.328411	-19.593555
1112.741275	-19.596918
1113.154445	-19.545059
1113.567922	-19.597310
1113.981706	-19.555852
1114.395798	-19.553276
1114.810198	-19.553879
1115.224906	-19.523002
1115.639923	-19.469392
1116.055249	-19.504063
1116.470884	-19.359757
1116.886829	-19.381349
1117.303084	-19.289491
1117.719650	-19.202947
1118.136526	-19.170693
1118.553713	-19.072894
1118.971212	-19.003233
1119.389022	-18.956859
1119.807145	-18.871463
1120.225580	-18.826326
1120.644328	-18.817310
1121.063389	-18.715462
1121.482763	-18.769609
1121.902452	-18.698925
1122.322454	-18.713085
1122.742771	-18.728730
1123.163404	-18.721342
1123.584351	-18.729008
1124.005614	-18.779553
1124.427193	-18.734071
1124.849089	-18.790127
1125.271301	-18.797987
1125.693830	-18.746977
1126.116677	-18.795952
1126.539842	-18.737865
1126.963324	-18.715417
1127.387126	-18.682409
1127.811246	-18.638778
1128.235685	-18.556033
1128.660444	-18.548438
1129.085522	-18.419113
1129.510922	-18.403805
1129.936641	-18.319269
1130.362682	-18.246226
1130.789044	-18.200436
1131.215728	-18.143800
1131.642734	-18.078081
1132.070063	-18.058975
1132.497714	-17.997708
1132.925689	-17.971052
1133.353987	-17.973949
1133.782610	-17.905392
1134.211556	-17.929323
1134.640827	-17.906749
1135.070424	-17.884078
1135.500345	-17.882265
1135.930593	-17.892879
1136.361166	-17.833059
1136.792067	-17.876901
1137.223294	-17.817955
1137.654848	-17.808281
1138.086730	-17.795337
1138.518940	-17.749713
1138.951479	-17.713286
1139.384346	-17.705102
1139.817543	-17.633575
1140.251069	-17.596376
1140.684925	-17.586610
1141.119111	-17.494325
1141.553628	-17.492047
1141.988475	-17.441088
1142.423655	-17.395664
1142.859166	-17.368548
1143.295009	-17.355458
1143.731185	-17.290861
1144.167694	-17.311898
1144.604536	-17.275834
1145.041711	-17.253434
1145.479221	-17.273325
1145.917065	-17.248835
1146.355245	-17.246002
1146.793759	-17.270952
1147.232609	-17.249879
1147.671795	-17.260022
1148.111317	-17.282929
1148.551177	-17.263680
1148.991373	-17.267712
1149.431907	-17.295918
1149.872779	-17.248991
1150.313989	-17.273196
1150.755538	-17.258609
1151.197426	-17.226732
1151.639653	-17.211045
1152.082220	-17.206999
1152.525128	-17.133149
1152.968376	-17.134628
1153.411966	-17.080312
1153.855897	-17.022349
1154.300169	-16.995218
1154.744784	-16.938522
1155.189742	-16.864888
1155.635042	-16.839256
1156.080687	-16.770806
1156.526674	-16.690984
1156.973007	-16.679329
1157.419683	-16.588971
1157.866705	-16.537425
1158.314072	-16.509541
1158.761786	-16.439488
1159.209845	-16.385512
1159.658251	-16.378720
1160.107004	-16.302310
1160.556104	-16.281325
1161.005553	-16.264136
1161.455349	-16.219174
1161.905494	-16.199305
1162.355989	-16.199319
1162.806832	-16.163044
1163.258026	-16.161394
1163.709570	-16.166408
1164.161464	-16.148192
1164.613710	-16.144247
1165.066307	-16.173127
1165.519256	-16.141979
1165.972558	-16.163873
1166.426212	-16.177986
1166.880219	-16.164765
1167.334580	-16.172144
1167.789295	-16.194594
1168.244364	-16.172099
1168.699788	-16.176582
1169.155567	-16.188765
1169.611702	-16.166880
1170.068193	-16.147825
1170.525041	-16.165728
1170.982245	-16.116693
1171.439807	-16.098806
1171.897726	-16.093793
1172.356004	-16.044677
1172.814640	-16.001047
1173.273635	-16.003625
1173.732989	-15.923099
1174.192703	-15.890557
1174.652778	-15.866236
1175.113213	-15.799100
1175.574009	-15.740909
1176.035167	-15.729189
1176.496687	-15.648491
1176.958569	-15.599522
1177.420814	-15.570738
1177.883422	-15.513360
1178.346394	-15.449313
1178.809730	-15.431226
1179.273430	-15.377121
1179.737496	-15.323010
1180.201927	-15.301365
1180.666723	-15.268132
1181.131886	-15.208953
1181.597416	-15.203433
1182.063312	-15.173175
1182.529576	-15.131658
1182.996209	-15.127093
1183.463209	-15.112571
1183.930579	-15.075241
1184.398317	-15.084247
1184.866426	-15.070779
1185.334904	-15.055889
1185.803754	-15.054555
1186.272974	-15.060529
1186.742566	-15.044176
1187.212529	-15.052018
1187.682865	-15.055083
1188.153574	-15.047571
1188.624656	-15.042337
1189.096112	-15.061990
1189.567942	-15.034929
1190.040147	-15.037531
1190.512726	-15.046738
1190.985681	-15.018258
1191.459012	-15.006010
1191.932720	-15.015613
1192.406804	-14.979243
1192.881265	-14.953538
1193.356104	-14.949995
1193.831322	-14.921932
1194.306918	-14.873633
1194.782893	-14.860034
1195.259248	-14.835217
1195.735982	-14.774814
1196.213097	-14.751709
1196.690593	-14.726437
1197.168471	-14.659015
1197.646730	-14.634529
1198.125371	-14.606439
1198.604395	-14.546570
1199.083803	-14.511805
1199.563594	-14.489408
1200.043769	-14.447964
1200.524329	-14.398205
1201.005273	-14.385882
1201.486604	-14.356866
1201.968320	-14.312583
1202.450422	-14.299270
1202.932912	-14.280683
1203.415789	-14.243037
1203.899054	-14.242339
1204.382707	-14.218986
1204.866748	-14.194699
1205.351179	-14.186854
1205.836000	-14.188022
1206.321211	-14.156378
1206.806812	-14.136186
1207.292805	-14.155634
1207.779189	-14.137492
1208.265965	-14.097346
1208.753134	-14.107354
1209.240696	-14.110638
1209.728651	-14.087077
1210.217000	-14.052917
1210.705744	-14.062786
1211.194883	-14.069558
1211.684417	-14.030675
1212.174347	-14.003686
1212.664673	-14.016920
1213.155396	-14.023466
1213.646516	-13.976673
1214.138034	-13.944255
1214.629951	-13.985830
1215.122266	-13.980494
1215.614980	-13.910001
1216.108095	-13.909732
1216.601609	-13.958654
1217.095524	-13.933706
1217.589841	-13.848446
1218.084559	-13.889899
1218.579679	-13.937473
1219.075202	-13.862131
1219.571128	-13.809568
1220.067458	-13.872094
1220.564191	-13.892097
1221.061330	-13.790120
1221.558874	-13.774206
1222.056823	-13.851318
1222.555178	-13.814325
1223.053940	-13.723786
1223.553109	-13.747852
1224.052686	-13.802916
1224.552671	-13.729538
1225.053065	-13.665774
1225.553867	-13.725609
1226.055079	-13.727707
1226.556702	-13.646972
1227.058735	-13.631570
1227.561179	-13.682091
1228.064035	-13.645412
1228.567303	-13.577459
1229.070983	-13.605850
1229.575077	-13.619655
1230.079585	-13.560272
1230.584506	-13.533901
1231.089842	-13.567046
1231.595594	-13.547682
1232.101761	-13.487892
1232.608345	-13.504267
1233.115345	-13.516257
1233.622762	-13.470802
1234.130597	-13.446127
1234.638851	-13.467386
1235.147523	-13.461554
1235.656615	-13.409273
1236.166126	-13.417268
1236.676058	-13.427753
1237.186411	-13.401093
1237.697185	-13.374125
1238.208381	-13.381733
1238.719999	-13.382438
1239.232040	-13.348589
1239.744505	-13.341616
1240.257394	-13.336876
1240.770708	-13.327326
1241.284446	-13.305394
1241.798610	-13.290973
1242.313201	-13.282961
1242.828218	-13.266477
1243.343662	-13.254287
1243.859534	-13.224707
1244.375834	-13.218030
1244.892563	-13.207531
1245.409721	-13.179126
1245.927309	-13.154816
1246.445327	-13.147653
1246.963777	-13.138297
1247.482657	-13.093016
1248.001970	-13.081530
1248.521716	-13.077200
1249.041894	-13.048980
1249.562506	-13.011379
1250.083553	-13.004583
1250.605034	-12.998502
1251.126950	-12.950903
1251.649302	-12.933461
1252.172091	-12.925722
1252.695316	-12.904023
1253.218979	-12.860583
1253.743079	-12.853088
1254.267619	-12.842866
1254.792597	-12.801695
1255.318015	-12.781272
1255.843874	-12.769363
1256.370173	-12.752288
1256.896913	-12.709646
1257.424095	-12.704381
1257.951720	-12.685408
1258.479787	-12.658260
1259.008298	-12.633228
1259.537254	-12.624296
1260.066654	-12.603161
1260.596499	-12.570101
1261.126790	-12.563839
1261.657527	-12.541666
1262.188711	-12.521454
1262.720342	-12.493082
1263.252422	-12.490699
1263.784950	-12.461688
1264.317928	-12.440240
1264.851355	-12.425146
1265.385232	-12.412089
1265.919560	-12.386271
1266.454340	-12.364601
1266.989572	-12.359787
1267.525256	-12.336360
1268.061394	-12.315364
1268.597985	-12.300107
1269.135031	-12.296206
1269.672531	-12.269721
1270.210487	-12.253246
1270.748899	-12.247907
1271.287768	-12.237647
1271.827094	-12.216083
1272.366877	-12.202760
1272.907119	-12.206755
1273.447820	-12.188116
1273.988981	-12.173820
1274.530601	-12.166306
1275.072683	-12.172219
1275.615226	-12.148951
1276.158230	-12.141395
1276.701697	-12.140276
1277.245627	-12.141667
1277.790021	-12.118570
1278.334879	-12.116312
1278.880202	-12.121164
1279.425991	-12.112642
1279.972245	-12.096135
1280.518966	-12.097124
1281.066155	-12.104786
1281.613811	-12.086938
1282.161936	-12.080193
1282.710529	-12.083210
1283.259593	-12.088806
1283.809126	-12.067772
1284.359131	-12.068930
1284.909607	-12.073806
1285.460555	-12.073361
1286.011976	-12.055625
1286.563870	-12.061444
1287.116237	-12.066088
1287.669080	-12.060757
1288.222397	-12.047720
1288.776191	-12.056684
1289.330460	-12.058821
1289.885207	-12.050602
1290.440431	-12.042296
1290.996133	-12.051871
1291.552314	-12.052191
1292.108975	-12.040226
1292.666115	-12.039037
1293.223737	-12.045152
1293.781839	-12.044464
1294.340424	-12.030154
1294.899491	-12.034343
1295.459041	-12.037576
1296.019075	-12.033892
1296.579593	-12.021022
1297.140597	-12.026943
1297.702086	-12.028105
1298.264061	-12.020590
1298.826524	-12.009838
1299.389474	-12.016474
1299.952912	-12.013313
1300.516839	-12.003869
1301.081255	-11.994041
1301.646162	-11.999828
1302.211559	-11.991737
1302.777448	-11.980346
1303.343829	-11.971608
1303.910702	-11.973648
1304.478069	-11.961933
1305.045930	-11.948153
1305.614285	-11.939936
1306.183136	-11.938004
1306.752483	-11.923109
1307.322326	-11.907711
1307.892666	-11.900062
1308.463504	-11.894304
1309.034841	-11.877395
1309.606677	-11.861538
1310.179012	-11.854667
1310.751849	-11.846104
1311.325186	-11.828351
1311.899025	-11.813310
1312.473366	-11.807797
1313.048211	-11.796869
1313.623559	-11.779403
1314.199412	-11.766204
1314.775770	-11.761268
1315.352634	-11.749014
1315.930004	-11.731976
1316.507881	-11.720559
1317.086266	-11.715389
1317.665159	-11.702201
1318.244562	-11.684534
1318.824474	-11.675205
1319.404897	-11.668203
1319.985831	-11.654997
1320.567276	-11.634740
1321.149234	-11.629292
1321.731706	-11.617686
1322.314691	-11.606953
1322.898190	-11.582818
1323.482205	-11.582692
1324.066736	-11.565760
1324.651783	-11.560030
1325.237347	-11.531192
1325.823430	-11.538730
1326.410031	-11.517181
1326.997151	-11.517253
1327.584791	-11.486525
1328.172952	-11.500908
1328.761634	-11.478165
1329.350839	-11.482498
1329.940566	-11.454442
1330.530817	-11.471487
1331.121592	-11.453428
1331.712891	-11.456662
1332.304716	-11.436794
1332.897068	-11.449933
1333.489946	-11.443093
1334.083352	-11.437806
1334.677287	-11.432338
1335.271750	-11.434212
1335.866744	-11.443207
1336.462268	-11.424829
1337.058323	-11.434770
1337.654910	-11.424440
1338.252029	-11.447226
1338.849682	-11.418481
1339.447869	-11.438783
1340.046591	-11.423213
1340.645848	-11.450967
1341.245641	-11.423402
1341.845972	-11.441598
1342.446840	-11.434276
1343.048246	-11.453713
1343.650191	-11.440974
1344.252677	-11.445297
1344.855702	-11.456316
1345.459269	-11.460487
1346.063379	-11.466789
1346.668030	-11.456211
1347.273226	-11.482735
1347.878965	-11.477608
1348.485250	-11.494775
1349.092080	-11.479716
1349.699456	-11.509748
1350.307380	-11.509069
1350.915851	-11.523357
1351.524871	-11.516854
1352.134441	-11.538270
1352.744560	-11.550970
1353.355231	-11.556256
1353.966453	-11.561145
1354.578227	-11.573513
1355.190555	-11.595626
1355.803436	-11.598463
1356.416872	-11.605374
1357.030863	-11.617086
1357.645411	-11.637998
1358.260515	-11.645420
1358.876177	-11.647633
1359.492397	-11.659972
1360.109176	-11.678859
1360.726516	-11.686561
1361.344416	-11.690314
1361.962877	-11.694583
1362.581901	-11.719084
1363.201487	-11.720112
1363.821637	-11.730447
1364.442352	-11.724852
1365.063632	-11.751560
1365.685478	-11.753876
1366.307891	-11.759820
1366.930871	-11.760293
1367.554420	-11.772322
1368.178538	-11.791966
1368.803226	-11.781156
1369.428485	-11.797424
1370.054315	-11.791567
1370.680717	-11.824398
1371.307693	-11.810135
1371.935242	-11.824138
1372.563366	-11.824575
1373.192065	-11.843492
1373.821341	-11.851641
1374.451193	-11.842282
1375.081623	-11.863731
1375.712632	-11.862019
1376.344221	-11.888914
1376.976389	-11.870558
1377.609139	-11.890218
1378.242470	-11.893956
1378.876384	-11.909130
1379.510881	-11.910060
1380.145963	-11.904693
1380.781629	-11.927731
1381.417881	-11.924000
1382.054720	-11.940103
1382.692147	-11.923150
1383.330161	-11.943394
1383.968765	-11.945657
1384.607959	-11.950804
1385.247743	-11.947070
1385.888119	-11.945119
1386.529087	-11.964090
1387.170648	-11.955542
1387.812804	-11.961943
1388.455554	-11.949586
1389.098899	-11.967371
1389.742842	-11.964977
1390.387381	-11.962813
1391.032519	-11.959099
1391.678256	-11.961038
1392.324592	-11.974488
1392.971529	-11.961803
1393.619068	-11.966968
1394.267208	-11.960145
1394.915952	-11.978747
1395.565300	-11.972985
1396.215253	-11.971611
1396.865812	-11.974418
1397.516977	-11.979102
1398.168749	-11.993143
1398.821130	-11.977928
1399.474120	-11.990826
1400.127719	-11.988481
1400.781930	-12.007169
1401.436752	-12.002695
1402.092186	-12.001065
1402.748234	-12.016109
1403.404897	-12.017187
1404.062174	-12.036436
1404.720067	-12.021221
1405.378577	-12.040624
1406.037705	-12.046765
1406.697451	-12.056588
1407.357817	-12.062804
1408.018803	-12.053439
1408.680410	-12.080219
1409.342639	-12.073956
1410.005492	-12.088400
1410.668968	-12.080888
1411.333068	-12.088658
1411.997795	-12.108786
1412.663147	-12.098737
1413.329127	-12.115348
1413.995736	-12.103313
1414.662973	-12.125944
1415.330840	-12.128990
1415.999339	-12.123374
1416.668469	-12.137909
1417.338232	-12.129691
1418.008628	-12.157906
1418.679659	-12.144923
1419.351325	-12.151162
1420.023628	-12.159334
1420.696568	-12.156986
1421.370145	-12.177330
1422.044362	-12.155662
1422.719219	-12.174313
1423.394717	-12.175852
1424.070856	-12.182868
1424.747638	-12.195386
1425.425064	-12.181057
1426.103134	-12.210064
1426.781850	-12.205233
1427.461212	-12.217076
1428.141221	-12.220056
1428.821878	-12.216500
1429.503185	-12.246683
1430.185141	-12.239107
1430.867749	-12.258465
1431.551008	-12.262718
1432.234920	-12.274264
1432.919486	-12.301330
1433.604707	-12.291037
1434.290583	-12.311158
1434.977116	-12.310877
1435.664307	-12.324276
1436.352156	-12.340438
1437.040664	-12.331821
1437.729833	-12.359580
1438.419663	-12.366143
1439.110156	-12.388367
1439.801312	-12.403681
1440.493132	-12.401623
1441.185617	-12.430039
1441.878768	-12.428221
1442.572586	-12.439818
1443.267072	-12.441719
1443.962228	-12.438845
1444.658053	-12.466050
1445.354549	-12.465842
1446.051717	-12.486293
1446.749558	-12.500918
1447.448073	-12.514432
1448.147263	-12.546204
1448.847128	-12.542399
1449.547671	-12.554153
1450.248891	-12.554570
1450.950789	-12.550593
1451.653368	-12.559740
1452.356627	-12.542480
1453.060568	-12.552839
1453.765192	-12.563190
1454.470500	-12.574798
1455.176492	-12.602015
1455.883170	-12.606928
1456.590534	-12.632974
1457.298586	-12.646573
1458.007327	-12.643439
1458.716758	-12.643559
1459.426880	-12.616870
1460.137693	-12.606738
1460.849199	-12.588903
1461.561398	-12.564645
1462.274293	-12.564980
1462.987883	-12.560618
1463.702170	-12.583682
1464.417155	-12.610408
1465.132838	-12.628857
1465.849222	-12.666995
1466.566306	-12.683539
1467.284093	-12.697425
1468.002582	-12.695325
1468.721775	-12.663422
1469.441674	-12.642930
1470.162278	-12.601969
1470.883590	-12.564226
1471.605609	-12.540700
1472.328338	-12.515699
1473.051777	-12.530890
1473.775928	-12.554926
1474.500790	-12.590896
1475.226367	-12.655361
1475.952657	-12.709153
1476.679663	-12.777122
1477.407386	-12.829526
1478.135826	-12.849718
1478.864985	-12.869455
1479.594863	-12.851199
1480.325463	-12.822126
1481.056784	-12.789409
1481.788828	-12.739463
1482.521597	-12.725788
1483.255090	-12.727895
1483.989309	-12.756522
1484.724256	-12.841288
1485.459931	-12.948193
1486.196336	-13.109003
1486.933471	-13.306074
1487.671337	-13.501563
1488.409937	-13.722605
1489.149270	-13.909887
1489.889337	-14.050992
1490.630141	-14.144068
1491.371682	-14.128832
1492.113961	-14.052981
1492.856979	-13.906676
1493.600738	-13.692259
1494.345238	-13.475806
1495.090481	-13.237642
1495.836467	-13.023394
1496.583198	-12.862609
1497.330675	-12.724566
1498.078899	-12.657465
1498.827872	-12.650415
1499.577593	-12.683344
1500.328065	-12.792072
1501.079289	-12.927741
1501.831265	-13.085712
1502.583995	-13.279047
1503.337480	-13.436993
1504.091721	-13.572906
1504.846719	-13.668211
1505.602475	-13.675608
1506.358991	-13.649666
1507.116268	-13.566644
1507.874306	-13.438582
1508.633108	-13.336975
1509.392673	-13.240233
1510.153004	-13.194143
1510.914101	-13.243251
1511.675965	-13.358801
1512.438599	-13.602208
1513.202002	-14.000388
1513.966176	-14.531551
1514.731122	-15.284067
1515.496842	-16.298129
1516.263336	-17.608082
1517.030607	-19.432912
1517.798654	-22.014564
1518.567479	-25.973648
1519.337083	-34.349668
1520.107468	-35.740744
1520.878634	-26.258222
1521.650584	-21.628428
1522.423317	-18.634527
1523.196836	-16.465463
1523.971141	-14.736971
1524.746233	-13.357412
1525.522115	-12.231419
1526.298786	-11.261530
1527.076249	-10.451675
1527.854504	-9.768854
1528.633553	-9.161758
1529.413397	-8.647140
1530.194037	-8.208240
1530.975474	-7.810731
1531.757709	-7.474285
1532.540745	-7.188155
1533.324581	-6.926409
1534.109220	-6.711335
1534.894662	-6.536692
1535.680909	-6.380286
1536.467961	-6.266206
1537.255821	-6.193176
1538.044489	-6.140894
1538.833967	-6.133337
1539.624256	-6.173206
1540.415357	-6.240693
1541.207271	-6.359774
1542.000000	-6.535784
1542.793545	-6.747247
1543.587907	-7.019625
1544.383087	-7.362408
1545.179088	-7.750947
1545.975909	-8.213272
1546.773552	-8.766046
1547.572019	-9.381494
1548.371311	-10.093214
1549.171428	-10.927688
1549.972373	-11.852885
1550.774147	-12.916366
1551.576751	-14.157890
1552.380185	-15.523158
1553.184453	-17.063738
1553.989554	-18.748958
1554.795490	-20.246543
1555.602263	-21.238830
1556.409873	-21.196758
1557.218322	-20.184317
1558.027612	-18.887783
1558.837743	-17.520880
1559.648717	-16.291453
1560.460536	-15.277138
1561.273200	-14.378691
1562.086710	-13.635812
1562.901069	-13.053299
1563.716278	-12.548027
1564.532337	-12.153314
1565.349249	-11.876048
1566.167014	-11.649762
1566.985634	-11.507140
1567.805111	-11.457586
1568.625444	-11.441676
1569.446637	-11.492960
1570.268690	-11.621526
1571.091605	-11.767514
1571.915382	-11.965403
1572.740024	-12.225455
1573.565532	-12.483596
1574.391907	-12.775320
1575.219150	-13.108685
1576.047262	-13.413360
1576.876246	-13.728266
1577.706103	-14.057365
1578.536833	-14.324604
1579.368439	-14.576530
1580.200922	-14.816437
1581.034282	-14.970030
1581.868522	-15.096258
1582.703643	-15.200316
1583.539646	-15.217962
1584.376532	-15.219646
1585.214304	-15.210229
1586.052962	-15.134372
1586.892508	-15.063866
1587.732943	-15.001722
1588.574269	-14.896040
1589.416487	-14.809421
1590.259599	-14.742603
1591.103605	-14.643408
1591.948508	-14.564251
1592.794309	-14.506678
1593.641009	-14.416853
1594.488609	-14.339050
1595.337112	-14.281702
1596.186518	-14.191986
1597.036829	-14.105791
1597.888047	-14.040660
1598.740172	-13.947217
1599.593207	-13.854113
1600.447153	-13.787573
1601.302010	-13.701236
1602.157782	-13.615043
1603.014469	-13.562608
1603.872072	-13.501468
1604.730593	-13.439980
1605.590034	-13.415985
1606.450397	-13.393246
1607.311681	-13.369109
1608.173890	-13.384017
1609.037024	-13.408202
1609.901085	-13.428064
1610.766075	-13.484954
1611.631995	-13.556594
1612.498846	-13.618309
1613.366630	-13.709279
1614.235349	-13.817716
1615.105004	-13.910015
1615.975596	-14.020562
1616.847128	-14.148712
1617.719600	-14.254462
1618.593014	-14.364732
1619.467372	-14.491195
1620.342675	-14.591324
1621.218924	-14.682368
1622.096122	-14.790115
1622.974270	-14.875913
1623.853369	-14.945223
1624.733420	-15.034284
1625.614427	-15.112905
1626.496389	-15.173359
1627.379308	-15.256940
1628.263187	-15.344650
1629.148026	-15.415956
1630.033828	-15.510860
1630.920593	-15.622664
1631.808324	-15.718421
1632.697022	-15.829793
1633.586688	-15.963094
1634.477324	-16.078174
1635.368932	-16.194466
1636.261514	-16.331110
1637.155070	-16.448922
1638.049602	-16.553007
1638.945113	-16.672189
1639.841603	-16.773760
1640.739075	-16.848939
1641.637529	-16.933765
1642.536968	-17.008786
1643.437393	-17.054255
1644.338806	-17.106224
1645.241209	-17.161395
1646.144602	-17.192068
1647.048988	-17.225848
1647.954368	-17.271567
1648.860744	-17.297386
1649.768118	-17.319448
1650.676491	-17.356991
1651.585865	-17.378885
1652.496241	-17.387135
1653.407621	-17.407858
1654.320008	-17.416708
1655.233401	-17.402087
1656.147804	-17.392616
1657.063218	-17.377328
1657.979645	-17.336485
1658.897085	-17.296619
1659.815542	-17.261598
1660.735016	-17.206708
1661.655509	-17.149210
1662.577023	-17.104647
1663.499560	-17.047706
1664.423121	-16.980855
1665.347709	-16.926919
1666.273324	-16.868440
1667.199969	-16.794840
1668.127645	-16.729021
1669.056353	-16.665161
1669.986097	-16.584276
1670.916877	-16.503659
1671.848695	-16.430411
1672.781553	-16.344442
1673.715452	-16.253427
1674.650395	-16.174201
1675.586383	-16.091387
1676.523418	-16.000571
1677.461501	-15.920439
1678.400635	-15.843849
1679.340821	-15.756970
1680.282061	-15.674343
1681.224357	-15.599600
1682.167710	-15.516042
1683.112122	-15.430603
1684.057595	-15.355399
1685.004132	-15.276869
1685.951732	-15.192197
1686.900400	-15.117121
1687.850135	-15.045574
1688.800940	-14.966074
1689.752818	-14.891826
1690.705768	-14.826392
1691.659795	-14.754657
1692.614898	-14.681585
1693.571081	-14.619086
1694.528345	-14.555600
1695.486691	-14.486002
1696.446122	-14.424579
1697.406640	-14.368386
1698.368245	-14.305231
1699.330941	-14.244801
1700.294729	-14.193895
1701.259611	-14.139428
1702.225588	-14.081940
1703.192664	-14.034040
1704.160838	-13.988340
1705.130114	-13.936016
1706.100493	-13.888575
1707.071977	-13.848072
1708.044568	-13.802006
1709.018268	-13.754909
1709.993079	-13.716601
1710.969003	-13.677883
1711.946041	-13.634235
1712.924196	-13.596489
1713.903469	-13.563124
1714.883862	-13.524558
1715.865378	-13.486926
1716.848017	-13.456545
1717.831783	-13.424417
1718.816677	-13.388824
1719.802701	-13.359340
1720.789857	-13.332531
1721.778147	-13.300229
1722.767573	-13.269847
1723.758136	-13.245592
1724.749840	-13.218486
1725.742685	-13.189148
1726.736673	-13.165317
1727.731808	-13.142459
1728.728090	-13.115106
1729.725521	-13.089755
1730.724105	-13.068917
1731.723842	-13.045476
1732.724735	-13.020660
1733.726785	-13.000882
1734.729995	-12.981310
1735.734366	-12.957938
1736.739902	-12.937220
1737.746603	-12.919846
1738.754472	-12.899915
1739.763510	-12.879680
1740.773721	-12.863920
1741.785105	-12.848168
1742.797665	-12.829424
1743.811403	-12.813437
1744.826321	-12.800332
1745.842422	-12.784631
1746.859706	-12.769098
1747.878177	-12.757693
1748.897835	-12.746061
1749.918685	-12.731834
1750.940726	-12.720004
1751.963963	-12.710909
1752.988395	-12.699803
1754.014027	-12.688745
1755.040860	-12.681097
1756.068895	-12.672764
1757.098135	-12.661934
1758.128583	-12.653150
1759.160240	-12.646835
1760.193109	-12.639076
1761.227191	-12.631185
1762.262488	-12.625978
1763.299004	-12.620225
1764.336740	-12.612031
1765.375697	-12.605098
1766.415880	-12.599961
1767.457288	-12.593499
1768.499926	-12.586956
1769.543794	-12.582762
1770.588895	-12.578754
1771.635231	-12.573023
1772.682805	-12.567935
1773.731619	-12.563913
1774.781674	-12.558563
1775.832973	-12.552951
1776.885519	-12.549019
1777.939312	-12.545273
1778.994357	-12.540642
1780.050654	-12.536917
1781.108207	-12.534431
1782.167017	-12.531113
1783.227087	-12.527645
1784.288418	-12.525363
1785.351013	-12.522833
1786.414875	-12.519393
1787.480006	-12.517019
1788.546407	-12.516330
1789.614082	-12.515672
1790.683032	-12.515514
1791.753259	-12.517032
1792.824767	-12.518674
1793.897557	-12.519121
1794.971632	-12.519838
1796.046994	-12.521336
1797.123645	-12.522341
1798.201588	-12.523327
1799.280824	-12.525870
1800.361357	-12.529045
1801.443188	-12.531409
1802.526320	-12.534063
1803.610756	-12.537423
1804.696497	-12.540344
1805.783546	-12.542612
1806.871906	-12.545727
1807.961578	-12.549253
1809.052565	-12.552608
1810.144870	-12.556540
1811.238494	-12.562177
1812.333441	-12.567944
1813.429713	-12.573519
1814.527311	-12.579405
1815.626239	-12.585838
1816.726499	-12.591612
1817.828094	-12.597634
1818.931025	-12.605015
1820.035295	-12.613152
1821.140906	-12.621763
1822.247862	-12.631123
1823.356165	-12.641549
1824.465816	-12.651434
1825.576819	-12.660801
1826.689175	-12.670123
1827.802888	-12.679461
1828.917960	-12.688995
1830.034394	-12.699559
1831.152191	-12.711641
1832.271354	-12.723978
1833.391887	-12.736585
1834.513790	-12.749091
1835.637068	-12.761062
1836.761722	-12.772486
1837.887755	-12.784586
1839.015169	-12.797879
1840.143968	-12.811587
1841.274153	-12.825631
1842.405727	-12.839922
1843.538693	-12.854109
1844.673053	-12.867875
1845.808810	-12.881937
1846.945966	-12.896377
1848.084525	-12.910279
1849.224488	-12.923738
1850.365858	-12.938176
1851.508638	-12.953717
1852.652831	-12.969213
1853.798438	-12.984771
1854.945463	-13.000726
1856.093909	-13.016740
1857.243777	-13.032752
1858.395071	-13.049932
1859.547794	-13.068082
1860.701947	-13.086490
1861.857533	-13.105255
1863.014556	-13.124835
1864.173018	-13.144451
1865.332922	-13.163855
1866.494270	-13.184030
1867.657065	-13.204826
1868.821309	-13.225567
1869.987006	-13.246604
1871.154158	-13.268467
1872.322768	-13.290763
1873.492839	-13.313247
1874.664373	-13.335724
1875.837373	-13.358408
1877.011841	-13.381403
1878.187782	-13.404293
1879.365197	-13.427188
1880.544089	-13.450795
1881.724460	-13.474520
1882.906315	-13.497675
1884.089655	-13.521146
1885.274483	-13.544966
1886.460803	-13.568370
1887.648616	-13.591823
1888.837927	-13.615311
1890.028736	-13.637774
1891.221049	-13.660392
1892.414866	-13.684159
1893.610192	-13.707323
1894.807028	-13.729371
1896.005379	-13.751743
1897.205246	-13.773494
1898.406633	-13.794412
1899.609542	-13.816740
1900.813977	-13.840384
1902.019940	-13.863107
1903.227434	-13.885440
1904.436462	-13.907825
1905.647028	-13.929528
1906.859133	-13.951551
1908.072781	-13.975319
1909.287976	-13.999468
1910.504719	-14.023065
1911.723013	-14.047409
1912.942863	-14.072625
1914.164270	-14.097636
1915.387238	-14.122727
1916.611770	-14.148532
1917.837868	-14.174707
1919.065536	-14.200929
1920.294777	-14.227227
1921.525594	-14.253778
1922.757989	-14.279909
1923.991967	-14.305301
1925.227529	-14.330771
1926.464679	-14.356387
1927.703420	-14.381636
1928.943755	-14.406548
1930.185688	-14.431205
1931.429221	-14.455406
1932.674356	-14.479082
1933.921099	-14.502529
1935.169451	-14.525803
1936.419415	-14.548681
1937.670996	-14.571482
1938.924195	-14.594147
1940.179017	-14.615620
1941.435463	-14.635079
1942.693538	-14.653017
1943.953245	-14.670450
1945.214586	-14.688053
1946.477566	-14.704926
1947.742186	-14.719919
1949.008451	-14.733065
1950.276363	-14.745587
1951.545926	-14.758425
1952.817143	-14.771545
1954.090017	-14.784299
1955.364551	-14.796799
1956.640749	-14.808961
1957.918615	-14.820708
1959.198150	-14.831869
1960.479359	-14.842706
1961.762244	-14.853471
1963.046810	-14.864158
1964.333059	-14.874141
1965.620995	-14.883175
1966.910621	-14.891344
1968.201940	-14.899169
1969.494956	-14.907224
1970.789672	-14.915836
1972.086091	-14.924232
1973.384217	-14.931836
1974.684053	-14.938687
1975.985602	-14.944432
1977.288869	-14.949422
1978.593855	-14.954075
1979.900566	-14.958801
1981.209003	-14.962935
1982.519171	-14.966039
1983.831073	-14.967895
1985.144712	-14.968649
1986.460093	-14.968385
1987.777217	-14.967757
1989.096089	-14.966409
1990.416713	-14.962731
1991.739092	-14.956168
1993.063228	-14.947416
1994.389127	-14.937310
1995.716791	-14.925755
1997.046223	-14.912704
1998.377428	-14.897502
1999.710409	-14.880140
2001.045169	-14.861541
2002.381713	-14.842991
2003.720043	-14.824672
2005.060163	-14.805949
2006.402077	-14.787334
2007.745788	-14.769024
2009.091301	-14.750280
2010.438618	-14.730581
2011.787743	-14.710773
2013.138680	-14.691278
2014.491433	-14.672660
2015.846005	-14.653622
2017.202399	-14.633676
2018.560621	-14.613460
2019.920673	-14.594647
2021.282558	-14.577342
2022.646281	-14.559974
2024.011846	-14.541607
2025.379256	-14.522973
2026.748515	-14.505709
2028.119626	-14.489433
2029.492594	-14.472754
2030.867422	-14.454989
2032.244114	-14.436062
2033.622673	-14.416731
2035.003104	-14.396896
2036.385411	-14.375016
2037.769597	-14.349978
2039.155665	-14.322284
2040.543621	-14.292190
2041.933467	-14.259892
2043.325208	-14.224918
2044.718847	-14.187148
2046.114389	-14.146227
2047.511837	-14.101248
2048.911195	-14.053529
2050.312467	-14.004926
2051.715657	-13.956881
2053.120769	-13.910183
2054.527807	-13.865514
2055.936775	-13.823446
2057.347677	-13.785590
2058.760516	-13.754345
2060.175297	-13.730340
2061.592025	-13.712503
2063.010701	-13.699401
2064.431332	-13.690670
2065.853921	-13.687214
2067.278472	-13.688353
2068.704988	-13.691628
2070.133475	-13.694599
2071.563936	-13.696802
2072.996375	-13.698110
2074.430796	-13.696863
2075.867204	-13.691702
2077.305603	-13.682565
2078.745996	-13.670919
2080.188389	-13.655747
2081.632784	-13.635573
2083.079187	-13.611131
2084.527601	-13.584131
2085.978030	-13.554923
2087.430480	-13.521411
2088.884954	-13.483022
2090.341455	-13.442797
2091.799990	-13.403751
2093.260561	-13.365856
2094.723173	-13.327088
2096.187831	-13.287174
2097.654538	-13.248669
2099.123300	-13.212987
2100.594119	-13.179955
2102.067001	-13.148895
2103.541950	-13.120364
2105.018971	-13.095125
2106.498067	-13.073448
2107.979243	-13.055260
2109.462503	-13.040195
2110.947853	-13.027407
2112.435295	-13.016069
2113.924836	-13.006316
2115.416478	-12.998425
2116.910227	-12.992265
2118.406087	-12.986244
2119.904063	-12.978684
2121.404158	-12.969493
2122.906378	-12.959619
2124.410727	-12.949192
2125.917210	-12.937225
2127.425831	-12.922958
2128.936594	-12.907948
2130.449505	-12.894115
2131.964567	-12.880884
2133.481786	-12.866833
2135.001166	-12.853613
2136.522711	-12.843951
2138.046427	-12.837324
2139.572317	-12.831990
2141.100388	-12.827990
2142.630642	-12.825974
2144.163085	-12.824584
2145.697722	-12.822375
2147.234558	-12.819731
2148.773596	-12.816908
2150.314842	-12.813150
2151.858301	-12.807602
2153.403977	-12.799945
2154.951875	-12.790739
2156.502000	-12.781608
2158.054357	-12.772485
2159.608950	-12.762769
2161.165785	-12.752856
2162.724866	-12.743528
2164.286198	-12.735737
2165.849786	-12.729717
2167.415635	-12.724646
2168.983749	-12.720298
2170.554134	-12.718755
2172.126795	-12.720870
2173.701737	-12.724821
2175.278964	-12.729705
2176.858481	-12.736313
2178.440294	-12.745735
2180.024408	-12.756904
2181.610827	-12.767910
2183.199557	-12.779154
2184.790602	-12.792144
2186.383968	-12.807161
2187.979660	-12.822555
2189.577683	-12.837149
2191.178041	-12.850814
2192.780741	-12.864063
2194.385787	-12.877596
2195.993185	-12.890519
2197.602939	-12.901471
2199.215054	-12.912051
2200.829537	-12.923773
2202.446392	-12.935131
2204.065624	-12.944600
2205.687239	-12.953579
2207.311242	-12.963556
2208.937638	-12.973296
2210.566433	-12.982481
2212.197631	-12.992357
2213.831239	-13.002618
2215.467261	-13.013555
2217.105703	-13.027234
2218.746570	-13.042662
2220.389867	-13.058374
2222.035601	-13.075476
2223.683776	-13.096576
2225.334398	-13.121744
2226.987472	-13.148147
2228.643004	-13.175182
2230.300999	-13.205947
2231.961463	-13.240036
2233.624402	-13.273660
2235.289820	-13.307033
2236.957723	-13.342697
2238.628118	-13.380487
2240.301009	-13.417732
2241.976402	-13.454187
2243.654303	-13.491369
2245.334717	-13.528509
2247.017650	-13.565313
2248.703108	-13.602570
2250.391096	-13.640177
2252.081620	-13.676817
2253.774686	-13.712907
2255.470300	-13.748766
2257.168467	-13.783489
2258.869193	-13.817220
2260.572484	-13.852487
2262.278345	-13.888256
2263.986783	-13.921970
2265.697804	-13.955398
2267.411412	-13.992065
2269.127615	-14.029951
2270.846417	-14.066499
2272.567826	-14.105555
2274.291846	-14.148507
2276.018484	-14.192273
2277.747745	-14.238543
2279.479637	-14.289930
2281.214164	-14.345147
2282.951333	-14.403131
2284.691149	-14.465132
2286.433619	-14.529848
2288.178750	-14.595798
2289.926546	-14.664514
2291.677014	-14.735235
2293.430161	-14.804505
2295.185992	-14.873942
2296.944513	-14.945149
2298.705732	-15.015611
2300.469653	-15.085750
2302.236283	-15.157773
2304.005629	-15.229036
2305.777696	-15.298262
2307.552492	-15.368191
2309.330022	-15.437966
2311.110292	-15.505813
2312.893310	-15.573424
2314.679080	-15.641333
2316.467611	-15.707951
2318.258907	-15.774297
2320.052976	-15.841631
2321.849824	-15.908424
2323.649457	-15.975946
2325.451883	-16.046324
2327.257106	-16.117185
2329.065135	-16.190412
2330.875975	-16.268824
2332.689633	-16.350738
2334.506116	-16.434470
2336.325430	-16.522760
2338.147581	-16.618769
2339.972578	-16.718402
2341.800425	-16.821744
2343.631130	-16.930504
2345.464700	-17.040556
2347.301141	-17.151337
2349.140461	-17.265286
2350.982665	-17.378466
2352.827760	-17.490418
2354.675754	-17.603276
2356.526653	-17.714230
2358.380464	-17.826472
2360.237195	-17.940364
2362.096851	-18.050470
2363.959440	-18.159209
2365.824968	-18.270249
2367.693444	-18.380396
2369.564873	-18.487021
2371.439263	-18.592995
2373.316620	-18.696740
2375.196953	-18.799372
2377.080267	-18.904975
2378.966570	-19.006399
2380.855869	-19.107642
2382.748171	-19.215351
2384.643484	-19.321247
2386.541815	-19.429888
2388.443170	-19.546060
2390.347557	-19.664138
2392.254984	-19.789154
2394.165457	-19.924031
2396.078984	-20.064610
2397.995572	-20.210574
2399.915229	-20.361282
2401.837961	-20.517692
2403.763777	-20.679238
2405.692684	-20.838412
2407.624689	-20.999131
2409.559800	-21.162693
2411.498023	-21.320209
2413.439368	-21.474089
2415.383840	-21.633115
2417.331449	-21.789563
2419.282201	-21.940948
2421.236104	-22.098283
2423.193165	-22.253457
2425.153393	-22.400487
2427.116795	-22.545114
2429.083378	-22.690544
2431.053151	-22.829984
2433.026121	-22.959227
2435.002297	-23.092314
2436.981685	-23.229318
2438.964293	-23.354756
2440.950131	-23.482012
2442.939204	-23.620266
2444.931522	-23.759711
2446.927092	-23.898091
2448.925923	-24.044951
2450.928022	-24.205692
2452.933397	-24.376750
2454.942056	-24.556653
2456.954008	-24.750478
2458.969260	-24.953684
2460.987821	-25.161956
2463.009699	-25.373983
2465.034902	-25.583245
2467.063437	-25.794376
2469.095315	-26.002687
2471.130542	-26.203886
2473.169127	-26.400284
2475.211078	-26.590489
2477.256404	-26.782719
2479.305112	-26.976813
2481.357212	-27.160717
2483.412713	-27.343888
2485.471621	-27.522793
2487.533946	-27.692348
2489.599696	-27.853235
2491.668880	-27.998772
2493.741507	-28.145766
2495.817585	-28.275418
2497.897122	-28.402441
2499.980127	-28.540871
2502.066609	-28.665226
2504.156578	-28.802194
2506.250040	-28.941855
2508.347006	-29.089573
2510.447483	-29.265122
2512.551482	-29.452997
2514.659010	-29.672012
2516.770076	-29.901606
2518.884690	-30.147116
2521.002861	-30.425910
2523.124597	-30.691120
2525.249907	-30.964492
2527.378801	-31.223625
2529.511287	-31.484382
2531.647375	-31.739442
2533.787074	-31.962808
2535.930393	-32.209790
2538.077340	-32.429881
2540.227927	-32.648672
2542.382160	-32.864443
2544.540051	-33.088456
2546.701608	-33.277092
2548.866840	-33.442213
2551.035757	-33.602397
2553.208369	-33.724642
2555.384684	-33.827598
2557.564713	-33.912071
2559.748465	-34.000690
2561.935948	-34.082393
2564.127174	-34.154210
2566.322152	-34.229361
2568.520890	-34.324574
2570.723399	-34.463575
2572.929689	-34.602787
2575.139769	-34.794246
2577.353649	-35.056049
2579.571340	-35.334685
2581.792849	-35.619704
2584.018189	-35.968850
2586.247368	-36.383854
2588.480396	-36.695937
2590.717284	-37.016864
2592.958041	-37.418867
2595.202678	-37.776686
2597.451204	-38.021487
2599.703630	-38.375703
2601.959966	-38.718401
2604.220222	-39.025147
2606.484408	-39.358885
2608.752535	-39.583745
2611.024612	-39.779943
2613.300651	-40.030105
2615.580661	-40.134457
2617.864653	-39.989697
2620.152638	-40.026650
2622.444625	-40.093886
2624.740626	-39.961623
2627.040651	-39.855220
2629.344710	-39.746194
2631.652814	-39.677542
2633.964974	-39.719039
2636.281200	-39.738283
2638.601504	-39.718870
2640.925896	-39.935267
2643.254386	-40.191854
2645.586987	-40.460183
2647.923707	-40.823872
2650.264559	-41.193989
2652.609554	-41.534509
2654.958702	-42.024257
2657.312015	-42.538113
2659.669503	-42.906320
2662.031178	-43.406333
2664.397051	-43.894727
2666.767132	-44.443954
2669.141434	-45.272673
2671.519968	-45.700691
2673.902745	-46.521232
2676.289776	-47.233004
2678.681072	-47.629240
2681.076646	-47.932247
2683.476508	-47.916881
2685.880671	-48.098832
2688.289145	-47.365917
2690.701942	-47.367893
2693.119075	-46.854258
2695.540554	-46.375764
2697.966391	-45.849336
2700.396599	-45.574931
2702.831189	-45.270639
2705.270172	-45.023032
2707.713561	-45.076126
2710.161368	-45.159202
2712.613605	-45.178254
2715.070283	-45.365098
2717.531416	-45.697008
2719.997014	-45.861531
2722.467090	-46.061160
2724.941657	-46.396880
2727.420726	-46.662381
2729.904310	-46.983100
2732.392421	-47.327843
2734.885072	-47.989455
2737.382275	-48.549346
2739.884042	-49.638907
2742.390387	-50.257855
2744.901321	-51.868832
2747.416857	-52.723395
2749.937008	-54.492971
2752.461787	-55.246522
2754.991206	-57.536610
2757.525279	-57.998546
2760.064017	-58.510631
2762.607434	-57.157241
2765.155544	-56.314938
2767.708358	-54.357905
2770.265890	-53.903979
2772.828153	-52.705578
2775.395160	-52.749892
2777.966924	-51.903419
2780.543459	-52.358263
2783.124778	-51.640880
2785.710894	-51.980231
2788.301821	-51.590511
2790.897572	-51.719805
2793.498160	-51.192202
2796.103599	-51.193485
2798.713903	-50.965995
2801.329085	-50.770457
2803.949159	-50.998308
2806.574139	-50.908267
2809.204038	-51.717081
2811.838871	-51.636520
2814.478650	-52.802885
2817.123391	-53.040288
2819.773107	-54.224733
2822.427812	-54.812087
2825.087521	-56.212154
2827.752247	-57.718905
2830.422005	-59.241017
2833.096808	-62.037022
2835.776672	-62.719042
2838.461611	-65.232475
2841.151638	-62.938088
2843.846769	-63.712025
2846.547019	-62.139619
2849.252401	-63.466738
2851.962930	-62.313757
2854.678621	-64.157092
2857.399489	-63.472684
2860.125549	-64.727043
2862.856815	-62.692872
2865.593302	-61.425196
2868.335026	-60.085315
2871.082002	-58.286322
2873.834244	-58.227741
2876.591767	-56.950515
2879.354588	-57.309300
2882.122721	-56.488844
2884.896181	-56.645895
2887.674984	-56.597328
2890.459146	-56.219945
2893.248681	-56.923393
2896.043606	-56.713082
2898.843937	-57.863854
2901.649687	-58.437813
2904.460875	-59.663240
2907.277515	-62.156264
2910.099623	-62.384015
2912.927215	-64.704980
2915.760308	-63.650689
2918.598916	-64.490195
2921.443057	-62.549127
2924.292747	-63.381828
2927.148002	-62.763540
2930.008837	-62.594576
2932.875270	-63.924472
2935.747318	-63.459589
2938.624995	-67.402455
2941.508320	-67.616045
2944.397308	-71.881541
2947.291977	-76.609010
2950.192343	-83.387929
2953.098423	-73.621320
2956.010234	-73.233106
2958.927792	-68.668216
2961.851116	-67.105943
2964.780221	-65.266579
2967.715126	-63.279380
2970.655847	-63.137612
2973.602402	-61.644593
2976.554808	-61.947646
2979.513083	-62.880490
2982.477243	-62.751097
2985.447308	-65.743551
2988.423293	-65.397262
2991.405218	-68.796926
2994.393099	-69.194602
2997.386955	-71.772934
