# 2022-03-22_01.44.48
# shape = sech2
# FWHM_ps = 0.1
# carrier_nm = 1542
# frep_MHz = 12126
# pow_mW = 8000
# GDD = 0.0
# propa_len = 0.15311111111111111
# untap_len = 0.01
# taper_len = 0.09311111111111112
# waist_len = 0.02
# uptap_len = 0.02
# untap_scale = 1.0
# waist_scale = 0.2894736842105263
# workingDir = NL_20110305_12 (Spirou)
# axis = slow
# window_ps = 10.0
# steps = 200
# points = 21700
# 
# wavelength [nm]	 power spectral density [dB]
600.043425	-109.599405
600.163550	-109.061364
600.283723	-108.533448
600.403943	-108.015225
600.524212	-107.509685
600.644529	-107.027463
600.764895	-106.577396
600.885308	-106.161581
601.005770	-105.779729
601.126280	-105.428348
601.246839	-105.099353
601.367446	-104.779883
601.488101	-104.457893
601.608804	-104.123424
601.729557	-103.767685
601.850357	-103.386432
601.971206	-102.981680
602.092104	-102.561209
602.213050	-102.135147
602.334045	-101.714281
602.455089	-101.314530
602.576181	-100.945202
602.697322	-100.616047
602.818511	-100.335097
602.939749	-100.107783
603.061036	-99.933943
603.182372	-99.813511
603.303757	-99.742939
603.425191	-99.714268
603.546673	-99.719547
603.668204	-99.745285
603.789785	-99.776390
603.911414	-99.796538
604.033092	-99.790217
604.154820	-99.741692
604.276596	-99.643557
604.398422	-99.494842
604.520297	-99.301711
604.642220	-99.074960
604.764193	-98.831282
604.886216	-98.584946
605.008287	-98.349513
605.130408	-98.136084
605.252578	-97.952004
605.374798	-97.802603
605.497066	-97.688607
605.619385	-97.610413
605.741752	-97.564268
605.864169	-97.547245
605.986636	-97.554618
606.109152	-97.579635
606.231718	-97.619102
606.354333	-97.669622
606.476998	-97.727630
606.599712	-97.793169
606.722476	-97.867004
606.845290	-97.952113
606.968154	-98.052840
607.091067	-98.175185
607.214030	-98.324842
607.337043	-98.506221
607.460106	-98.723757
607.583219	-98.981185
607.706381	-99.278381
607.829594	-99.615128
607.952856	-99.985430
608.076169	-100.382406
608.199531	-100.793552
608.322944	-101.204428
608.446407	-101.596204
608.569920	-101.951992
608.693483	-102.255989
608.817096	-102.499697
608.940759	-102.683357
609.064473	-102.813317
609.188237	-102.905109
609.312051	-102.976295
609.435916	-103.042000
609.559831	-103.119329
609.683796	-103.217108
609.807812	-103.339306
609.931878	-103.484252
610.055995	-103.648840
610.180162	-103.822761
610.304380	-103.989811
610.428648	-104.135751
610.552967	-104.241957
610.677337	-104.294999
610.801757	-104.281600
610.926228	-104.192294
611.050750	-104.026409
611.175323	-103.786584
611.299946	-103.477143
611.424620	-103.106613
611.549345	-102.683085
611.674121	-102.214320
611.798948	-101.711032
611.923826	-101.183585
612.048755	-100.639543
612.173734	-100.091913
612.298765	-99.549680
612.423847	-99.021695
612.548980	-98.515464
612.674165	-98.037006
612.799400	-97.589173
612.924687	-97.171432
613.050025	-96.784816
613.175414	-96.424520
613.300854	-96.085606
613.426346	-95.763733
613.551889	-95.450711
613.677484	-95.140448
613.803130	-94.825659
613.928827	-94.501510
614.054576	-94.164016
614.180377	-93.811816
614.306229	-93.445748
614.432132	-93.069898
614.558087	-92.687919
614.684094	-92.306018
614.810153	-91.931110
614.936263	-91.569348
615.062425	-91.227107
615.188639	-90.910186
615.314904	-90.622465
615.441222	-90.366892
615.567591	-90.145437
615.694012	-89.958537
615.820486	-89.805544
615.947011	-89.685277
616.073588	-89.595252
616.200217	-89.532339
616.326898	-89.493117
616.453632	-89.473089
616.580417	-89.468478
616.707255	-89.474515
616.834144	-89.487771
616.961086	-89.504321
617.088081	-89.521991
617.215127	-89.539009
617.342226	-89.554309
617.469378	-89.568301
617.596581	-89.581129
617.723837	-89.594032
617.851146	-89.608012
617.978507	-89.623686
618.105920	-89.641945
618.233386	-89.662758
618.360905	-89.684725
618.488476	-89.706729
618.616100	-89.725505
618.743777	-89.737670
618.871506	-89.738614
618.999288	-89.723589
619.127123	-89.688414
619.255011	-89.628695
619.382951	-89.542833
619.510945	-89.430093
619.638991	-89.291711
619.767090	-89.131386
619.895243	-88.953272
620.023448	-88.763282
620.151706	-88.567138
620.280017	-88.369907
620.408382	-88.176160
620.536799	-87.988390
620.665270	-87.808119
620.793794	-87.635425
620.922371	-87.469082
621.051002	-87.307051
621.179686	-87.146965
621.308423	-86.985641
621.437213	-86.820479
621.566057	-86.649540
621.694954	-86.471367
621.823905	-86.285608
621.952909	-86.093247
622.081967	-85.895804
622.211079	-85.695370
622.340244	-85.495068
622.469462	-85.297418
622.598735	-85.105898
622.728061	-84.923831
622.857441	-84.754257
622.986874	-84.600415
623.116361	-84.464939
623.245903	-84.350113
623.375498	-84.257701
623.505147	-84.188708
623.634850	-84.144302
623.764606	-84.124595
623.894417	-84.129846
624.024282	-84.159818
624.154201	-84.213700
624.284174	-84.290490
624.414202	-84.389197
624.544283	-84.508528
624.674419	-84.647696
624.804609	-84.805974
624.934853	-84.982767
625.065151	-85.177867
625.195504	-85.391062
625.325911	-85.622513
625.456373	-85.872709
625.586889	-86.142939
625.717460	-86.434286
625.848085	-86.748403
625.978764	-87.087311
626.109498	-87.453565
626.240287	-87.850118
626.371131	-88.280094
626.502029	-88.746866
626.632982	-89.253271
626.763989	-89.801344
626.895052	-90.391855
627.026169	-91.022155
627.157341	-91.686540
627.288568	-92.371526
627.419850	-93.055014
627.551187	-93.702520
627.682579	-94.264548
627.814026	-94.681180
627.945528	-94.899423
628.077085	-94.886992
628.208697	-94.651713
628.340364	-94.235611
628.472087	-93.695166
628.603865	-93.088810
628.735698	-92.459763
628.867586	-91.839286
628.999530	-91.247197
629.131529	-90.693540
629.263584	-90.183798
629.395694	-89.720149
629.527859	-89.301969
629.660080	-88.928050
629.792357	-88.596304
629.924689	-88.304266
630.057077	-88.049469
630.189520	-87.829142
630.322019	-87.641387
630.454574	-87.484577
630.587184	-87.357604
630.719851	-87.260199
630.852573	-87.191701
630.985351	-87.153003
631.118185	-87.143944
631.251075	-87.165761
631.384021	-87.219364
631.517023	-87.307029
631.650081	-87.431648
631.783195	-87.596535
631.916365	-87.806020
632.049592	-88.064283
632.182874	-88.375863
632.316213	-88.745503
632.449608	-89.177575
632.583059	-89.675213
632.716567	-90.238562
632.850131	-90.859896
632.983751	-91.518911
633.117428	-92.171221
633.251161	-92.736542
633.384951	-93.096739
633.518797	-93.126341
633.652700	-92.757984
633.786660	-92.029147
633.920676	-91.056713
634.054749	-89.964341
634.188879	-88.844018
634.323065	-87.749060
634.457308	-86.707011
634.591608	-85.728868
634.725965	-84.816557
634.860379	-83.968793
634.994850	-83.181187
635.129377	-82.449920
635.263962	-81.770216
635.398604	-81.138252
635.533303	-80.550536
635.668058	-80.003959
635.802872	-79.495989
635.937742	-79.024382
636.072669	-78.587509
636.207654	-78.183664
636.342696	-77.811347
636.477796	-77.469467
636.612953	-77.156796
636.748167	-76.872419
636.883439	-76.615237
637.018768	-76.384561
637.154155	-76.179673
637.289599	-75.999887
637.425101	-75.844722
637.560660	-75.713970
637.696277	-75.607320
637.831952	-75.524609
637.967685	-75.465867
638.103475	-75.430979
638.239324	-75.419910
638.375230	-75.432737
638.511194	-75.469470
638.647215	-75.530425
638.783295	-75.615849
638.919433	-75.726345
639.055629	-75.862453
639.191883	-76.024839
639.328195	-76.214309
639.464565	-76.431708
639.600994	-76.678103
639.737481	-76.954600
639.874025	-77.262255
640.010629	-77.602269
640.147290	-77.975578
640.284010	-78.383420
640.420789	-78.826786
640.557625	-79.307028
640.694521	-79.825273
640.831474	-80.382152
640.968487	-80.977634
641.105558	-81.609872
641.242687	-82.274705
641.379876	-82.964255
641.517123	-83.664694
641.654429	-84.354614
641.791793	-85.002246
641.929216	-85.565275
642.066699	-85.994670
642.204240	-86.245199
642.341840	-86.290636
642.479499	-86.134408
642.617217	-85.808874
642.754994	-85.362579
642.892830	-84.845258
643.030726	-84.298383
643.168680	-83.752260
643.306694	-83.226827
643.444767	-82.734032
643.582899	-82.280656
643.721091	-81.870008
643.859342	-81.503414
643.997652	-81.181175
644.136022	-80.903014
644.274451	-80.668550
644.412940	-80.476810
644.551488	-80.326844
644.690096	-80.217314
644.828763	-80.147142
644.967490	-80.115569
645.106277	-80.122057
645.245124	-80.166377
645.384030	-80.248064
645.522997	-80.366378
645.662023	-80.520473
645.801109	-80.709146
645.940255	-80.931149
646.079460	-81.184578
646.218726	-81.466472
646.358052	-81.771097
646.497438	-82.089973
646.636884	-82.409707
646.776391	-82.712187
646.915957	-82.973701
647.055584	-83.166135
647.195271	-83.258566
647.335019	-83.224487
647.474826	-83.047938
647.614695	-82.729867
647.754623	-82.287143
647.894612	-81.747950
648.034662	-81.143619
648.174772	-80.502566
648.314943	-79.848106
648.455174	-79.197376
648.595466	-78.562351
648.735819	-77.951049
648.876233	-77.368374
649.016707	-76.816925
649.157242	-76.297845
649.297838	-75.811196
649.438495	-75.356369
649.579213	-74.932491
649.719992	-74.538270
649.860832	-74.172712
650.001733	-73.834648
650.142695	-73.522920
650.283718	-73.236647
650.424803	-72.974844
650.565949	-72.736674
650.707156	-72.521489
650.848424	-72.328535
650.989754	-72.157114
651.131145	-72.006649
651.272597	-71.876358
651.414111	-71.765909
651.555687	-71.675050
651.697324	-71.603767
651.839022	-71.552072
651.980782	-71.519898
652.122604	-71.507012
652.264488	-71.513007
652.406433	-71.537595
652.548441	-71.580632
652.690510	-71.642179
652.832640	-71.722531
652.974833	-71.822077
653.117088	-71.941215
653.259405	-72.080393
653.401784	-72.240272
653.544224	-72.421592
653.686727	-72.625361
653.829293	-72.852786
653.971920	-73.105315
654.114609	-73.384610
654.257361	-73.692782
654.400175	-74.032498
654.543052	-74.407023
654.685991	-74.820465
654.828992	-75.277692
654.972056	-75.784273
655.115183	-76.346998
655.258372	-76.974203
655.401623	-77.676496
655.544937	-78.468071
655.688314	-79.367905
655.831754	-80.402177
655.975256	-81.607583
656.118822	-83.037884
656.262450	-84.774643
656.406141	-86.946273
656.549894	-89.741989
656.693711	-93.218754
656.837591	-95.421637
656.981534	-92.912466
657.125540	-89.328325
657.269610	-86.439211
657.413742	-84.162563
657.557938	-82.310080
657.702196	-80.755354
657.846519	-79.418352
657.990904	-78.246830
658.135353	-77.205561
658.279866	-76.269536
658.424441	-75.420583
658.569081	-74.645033
658.713784	-73.932440
658.858550	-73.274726
659.003381	-72.665596
659.148274	-72.099819
659.293232	-71.573149
659.438253	-71.082015
659.583339	-70.623367
659.728488	-70.194756
659.873701	-69.794183
660.018978	-69.420084
660.164318	-69.071052
660.309723	-68.745887
660.455192	-68.443415
660.600725	-68.162582
660.746323	-67.902406
660.891984	-67.661974
661.037710	-67.440555
661.183500	-67.237574
661.329354	-67.052639
661.475272	-66.885518
661.621255	-66.736138
661.767303	-66.604453
661.913415	-66.490380
662.059591	-66.393672
662.205833	-66.314093
662.352138	-66.251405
662.498509	-66.205515
662.644944	-66.176510
662.791443	-66.164606
662.938008	-66.170155
663.084638	-66.193508
663.231332	-66.235011
663.378091	-66.294980
663.524915	-66.373833
663.671804	-66.472016
663.818759	-66.590285
663.965778	-66.729571
664.112863	-66.890955
664.260012	-67.075650
664.407227	-67.284913
664.554507	-67.520088
664.701853	-67.782663
664.849264	-68.074293
664.996740	-68.396883
665.144282	-68.752613
665.291889	-69.144019
665.439561	-69.574207
665.587300	-70.047191
665.735103	-70.568021
665.882973	-71.143037
666.030908	-71.779948
666.178909	-72.487866
666.326976	-73.277859
666.475109	-74.164025
666.623307	-75.164926
666.771571	-76.305568
666.919902	-77.619274
667.068298	-79.148139
667.216761	-80.934445
667.365289	-82.973682
667.513884	-85.020019
667.662545	-86.159288
667.811272	-85.373786
667.960065	-83.350257
668.108925	-81.180692
668.257851	-79.239226
668.406843	-77.563937
668.555902	-76.117707
668.705027	-74.857293
668.854219	-73.746776
669.003478	-72.758492
669.152803	-71.871582
669.302195	-71.070591
669.451653	-70.343611
669.601179	-69.681231
669.750771	-69.075832
669.900430	-68.521197
670.050156	-68.012133
670.199949	-67.544364
670.349808	-67.114305
670.499735	-66.718840
670.649729	-66.355337
670.799790	-66.021514
670.949918	-65.715537
671.100114	-65.435976
671.250377	-65.181596
671.400707	-64.951383
671.551104	-64.744383
671.701569	-64.559639
671.852101	-64.396274
672.002700	-64.253460
672.153368	-64.130394
672.304102	-64.026420
672.454905	-63.941044
672.605775	-63.873884
672.756713	-63.824769
672.907718	-63.793580
673.058791	-63.780182
673.209933	-63.784376
673.361142	-63.805795
673.512419	-63.843961
673.663764	-63.898394
673.815177	-63.968691
673.966658	-64.054645
674.118207	-64.156296
674.269825	-64.273956
674.421510	-64.408000
674.573264	-64.558844
674.725086	-64.726924
674.876977	-64.912747
675.028936	-65.116945
675.180963	-65.340376
675.333059	-65.584264
675.485224	-65.850236
675.637457	-66.140259
675.789758	-66.456509
675.942129	-66.801224
676.094568	-67.176668
676.247075	-67.585168
676.399652	-68.029471
676.552298	-68.512962
676.705012	-69.039850
676.857795	-69.615287
677.010648	-70.245380
677.163569	-70.937181
677.316560	-71.698742
677.469619	-72.539177
677.622748	-73.468575
677.775946	-74.497162
677.929214	-75.633160
678.082551	-76.876555
678.235957	-78.203583
678.389432	-79.531871
678.542977	-80.663975
678.696592	-81.273692
678.850276	-81.099409
679.004030	-80.226128
679.157853	-78.983893
679.311746	-77.649420
679.465709	-76.361109
679.619742	-75.168206
679.773844	-74.079588
679.928017	-73.089042
680.082259	-72.186255
680.236571	-71.360928
680.390954	-70.604024
680.545406	-69.907615
680.699929	-69.264724
680.854522	-68.669220
681.009185	-68.115708
681.163918	-67.599696
681.318722	-67.117518
681.473596	-66.666117
681.628540	-66.242904
681.783555	-65.845641
681.938641	-65.472397
682.093797	-65.121514
682.249023	-64.791522
682.404321	-64.481060
682.559689	-64.188850
682.715128	-63.913642
682.870637	-63.654328
683.026218	-63.409861
683.181869	-63.179203
683.337591	-62.961299
683.493385	-62.755076
683.649249	-62.559529
683.805185	-62.373803
683.961191	-62.197231
684.117269	-62.029236
684.273418	-61.869253
684.429639	-61.716610
684.585930	-61.570444
684.742294	-61.429740
684.898728	-61.293504
685.055234	-61.161010
685.211812	-61.031888
685.368461	-60.906155
685.525182	-60.784050
685.681975	-60.665852
685.838839	-60.551698
685.995775	-60.441610
686.152783	-60.335522
686.309863	-60.233375
686.467014	-60.135180
686.624238	-60.041025
686.781534	-59.951068
686.938902	-59.865465
687.096342	-59.784268
687.253854	-59.707307
687.411438	-59.634190
687.569095	-59.564367
687.726824	-59.497220
687.884626	-59.432191
688.042499	-59.368878
688.200446	-59.307020
688.358465	-59.246456
688.516556	-59.186965
688.674720	-59.128215
688.832957	-59.069731
688.991266	-59.010966
689.149649	-58.951384
689.308104	-58.890468
689.466632	-58.827670
689.625233	-58.762429
689.783906	-58.694189
689.942653	-58.622410
690.101473	-58.546641
690.260367	-58.466591
690.419333	-58.382210
690.578372	-58.293682
690.737485	-58.201413
690.896672	-58.105970
691.055931	-58.008016
691.215264	-57.908248
691.374671	-57.807343
691.534151	-57.705938
691.693704	-57.604661
691.853332	-57.504222
692.013033	-57.405459
692.172807	-57.309343
692.332656	-57.216900
692.492578	-57.129104
692.652575	-57.046833
692.812645	-56.970799
692.972789	-56.901502
693.133007	-56.839339
693.293300	-56.784686
693.453666	-56.737904
693.614107	-56.699260
693.774622	-56.668860
693.935211	-56.646649
694.095875	-56.632489
694.256613	-56.626192
694.417426	-56.627549
694.578313	-56.636304
694.739274	-56.652053
694.900311	-56.674264
695.061421	-56.702286
695.222607	-56.735413
695.383868	-56.772900
695.545203	-56.814003
695.706613	-56.857954
695.868098	-56.903975
696.029658	-56.951194
696.191293	-56.998601
696.353003	-57.045059
696.514789	-57.089291
696.676649	-57.129971
696.838585	-57.165879
697.000596	-57.196004
697.162682	-57.219581
697.324844	-57.236057
697.487081	-57.245042
697.649394	-57.246309
697.811782	-57.239815
697.974246	-57.225767
698.136786	-57.204639
698.299401	-57.177195
698.462092	-57.144453
698.624859	-57.107618
698.787702	-57.067957
698.950621	-57.026761
699.113616	-56.985331
699.276686	-56.944955
699.439833	-56.906905
699.603056	-56.872423
699.766355	-56.842669
699.929731	-56.818729
700.093183	-56.801611
700.256711	-56.792232
700.420315	-56.791331
700.583996	-56.799492
700.747754	-56.817223
700.911588	-56.845031
701.075499	-56.883538
701.239486	-56.933407
701.403550	-56.995193
701.567691	-57.069115
701.731909	-57.154956
701.896203	-57.252091
702.060575	-57.359761
702.225024	-57.477309
702.389549	-57.604225
702.554152	-57.740100
702.718832	-57.884486
702.883589	-58.036724
703.048424	-58.195853
703.213335	-58.360532
703.378324	-58.529115
703.543391	-58.699725
703.708535	-58.870459
703.873757	-59.039462
704.039056	-59.204879
704.204433	-59.364900
704.369887	-59.517898
704.535420	-59.662496
704.701030	-59.797698
704.866718	-59.922938
705.032484	-60.037983
705.198328	-60.142893
705.364250	-60.238047
705.530250	-60.324121
705.696328	-60.401990
705.862485	-60.472795
706.028720	-60.537813
706.195033	-60.598533
706.361424	-60.656727
706.527894	-60.714355
706.694442	-60.773392
706.861069	-60.835569
707.027775	-60.902218
707.194559	-60.974211
707.361422	-61.051978
707.528363	-61.135616
707.695384	-61.224993
707.862483	-61.319975
708.029661	-61.420476
708.196918	-61.526453
708.364254	-61.637885
708.531670	-61.754665
708.699164	-61.876477
708.866738	-62.002800
709.034391	-62.132701
709.202123	-62.264587
709.369935	-62.396440
709.537826	-62.526040
709.705796	-62.651262
709.873847	-62.770291
710.041976	-62.881616
710.210186	-62.984082
710.378475	-63.076792
710.546844	-63.158776
710.715292	-63.228745
710.883821	-63.285186
711.052429	-63.326381
711.221118	-63.350773
711.389887	-63.357736
711.558735	-63.347964
711.727664	-63.323345
711.896673	-63.286661
712.065763	-63.241010
712.234932	-63.189417
712.404183	-63.134652
712.573513	-63.079225
712.742924	-63.025770
712.912416	-62.977041
713.081988	-62.935582
713.251641	-62.903521
713.421375	-62.882420
713.591190	-62.873367
713.761085	-62.877258
713.931061	-62.895028
714.101119	-62.927710
714.271257	-62.976363
714.441476	-63.042038
714.611777	-63.125645
714.782159	-63.227709
714.952622	-63.348087
715.123166	-63.485914
715.293792	-63.640035
715.464499	-63.809347
715.635288	-63.993256
715.806158	-64.191827
715.977110	-64.405316
716.148143	-64.633753
716.319259	-64.876300
716.490456	-65.130662
716.661735	-65.393283
716.833096	-65.659834
717.004538	-65.925541
717.176063	-66.185514
717.347670	-66.435187
717.519359	-66.670317
717.691130	-66.886706
717.862984	-67.080368
718.034920	-67.247761
718.206938	-67.385399
718.379039	-67.489841
718.551222	-67.558593
718.723488	-67.590283
718.895836	-67.584064
719.068267	-67.539640
719.240781	-67.457436
719.413377	-67.338750
719.586057	-67.186413
719.758819	-67.005093
719.931664	-66.800528
720.104593	-66.578544
720.277604	-66.344712
720.450699	-66.103704
720.623876	-65.858818
720.797137	-65.612575
720.970482	-65.367440
721.143910	-65.125904
721.317421	-64.890420
721.491016	-64.663773
721.664694	-64.448527
721.838456	-64.246223
722.012302	-64.057666
722.186231	-63.883323
722.360244	-63.723092
722.534342	-63.576258
722.708523	-63.441721
722.882788	-63.317949
723.057137	-63.203219
723.231570	-63.096083
723.406088	-62.995560
723.580689	-62.901234
723.755375	-62.813460
723.930146	-62.733200
724.105000	-62.661638
724.279940	-62.599742
724.454963	-62.548275
724.630072	-62.507758
724.805265	-62.478512
724.980543	-62.460565
725.155905	-62.453617
725.331353	-62.457341
725.506885	-62.471543
725.682503	-62.495892
725.858205	-62.529736
726.033993	-62.572286
726.209865	-62.622481
726.385823	-62.678886
726.561866	-62.740416
726.737995	-62.806462
726.914209	-62.876469
727.090508	-62.949867
727.266893	-63.026013
727.443364	-63.104347
727.619920	-63.184641
727.796562	-63.267297
727.973290	-63.353384
728.150103	-63.444392
728.327003	-63.542243
728.503988	-63.648514
728.681060	-63.763981
728.858218	-63.888555
729.035461	-64.021232
729.212791	-64.160397
729.390208	-64.304316
729.567710	-64.451417
729.745299	-64.600430
729.922975	-64.750343
730.100737	-64.900233
730.278586	-65.048750
730.456521	-65.194024
730.634543	-65.334082
730.812652	-65.467303
730.990848	-65.592569
731.169130	-65.708819
731.347500	-65.814573
731.525957	-65.907808
731.704500	-65.985949
731.883131	-66.046182
732.061850	-66.086319
732.240655	-66.105414
732.419548	-66.103619
732.598528	-66.081906
732.777596	-66.041331
732.956751	-65.982670
733.135994	-65.906444
733.315325	-65.813041
733.494744	-65.703352
733.674250	-65.579150
733.853844	-65.443123
734.033526	-65.298518
734.213296	-65.148917
734.393154	-64.998131
734.573101	-64.849793
734.753135	-64.707127
734.933258	-64.572632
735.113469	-64.447890
735.293769	-64.334027
735.474157	-64.231536
735.654633	-64.140105
735.835198	-64.059059
736.015852	-63.987481
736.196594	-63.924143
736.377426	-63.868255
736.558346	-63.819747
736.739355	-63.779076
736.920453	-63.747029
737.101640	-63.724331
737.282916	-63.711491
737.464282	-63.709031
737.645736	-63.717383
737.827280	-63.736866
738.008914	-63.768108
738.190637	-63.811801
738.372449	-63.868128
738.554351	-63.936914
738.736342	-64.018078
738.918424	-64.111680
739.100595	-64.218252
739.282855	-64.338828
739.465206	-64.474536
739.647647	-64.626168
739.830178	-64.793619
740.012799	-64.975428
740.195510	-65.168979
740.378311	-65.371258
740.561203	-65.579366
740.744185	-65.791383
740.927258	-66.006909
741.110421	-66.226590
741.293674	-66.451746
741.477018	-66.683740
741.660453	-66.922704
741.843979	-67.167153
742.027596	-67.414818
742.211303	-67.662423
742.395102	-67.905653
742.578991	-68.139462
742.762972	-68.357670
742.947044	-68.553073
743.131207	-68.718075
743.315461	-68.846086
743.499807	-68.933486
743.684244	-68.981244
743.868773	-68.993643
744.053394	-68.977337
744.238106	-68.939258
744.422910	-68.883410
744.607805	-68.810373
744.792793	-68.718612
744.977872	-68.605626
745.163044	-68.470686
745.348307	-68.315773
745.533663	-68.144575
745.719111	-67.961412
745.904651	-67.770710
746.090283	-67.576442
746.276008	-67.381296
746.461826	-67.187430
746.647735	-66.997050
746.833738	-66.811887
747.019833	-66.633422
747.206021	-66.462808
747.392302	-66.300129
747.578676	-66.144882
747.765143	-65.996543
747.951703	-65.855182
748.138356	-65.721660
748.325102	-65.597457
748.511941	-65.485020
748.698874	-65.387081
748.885900	-65.305077
749.073019	-65.238961
749.260232	-65.186996
749.447539	-65.145947
749.634939	-65.112444
749.822433	-65.083617
750.010021	-65.057288
750.197703	-65.031656
750.385479	-65.005214
750.573348	-64.976512
750.761312	-64.944135
750.949370	-64.907355
751.137523	-64.866521
751.325769	-64.822260
751.514110	-64.775880
751.702545	-64.729029
751.891075	-64.682963
752.079700	-64.638741
752.268419	-64.596770
752.457233	-64.557312
752.646142	-64.521537
752.835145	-64.491337
753.024244	-64.469241
753.213437	-64.458446
753.402726	-64.461852
753.592110	-64.481572
753.781589	-64.518981
753.971163	-64.574631
754.160833	-64.647927
754.350598	-64.737582
754.540459	-64.842232
754.730415	-64.960329
754.920467	-65.089689
755.110615	-65.228392
755.300858	-65.374989
755.491198	-65.527943
755.681633	-65.686489
755.872164	-65.851008
756.062792	-66.022076
756.253515	-66.200634
756.444335	-66.387584
756.635252	-66.582975
756.826264	-66.785642
757.017373	-66.992769
757.208579	-67.199950
757.399881	-67.401808
757.591280	-67.591986
757.782776	-67.763020
757.974368	-67.907006
758.166058	-68.016086
758.357844	-68.085276
758.549728	-68.113422
758.741708	-68.102995
758.933786	-68.061384
759.125961	-67.997367
759.318233	-67.917838
759.510603	-67.826768
759.703071	-67.723666
759.895635	-67.604789
760.088298	-67.466223
760.281058	-67.306293
760.473916	-67.126942
760.666872	-66.934732
760.859926	-66.738372
761.053078	-66.546396
761.246328	-66.365959
761.439676	-66.200803
761.633122	-66.051542
761.826667	-65.917205
762.020310	-65.796373
762.214052	-65.687248
762.407892	-65.588626
762.601831	-65.499635
762.795868	-65.418862
762.990004	-65.345434
763.184239	-65.279230
763.378573	-65.220363
763.573006	-65.170316
763.767538	-65.131509
763.962169	-65.106338
764.156900	-65.096468
764.351729	-65.102403
764.546658	-65.124189
764.741687	-65.160899
764.936815	-65.211966
765.132042	-65.277304
765.327370	-65.357483
765.522797	-65.453574
765.718324	-65.566144
765.913950	-65.694744
766.109677	-65.838223
766.305504	-65.994870
766.501431	-66.163126
766.697458	-66.343737
766.893586	-66.539202
767.089814	-66.753750
767.286142	-66.991947
767.482571	-67.257291
767.679100	-67.551282
767.875730	-67.872864
768.072461	-68.219852
768.269293	-68.589628
768.466225	-68.981040
768.663259	-69.394911
768.860393	-69.833835
769.057629	-70.301430
769.254966	-70.798648
769.452404	-71.322047
769.649944	-71.859680
769.847585	-72.389510
770.045328	-72.878591
770.243172	-73.281388
770.441118	-73.547253
770.639166	-73.634171
770.837315	-73.524503
771.035567	-73.233255
771.233920	-72.800786
771.432376	-72.280939
771.630934	-71.720546
771.829594	-71.153102
772.028356	-70.599264
772.227220	-70.069647
772.426188	-69.570328
772.625257	-69.105902
772.824430	-68.682561
773.023705	-68.306513
773.223083	-67.983041
773.422563	-67.715120
773.622147	-67.501991
773.821834	-67.339274
774.021624	-67.220300
774.221517	-67.137573
774.421513	-67.086425
774.621613	-67.065366
774.821816	-67.074969
775.022122	-67.118797
775.222532	-67.200530
775.423046	-67.322327
775.623664	-67.483563
775.824385	-67.681604
776.025211	-67.911639
776.226140	-68.168266
776.427173	-68.447218
776.628311	-68.746037
776.829553	-69.062936
777.030899	-69.396285
777.232350	-69.744753
777.433905	-70.104528
777.635564	-70.471991
777.837328	-70.843819
778.039197	-71.217468
778.241171	-71.590015
778.443250	-71.954492
778.645433	-72.295401
778.847722	-72.585939
779.050116	-72.788962
779.252615	-72.865909
779.455219	-72.794442
779.657929	-72.581390
779.860744	-72.260290
780.063665	-71.878201
780.266691	-71.475305
780.469823	-71.076717
780.673061	-70.692035
780.876405	-70.320420
781.079855	-69.958039
781.283410	-69.604282
781.487072	-69.264687
781.690840	-68.950501
781.894715	-68.674485
782.098695	-68.447872
782.302783	-68.277853
782.506976	-68.167354
782.711277	-68.115517
782.915684	-68.118490
783.120198	-68.171808
783.324818	-68.272715
783.529546	-68.419375
783.734381	-68.610512
783.939322	-68.844919
784.144372	-69.122240
784.349528	-69.441154
784.554792	-69.801966
784.760163	-70.207280
784.965642	-70.661152
785.171228	-71.169235
785.376922	-71.735959
785.582724	-72.363207
785.788634	-73.044922
785.994651	-73.762453
786.200777	-74.487269
786.407011	-75.181775
786.613353	-75.804593
786.819804	-76.324141
787.026363	-76.719100
787.233030	-76.978267
787.439806	-77.093623
787.646691	-77.048458
787.853684	-76.824232
788.060786	-76.416567
788.267997	-75.844979
788.475317	-75.154268
788.682746	-74.397924
788.890285	-73.622687
789.097932	-72.863263
789.305689	-72.142480
789.513555	-71.473767
789.721531	-70.866301
789.929617	-70.325896
790.137812	-69.855180
790.346117	-69.453928
790.554531	-69.117742
790.763056	-68.839164
790.971691	-68.610026
791.180436	-68.423617
791.389291	-68.279114
791.598256	-68.182359
791.807332	-68.145036
792.016518	-68.180223
792.225815	-68.300442
792.435222	-68.514729
792.644740	-68.823553
792.854369	-69.221120
793.064109	-69.695687
793.273960	-70.232931
793.483922	-70.820379
793.693995	-71.452016
793.904180	-72.130922
794.114475	-72.864827
794.324882	-73.664564
794.535401	-74.539520
794.746031	-75.490271
794.956774	-76.511033
795.167627	-77.589390
795.378593	-78.713391
795.589671	-79.877543
795.800861	-81.089308
796.012162	-82.371658
796.223577	-83.755384
796.435103	-85.258478
796.646742	-86.799769
796.858493	-88.046340
797.070357	-88.403653
797.282334	-87.651042
797.494423	-86.315604
797.706626	-84.928839
797.918941	-83.688235
798.131369	-82.569847
798.343911	-81.489140
798.556566	-80.365992
798.769334	-79.182877
798.982215	-77.989304
799.195210	-76.854901
799.408319	-75.838551
799.621541	-74.975276
799.834877	-74.273010
800.048327	-73.721323
800.261890	-73.300428
800.475568	-72.983339
800.689360	-72.745762
800.903266	-72.569803
801.117287	-72.440668
801.331422	-72.350000
801.545671	-72.290754
801.760036	-72.256958
801.974514	-72.243139
802.189108	-72.246138
802.403816	-72.270744
802.618640	-72.326851
802.833578	-72.430954
803.048632	-72.595763
803.263800	-72.831056
803.479085	-73.135764
803.694484	-73.495449
803.909999	-73.880304
804.125630	-74.252022
804.341376	-74.568736
804.557239	-74.796488
804.773217	-74.928830
804.989311	-74.984021
805.205521	-74.998432
805.421847	-75.013654
805.638290	-75.066038
805.854849	-75.176800
806.071524	-75.353613
806.288316	-75.590252
806.505225	-75.866192
806.722250	-76.148962
806.939393	-76.400007
807.156652	-76.588079
807.374028	-76.703505
807.591521	-76.771717
807.809132	-76.844183
808.026859	-76.987638
808.244705	-77.264632
808.462667	-77.732943
808.680748	-78.441929
808.898946	-79.436535
809.117261	-80.778562
809.335695	-82.551017
809.554246	-84.889060
809.772916	-88.015972
809.991704	-91.976070
810.210610	-93.884989
810.429634	-90.680254
810.648777	-87.188634
810.868039	-84.539214
811.087419	-82.491421
811.306918	-80.838795
811.526535	-79.463841
811.746272	-78.308256
811.966127	-77.356547
812.186102	-76.610306
812.406196	-76.085251
812.626409	-75.797581
812.846742	-75.762812
813.067194	-76.000340
813.287766	-76.528897
813.508457	-77.375729
813.729269	-78.588621
813.950200	-80.243926
814.171251	-82.509992
814.392422	-85.764552
814.613714	-91.151178
814.835126	-101.371649
815.056658	-91.677374
815.278311	-85.632235
815.500084	-81.915642
815.721978	-79.211220
815.943993	-77.081787
816.166128	-75.330055
816.388385	-73.858055
816.610762	-72.611062
816.833261	-71.556234
817.055881	-70.674345
817.278623	-69.950033
817.501486	-69.371629
817.724471	-68.924661
817.947577	-68.593065
818.170805	-68.359736
818.394155	-68.206110
818.617627	-68.114637
818.841221	-68.070642
819.064937	-68.060650
819.288775	-68.073854
819.512736	-68.100769
819.736819	-68.132326
819.961025	-68.159497
820.185354	-68.173595
820.409805	-68.168616
820.634379	-68.140516
820.859076	-68.088991
821.083897	-68.017333
821.308840	-67.932251
821.533907	-67.842118
821.759097	-67.756347
821.984411	-67.682531
822.209848	-67.628384
822.435409	-67.598460
822.661093	-67.596134
822.886902	-67.624129
823.112834	-67.685517
823.338891	-67.782248
823.565072	-67.919207
823.791377	-68.100538
824.017807	-68.331587
824.244361	-68.615127
824.471039	-68.951093
824.697843	-69.337373
824.924771	-69.764337
825.151824	-70.218642
825.379002	-70.680406
825.606306	-71.122310
825.833734	-71.513348
826.061288	-71.820410
826.288967	-72.019357
826.516772	-72.101811
826.744703	-72.079360
826.972759	-71.977243
827.200941	-71.827278
827.429249	-71.659870
827.657683	-71.499719
827.886243	-71.362718
828.114930	-71.260161
828.343743	-71.204860
828.572682	-71.205647
828.801748	-71.275712
829.030941	-71.429177
829.260260	-71.676331
829.489706	-72.027640
829.719280	-72.485981
829.948980	-73.046605
830.178808	-73.693569
830.408763	-74.385274
830.638845	-75.045544
830.869055	-75.554038
831.099393	-75.770715
831.329858	-75.606294
831.560451	-75.086957
831.791173	-74.333694
832.022022	-73.482767
832.252999	-72.629300
832.484105	-71.827595
832.715339	-71.096303
832.946702	-70.436800
833.178193	-69.838387
833.409813	-69.289515
833.641561	-68.777377
833.873439	-68.293449
834.105445	-67.832855
834.337581	-67.393988
834.569846	-66.977302
834.802241	-66.584649
835.034764	-66.217987
835.267418	-65.878481
835.500201	-65.567320
835.733114	-65.283189
835.966157	-65.025963
836.199329	-64.794246
836.432632	-64.585662
836.666065	-64.398357
836.899629	-64.229811
837.133323	-64.076664
837.367147	-63.936071
837.601102	-63.804667
837.835188	-63.678533
838.069405	-63.553140
838.303752	-63.423207
838.538231	-63.283535
838.772841	-63.131003
839.007582	-62.963475
839.242455	-62.782116
839.477459	-62.590396
839.712595	-62.392624
839.947863	-62.193476
840.183263	-61.998158
840.418794	-61.810420
840.654458	-61.633426
840.890254	-61.469386
841.126182	-61.319394
841.362242	-61.182601
841.598435	-61.057514
841.834761	-60.941200
842.071220	-60.830427
842.307811	-60.722248
842.544536	-60.614572
842.781393	-60.505760
843.018384	-60.394545
843.255508	-60.279590
843.492765	-60.160027
843.730156	-60.035608
843.967681	-59.907565
844.205339	-59.778766
844.443132	-59.653971
844.681058	-59.538269
844.919118	-59.437527
845.157313	-59.356816
845.395642	-59.300685
845.634105	-59.272117
845.872703	-59.272046
846.111436	-59.299510
846.350303	-59.350834
846.589306	-59.420915
846.828443	-59.503604
847.067716	-59.592739
847.307124	-59.683329
847.546667	-59.771756
847.786345	-59.855924
848.026160	-59.934491
848.266110	-60.007194
848.506195	-60.072944
848.746417	-60.130894
848.986775	-60.179017
849.227269	-60.215607
849.467899	-60.240311
849.708666	-60.254743
849.949569	-60.263493
850.190609	-60.273067
850.431785	-60.290859
850.673099	-60.323952
850.914549	-60.376905
851.156137	-60.452137
851.397861	-60.549167
851.639723	-60.664911
851.881723	-60.795222
852.123860	-60.935799
852.366135	-61.084114
852.608547	-61.241041
852.851098	-61.410192
853.093786	-61.598293
853.336613	-61.811751
853.579578	-62.055980
853.822681	-62.332723
854.065923	-62.639203
854.309304	-62.971105
854.552823	-63.322435
854.796481	-63.690102
855.040278	-64.074846
855.284215	-64.479218
855.528290	-64.906151
855.772505	-65.353297
856.016859	-65.808731
856.261353	-66.248525
856.505987	-66.636828
856.750760	-66.933230
856.995673	-67.102019
857.240727	-67.124283
857.485920	-67.005116
857.731254	-66.768973
857.976729	-66.452377
858.222343	-66.093437
858.468099	-65.724032
858.713995	-65.368601
858.960032	-65.043573
859.206211	-64.756581
859.452530	-64.510060
859.698991	-64.300053
859.945593	-64.117815
860.192336	-63.952250
860.439222	-63.791660
860.686248	-63.625929
860.933417	-63.446790
861.180728	-63.249874
861.428181	-63.032158
861.675776	-62.792064
861.923514	-62.530060
862.171394	-62.246860
862.419417	-61.945515
862.667582	-61.630485
862.915890	-61.307626
863.164342	-60.983300
863.412936	-60.663477
863.661674	-60.352766
863.910555	-60.054297
864.159579	-59.769758
864.408747	-59.500732
864.658059	-59.248743
864.907515	-59.014902
865.157114	-58.799944
865.406858	-58.603688
865.656746	-58.424974
865.906778	-58.262554
866.156955	-58.115325
866.407277	-57.982631
866.657743	-57.864337
866.908354	-57.760350
867.159110	-57.670429
867.410011	-57.594459
867.661057	-57.532458
867.912249	-57.486128
868.163586	-57.457974
868.415069	-57.450972
868.666697	-57.466971
868.918472	-57.506127
869.170392	-57.565879
869.422458	-57.641479
869.674671	-57.727360
869.927030	-57.817146
870.179536	-57.904967
870.432188	-57.985715
870.684987	-58.055269
870.937933	-58.110420
871.191026	-58.149673
871.444266	-58.173245
871.697653	-58.182571
871.951188	-58.180271
872.204870	-58.168812
872.458700	-58.150375
872.712677	-58.126485
872.966803	-58.097476
873.221076	-58.063864
873.475498	-58.025514
873.730068	-57.983258
873.984787	-57.938187
874.239654	-57.891460
874.494669	-57.844248
874.749834	-57.797514
875.005147	-57.752205
875.260610	-57.708792
875.516222	-57.667725
875.771983	-57.628232
876.027894	-57.588741
876.283954	-57.546843
876.540164	-57.500086
876.796524	-57.447018
877.053033	-57.387424
877.309693	-57.322791
877.566503	-57.255166
877.823464	-57.185682
878.080575	-57.113690
878.337837	-57.037097
878.595249	-56.952302
878.852813	-56.856286
879.110528	-56.746521
879.368393	-56.622149
879.626410	-56.482496
879.884579	-56.326972
880.142899	-56.154094
880.401371	-55.961271
880.659994	-55.745345
880.918770	-55.503750
881.177698	-55.235979
881.436778	-54.943440
881.696010	-54.630316
881.955395	-54.302707
882.214933	-53.967931
882.474623	-53.633355
882.734467	-53.305388
882.994463	-52.988325
883.254613	-52.683969
883.514916	-52.392000
883.775372	-52.110829
884.035982	-51.838248
884.296746	-51.571932
884.557664	-51.310001
884.818735	-51.050985
885.079961	-50.794439
885.341341	-50.540906
885.602876	-50.292297
885.864565	-50.051321
886.126409	-49.820836
886.388407	-49.602887
886.650561	-49.398033
886.912870	-49.205447
887.175334	-49.023361
887.437953	-48.849362
887.700728	-48.680891
887.963658	-48.515228
888.226745	-48.349891
888.489987	-48.182742
888.753385	-48.012251
889.016940	-47.838152
889.280651	-47.661270
889.544518	-47.483671
889.808543	-47.307646
890.072723	-47.135507
890.337061	-46.968946
890.601556	-46.808818
890.866208	-46.655190
891.131017	-46.507105
891.395984	-46.362855
891.661109	-46.220616
891.926391	-46.078615
892.191831	-45.935794
892.457429	-45.791800
892.723186	-45.647015
892.989100	-45.502669
893.255173	-45.360831
893.521405	-45.224296
893.787796	-45.096000
894.054345	-44.978497
894.321053	-44.873327
894.587921	-44.780801
894.854948	-44.700177
895.122134	-44.629883
895.389480	-44.567878
895.656986	-44.512147
895.924651	-44.460873
896.192477	-44.412526
896.460463	-44.365923
896.728609	-44.320419
896.996915	-44.276396
897.265382	-44.235137
897.534010	-44.198728
897.802799	-44.169478
898.071749	-44.149200
898.340860	-44.138876
898.610132	-44.138152
898.879566	-44.145774
899.149162	-44.159744
899.418919	-44.177683
899.688838	-44.197066
899.958919	-44.215345
900.229162	-44.229977
900.499568	-44.238745
900.770136	-44.239898
901.040867	-44.232936
901.311761	-44.218950
901.582817	-44.200357
901.854037	-44.180469
902.125420	-44.162870
902.396966	-44.150991
902.668676	-44.147542
902.940550	-44.154089
903.212587	-44.170848
903.484788	-44.196431
903.757153	-44.228069
904.029683	-44.261700
904.302377	-44.292690
904.575236	-44.316504
904.848259	-44.329520
905.121447	-44.329566
905.394800	-44.316091
905.668319	-44.290040
905.942002	-44.253377
906.215852	-44.208547
906.489866	-44.157831
906.764047	-44.102910
907.038393	-44.044467
907.312906	-43.982271
907.587584	-43.915038
907.862429	-43.840734
908.137441	-43.756344
908.412619	-43.658198
908.687964	-43.542290
908.963476	-43.405247
909.239155	-43.245312
909.515002	-43.063043
909.791015	-42.860936
910.067197	-42.643118
910.343546	-42.414472
910.620063	-42.179783
910.896748	-41.943326
911.173601	-41.708583
911.450623	-41.478308
911.727813	-41.254407
912.005171	-41.037853
912.282699	-40.828525
912.560395	-40.625345
912.838261	-40.426687
913.116296	-40.231068
913.394500	-40.037774
913.672874	-39.846975
913.951418	-39.659482
914.230131	-39.476512
914.509015	-39.299391
914.788068	-39.129409
915.067292	-38.968209
915.346687	-38.817810
915.626252	-38.680375
915.905988	-38.557825
916.185895	-38.451443
916.465973	-38.361691
916.746223	-38.288323
917.026644	-38.230467
917.307236	-38.186607
917.588000	-38.154610
917.868937	-38.131797
918.150045	-38.115208
918.431325	-38.102181
918.712778	-38.090720
918.994404	-38.079719
919.276202	-38.068890
919.558173	-38.058549
919.840317	-38.049384
920.122634	-38.042217
920.405125	-38.037790
920.687789	-38.036479
920.970627	-38.038352
921.253639	-38.043093
921.536824	-38.050037
921.820184	-38.057986
922.103718	-38.065046
922.387427	-38.068535
922.671310	-38.065297
922.955368	-38.052318
923.239601	-38.027094
923.524009	-37.987808
923.808592	-37.933360
924.093351	-37.863346
924.378285	-37.778032
924.663396	-37.678543
924.948682	-37.567040
925.234144	-37.446520
925.519782	-37.320547
925.805597	-37.192962
926.091589	-37.067234
926.377757	-36.946157
926.664102	-36.831628
926.950624	-36.724655
927.237323	-36.625439
927.524200	-36.533755
927.811255	-36.449139
928.098487	-36.370941
928.385897	-36.298371
928.673485	-36.230651
928.961251	-36.167181
929.249196	-36.107709
929.537319	-36.052469
929.825621	-36.002048
930.114102	-35.957203
930.402762	-35.918668
930.691601	-35.887210
930.980620	-35.863788
931.269818	-35.849452
931.559196	-35.845153
931.848753	-35.851407
932.138491	-35.868057
932.428409	-35.894206
932.718508	-35.928333
933.008787	-35.968423
933.299246	-36.011974
933.589887	-36.056150
933.880709	-36.097885
934.171712	-36.134073
934.462896	-36.161635
934.754262	-36.177867
935.045810	-36.180657
935.337539	-36.168615
935.629451	-36.141140
935.921545	-36.098323
936.213822	-36.040908
936.506281	-35.970310
936.798922	-35.888577
937.091747	-35.798194
937.384755	-35.701887
937.677946	-35.602232
937.971321	-35.501355
938.264879	-35.400914
938.558621	-35.302130
938.852547	-35.205721
939.146657	-35.111939
939.440952	-35.020761
939.735431	-34.931937
940.030095	-34.845132
940.324943	-34.760149
940.619977	-34.677121
940.915196	-34.596443
941.210600	-34.518730
941.506189	-34.444801
941.801965	-34.375574
942.097926	-34.311971
942.394074	-34.254897
942.690407	-34.205167
942.986927	-34.163307
943.283634	-34.129445
943.580527	-34.103306
943.877608	-34.084127
944.174875	-34.070724
944.472330	-34.061418
944.769972	-34.054054
945.067802	-34.046006
945.365820	-34.034425
945.664026	-34.016372
945.962420	-33.989057
946.261002	-33.950023
946.559773	-33.897216
946.858733	-33.829185
947.157881	-33.745295
947.457219	-33.645869
947.756746	-33.532228
948.056462	-33.406588
948.356368	-33.271815
948.656464	-33.131100
948.956749	-32.987712
949.257225	-32.844848
949.557891	-32.705521
949.858748	-32.572395
950.159796	-32.447612
950.461034	-32.332701
950.762463	-32.228569
951.064084	-32.135525
951.365896	-32.053279
951.667900	-31.981131
951.970095	-31.918033
952.272483	-31.862498
952.575063	-31.812829
952.877835	-31.767229
953.180799	-31.723732
953.483956	-31.680454
953.787307	-31.635631
954.090850	-31.587463
954.394586	-31.534279
954.698516	-31.474610
955.002640	-31.407205
955.306957	-31.331194
955.611469	-31.246061
955.916174	-31.151576
956.221074	-31.047873
956.526169	-30.935572
956.831458	-30.815736
957.136942	-30.689877
957.442622	-30.559802
957.748496	-30.427455
958.054567	-30.294863
958.360833	-30.163980
958.667294	-30.036624
958.973952	-29.914375
959.280806	-29.798423
959.587857	-29.689614
959.895104	-29.588471
960.202548	-29.495118
960.510189	-29.409396
960.818027	-29.330843
961.126062	-29.258693
961.434295	-29.191956
961.742726	-29.129473
962.051355	-29.069982
962.360182	-29.012193
962.669207	-28.954810
962.978431	-28.896562
963.287854	-28.836220
963.597475	-28.772693
963.907296	-28.705116
964.217315	-28.632926
964.527535	-28.555854
964.837954	-28.474011
965.148573	-28.387958
965.459392	-28.298708
965.770411	-28.207597
966.081630	-28.116170
966.393051	-28.026078
966.704672	-27.938872
967.016494	-27.855844
967.328517	-27.777979
967.640742	-27.705887
967.953169	-27.639768
968.265797	-27.579410
968.578627	-27.524210
968.891660	-27.473272
969.204895	-27.425487
969.518332	-27.379584
969.831972	-27.334165
970.145816	-27.287822
970.459862	-27.239278
970.774112	-27.187480
971.088565	-27.131614
971.403223	-27.071153
971.718084	-27.005857
972.033149	-26.935780
972.348419	-26.861295
972.663893	-26.783201
972.979572	-26.702636
973.295456	-26.620961
973.611546	-26.539722
973.927840	-26.460593
974.244340	-26.385275
974.561046	-26.315338
974.877958	-26.251994
975.195076	-26.195957
975.512401	-26.147366
975.829932	-26.105757
976.147670	-26.070174
976.465615	-26.039267
976.783767	-26.011333
977.102126	-25.984422
977.420693	-25.956483
977.739468	-25.925572
978.058451	-25.890078
978.377642	-25.848850
978.697041	-25.801284
979.016649	-25.747403
979.336466	-25.687865
979.656492	-25.623752
979.976727	-25.556360
980.297171	-25.487136
980.617825	-25.417648
980.938689	-25.349558
981.259763	-25.284597
981.581048	-25.224437
981.902542	-25.170457
982.224248	-25.123568
982.546164	-25.084214
982.868291	-25.052409
983.190630	-25.027722
983.513180	-25.009254
983.835942	-24.995627
984.158916	-24.985149
984.482101	-24.975859
984.805500	-24.965569
985.129110	-24.952159
985.452934	-24.933835
985.776970	-24.909249
986.101220	-24.877675
986.425683	-24.839167
986.750359	-24.794536
987.075250	-24.745176
987.400354	-24.692932
987.725673	-24.639937
988.051206	-24.588340
988.376954	-24.540160
988.702916	-24.497236
989.029094	-24.460995
989.355487	-24.432314
989.682095	-24.411567
990.008919	-24.398597
990.335959	-24.392689
990.663216	-24.392510
990.990688	-24.396251
991.318377	-24.401849
991.646283	-24.407130
991.974406	-24.410013
992.302746	-24.408757
992.631304	-24.402059
992.960079	-24.389116
993.289072	-24.369788
993.618283	-24.344618
993.947713	-24.314727
994.277361	-24.281662
994.607227	-24.247274
994.937313	-24.213507
995.267618	-24.182165
995.598142	-24.154716
995.928886	-24.132093
996.259849	-24.114704
996.591033	-24.102464
996.922437	-24.094681
997.254061	-24.090186
997.585906	-24.087489
997.917972	-24.084909
998.250260	-24.080740
998.582768	-24.073493
998.915498	-24.062116
999.248450	-24.045999
999.581624	-24.025093
999.915020	-23.999950
1000.248639	-23.971716
1000.582480	-23.942018
1000.916545	-23.912643
1001.250832	-23.885374
1001.585343	-23.861787
1001.920077	-23.843005
1002.255035	-23.829659
1002.590218	-23.821890
1002.925624	-23.819214
1003.261255	-23.820515
1003.597111	-23.824295
1003.933192	-23.828863
1004.269497	-23.832346
1004.606029	-23.832968
1004.942785	-23.829403
1005.279768	-23.820891
1005.616977	-23.807330
1005.954412	-23.789441
1006.292074	-23.768615
1006.629962	-23.746648
1006.968077	-23.725615
1007.306420	-23.707656
1007.644990	-23.694587
1007.983787	-23.687741
1008.322813	-23.687797
1008.662067	-23.694589
1009.001549	-23.707187
1009.341259	-23.724061
1009.681199	-23.743226
1010.021367	-23.762425
1010.361765	-23.779433
1010.702392	-23.792203
1011.043250	-23.799263
1011.384337	-23.799998
1011.725654	-23.794609
1012.067202	-23.784109
1012.408980	-23.770243
1012.750989	-23.755111
1013.093230	-23.740814
1013.435702	-23.729402
1013.778405	-23.722487
1014.121341	-23.720921
1014.464508	-23.724683
1014.807908	-23.732919
1015.151540	-23.743966
1015.495405	-23.755733
1015.839503	-23.766032
1016.183835	-23.772863
1016.528400	-23.774710
1016.873198	-23.770747
1017.218231	-23.760950
1017.563498	-23.746078
1017.908999	-23.727784
1018.254735	-23.708359
1018.600707	-23.690245
1018.946913	-23.675557
1019.293354	-23.665770
1019.640032	-23.661427
1019.986945	-23.662193
1020.334094	-23.667063
1020.681480	-23.674332
1021.029102	-23.681708
1021.376961	-23.686785
1021.725058	-23.687396
1022.073391	-23.681985
1022.421962	-23.670118
1022.770772	-23.652534
1023.119819	-23.630946
1023.469104	-23.607830
1023.818628	-23.585935
1024.168391	-23.567755
1024.518393	-23.555152
1024.868634	-23.549333
1025.219115	-23.550687
1025.569836	-23.558523
1025.920796	-23.571128
1026.271997	-23.585867
1026.623438	-23.599619
1026.975121	-23.609468
1027.327044	-23.613355
1027.679208	-23.610328
1028.031614	-23.600797
1028.384262	-23.586274
1028.737152	-23.568870
1029.090284	-23.551054
1029.443659	-23.535296
1029.797276	-23.523698
1030.151137	-23.517648
1030.505240	-23.517424
1030.859587	-23.521984
1031.214178	-23.529091
1031.569013	-23.535904
1031.924093	-23.539629
1032.279417	-23.538028
1032.634985	-23.530047
1032.990799	-23.515763
1033.346858	-23.496092
1033.703162	-23.472972
1034.059712	-23.449013
1034.416509	-23.427120
1034.773551	-23.410125
1035.130841	-23.399874
1035.488377	-23.396590
1035.846160	-23.399003
1036.204190	-23.404500
1036.562468	-23.409732
1036.920994	-23.411503
1037.279768	-23.407208
1037.638790	-23.395334
1037.998061	-23.375779
1038.357581	-23.349834
1038.717350	-23.320039
1039.077368	-23.289810
1039.437636	-23.262716
1039.798154	-23.241710
1040.158922	-23.228304
1040.519940	-23.222246
1040.881209	-23.221610
1041.242729	-23.223451
1041.604501	-23.224566
1041.966524	-23.222093
1042.328798	-23.214011
1042.691325	-23.199625
1043.054103	-23.179636
1043.417135	-23.155996
1043.780419	-23.131599
1044.143956	-23.109682
1044.507746	-23.092948
1044.871791	-23.082820
1045.236088	-23.078994
1045.600641	-23.079367
1045.965447	-23.080668
1046.330508	-23.079303
1046.695824	-23.072175
1047.061395	-23.057309
1047.427222	-23.034012
1047.793304	-23.003127
1048.159642	-22.966929
1048.526237	-22.928731
1048.893088	-22.892260
1049.260196	-22.860757
1049.627561	-22.836064
1049.995183	-22.818152
1050.363063	-22.805030
1050.731201	-22.793500
1051.099597	-22.780066
1051.468251	-22.761744
1051.837164	-22.736674
1052.206336	-22.704304
1052.575767	-22.665594
1052.945458	-22.622871
1053.315409	-22.579328
1053.685619	-22.538436
1054.056090	-22.503009
1054.426821	-22.474323
1054.797814	-22.451791
1055.169067	-22.432960
1055.540582	-22.414295
1055.912359	-22.392351
1056.284398	-22.364848
1056.656698	-22.331215
1057.029262	-22.292723
1057.402088	-22.252123
1057.775177	-22.213032
1058.148530	-22.179192
1058.522146	-22.153281
1058.896027	-22.136286
1059.270171	-22.127213
1059.644580	-22.123265
1060.019254	-22.120643
1060.394193	-22.115690
1060.769397	-22.106001
1061.144867	-22.090920
1061.520602	-22.071504
1061.896604	-22.050098
1062.272872	-22.029576
1062.649407	-22.012664
1063.026210	-22.001334
1063.403279	-21.996270
1063.780616	-21.996670
1064.158221	-22.000273
1064.536094	-22.003854
1064.914235	-22.004118
1065.292645	-21.998731
1065.671325	-21.987093
1066.050273	-21.970515
1066.429491	-21.951701
1066.808979	-21.933828
1067.188738	-21.919420
1067.568766	-21.909642
1067.949066	-21.903906
1068.329636	-21.900006
1068.710478	-21.894917
1069.091592	-21.885570
1069.472977	-21.869862
1069.854635	-21.847264
1070.236565	-21.818817
1070.618768	-21.786701
1071.001243	-21.753452
1071.383993	-21.721473
1071.767016	-21.692229
1072.150313	-21.666087
1072.533884	-21.642261
1072.917730	-21.619024
1073.301850	-21.594275
1073.686246	-21.565841
1074.070917	-21.532430
1074.455864	-21.494200
1074.841087	-21.452931
1075.226586	-21.411387
1075.612362	-21.372419
1075.998415	-21.337987
1076.384745	-21.308175
1076.771353	-21.281388
1077.158238	-21.254917
1077.545401	-21.226177
1077.932843	-21.193934
1078.320564	-21.158868
1078.708564	-21.123559
1079.096842	-21.091514
1079.485401	-21.065656
1079.874240	-21.047065
1080.263358	-21.034356
1080.652757	-21.023757
1081.042438	-21.010550
1081.432399	-20.990784
1081.822641	-20.962931
1082.213166	-20.928666
1082.603972	-20.892274
1082.995061	-20.859071
1083.386433	-20.833745
1083.778087	-20.819013
1084.170025	-20.814946
1084.562246	-20.819129
1084.954751	-20.827117
1085.347541	-20.833469
1085.740615	-20.833042
1086.133973	-20.822745
1086.527617	-20.802487
1086.921546	-20.775258
1087.315761	-20.745681
1087.710262	-20.718027
1088.105050	-20.694563
1088.500124	-20.675063
1088.895485	-20.657469
1089.291134	-20.639349
1089.687070	-20.619464
1090.083294	-20.598321
1090.479806	-20.578255
1090.876607	-20.562327
1091.273696	-20.553445
1091.671075	-20.552991
1092.068744	-20.559461
1092.466702	-20.568192
1092.864950	-20.572173
1093.263489	-20.564313
1093.662319	-20.540727
1094.061440	-20.502497
1094.460852	-20.455450
1094.860555	-20.407847
1095.260551	-20.367058
1095.660840	-20.337495
1096.061421	-20.320023
1096.462295	-20.312897
1096.863462	-20.313227
1097.264923	-20.318187
1097.666678	-20.326147
1098.068727	-20.337084
1098.471071	-20.352402
1098.873710	-20.374159
1099.276644	-20.403109
1099.679874	-20.436852
1100.083400	-20.469118
1100.487222	-20.491614
1100.891340	-20.497408
1101.295756	-20.484492
1101.700468	-20.456662
1102.105478	-20.421600
1102.510787	-20.387520
1102.916393	-20.360840
1103.322298	-20.345792
1103.728502	-20.344684
1104.135005	-20.357705
1104.541807	-20.382436
1104.948909	-20.413943
1105.356312	-20.446740
1105.764015	-20.477817
1106.172019	-20.508819
1106.580324	-20.544560
1106.988931	-20.587723
1107.397840	-20.634201
1107.807051	-20.672230
1108.216564	-20.687580
1108.626380	-20.671897
1109.036500	-20.627982
1109.446923	-20.567826
1109.857649	-20.505317
1110.268680	-20.449315
1110.680016	-20.401732
1111.091657	-20.360534
1111.503602	-20.323949
1111.915854	-20.292354
1112.328411	-20.267530
1112.741275	-20.251077
1113.154445	-20.244246
1113.567922	-20.248845
1113.981706	-20.267263
1114.395798	-20.299659
1114.810198	-20.340697
1115.224906	-20.378759
1115.639923	-20.400153
1116.055249	-20.396489
1116.470884	-20.369607
1116.886829	-20.329113
1117.303084	-20.284847
1117.719650	-20.240634
1118.136526	-20.193961
1118.553713	-20.140873
1118.971212	-20.080812
1119.389022	-20.017697
1119.807145	-19.956799
1120.225580	-19.902088
1120.644328	-19.856780
1121.063389	-19.825739
1121.482763	-19.815619
1121.902452	-19.830507
1122.322454	-19.866091
1122.742771	-19.908107
1123.163404	-19.939268
1123.584351	-19.951258
1124.005614	-19.951509
1124.427193	-19.957227
1124.849089	-19.979317
1125.271301	-20.010071
1125.693830	-20.025232
1126.116677	-20.001623
1126.539842	-19.936395
1126.963324	-19.849953
1127.387126	-19.768697
1127.811246	-19.704484
1128.235685	-19.647975
1128.660444	-19.580724
1129.085522	-19.494907
1129.510922	-19.402205
1129.936641	-19.323480
1130.362682	-19.269851
1130.789044	-19.233747
1131.215728	-19.197385
1131.642734	-19.151668
1132.070063	-19.106698
1132.497714	-19.082666
1132.925689	-19.088999
1133.353987	-19.111076
1133.782610	-19.118065
1134.211556	-19.088718
1134.640827	-19.032242
1135.070424	-18.981637
1135.500345	-18.964235
1135.930593	-18.976430
1136.361166	-18.982747
1136.792067	-18.943320
1137.223294	-18.849560
1137.654848	-18.733770
1138.086730	-18.641932
1138.518940	-18.597204
1138.951479	-18.584140
1139.384346	-18.562494
1139.817543	-18.500954
1140.251069	-18.403693
1140.684925	-18.305460
1141.119111	-18.241829
1141.553628	-18.223150
1141.988475	-18.230075
1142.423655	-18.230585
1142.859166	-18.204892
1143.295009	-18.158906
1143.731185	-18.115877
1144.167694	-18.095929
1144.604536	-18.101336
1145.041711	-18.116276
1145.479221	-18.118969
1145.917065	-18.097581
1146.355245	-18.057366
1146.793759	-18.014581
1147.232609	-17.982794
1147.671795	-17.962159
1148.111317	-17.939111
1148.551177	-17.896858
1148.991373	-17.829459
1149.431907	-17.748225
1149.872779	-17.673495
1150.313989	-17.618309
1150.755538	-17.576910
1151.197426	-17.528107
1151.639653	-17.453289
1152.082220	-17.355221
1152.525128	-17.258827
1152.968376	-17.191320
1153.411966	-17.158830
1153.855897	-17.139514
1154.300169	-17.100041
1154.744784	-17.025450
1155.189742	-16.934913
1155.635042	-16.866246
1156.080687	-16.843842
1156.526674	-16.857323
1156.973007	-16.868036
1157.419683	-16.840937
1157.866705	-16.776653
1158.314072	-16.711687
1158.761786	-16.685577
1159.209845	-16.706996
1159.658251	-16.745705
1160.107004	-16.756728
1160.556104	-16.719629
1161.005553	-16.656491
1161.455349	-16.610396
1161.905494	-16.606676
1162.355989	-16.632205
1162.806832	-16.646852
1163.258026	-16.618400
1163.709570	-16.550999
1164.161464	-16.479111
1164.613710	-16.434802
1165.066307	-16.420841
1165.519256	-16.411099
1165.972558	-16.375207
1166.426212	-16.305769
1166.880219	-16.223023
1167.334580	-16.154285
1167.789295	-16.109916
1168.244364	-16.077530
1168.699788	-16.036161
1169.155567	-15.976237
1169.611702	-15.906802
1170.068193	-15.844946
1170.525041	-15.799307
1170.982245	-15.764597
1171.439807	-15.729327
1171.897726	-15.688013
1172.356004	-15.645387
1172.814640	-15.609780
1173.273635	-15.584056
1173.732989	-15.563394
1174.192703	-15.541725
1174.652778	-15.518762
1175.113213	-15.499837
1175.574009	-15.488972
1176.035167	-15.483466
1176.496687	-15.476204
1176.958569	-15.463289
1177.420814	-15.448673
1177.883422	-15.439767
1178.346394	-15.438912
1178.809730	-15.439714
1179.273430	-15.432763
1179.737496	-15.415182
1180.201927	-15.393824
1180.666723	-15.378082
1181.131886	-15.369537
1181.597416	-15.359627
1182.063312	-15.337849
1182.529576	-15.302580
1182.996209	-15.263017
1183.463209	-15.230020
1183.930579	-15.205109
1184.398317	-15.178818
1184.866426	-15.140383
1185.334904	-15.088942
1185.803754	-15.035091
1186.272974	-14.991059
1186.742566	-14.959313
1187.212529	-14.930771
1187.682865	-14.894182
1188.153574	-14.847377
1188.624656	-14.799634
1189.096112	-14.763042
1189.567942	-14.741681
1190.040147	-14.728641
1190.512726	-14.713022
1190.985681	-14.690292
1191.459012	-14.666207
1191.932720	-14.650778
1192.406804	-14.648959
1192.881265	-14.656426
1193.356104	-14.663835
1193.831322	-14.665179
1194.306918	-14.662291
1194.782893	-14.661865
1195.259248	-14.668582
1195.735982	-14.680689
1196.213097	-14.691759
1196.690593	-14.696417
1197.168471	-14.694357
1197.646730	-14.689680
1198.125371	-14.686513
1198.604395	-14.685192
1199.083803	-14.682382
1199.563594	-14.674365
1200.043769	-14.660223
1200.524329	-14.642660
1201.005273	-14.625542
1201.486604	-14.610815
1201.968320	-14.597123
1202.450422	-14.581320
1202.932912	-14.561643
1203.415789	-14.539729
1203.899054	-14.519618
1204.382707	-14.504515
1204.866748	-14.494146
1205.351179	-14.485023
1205.836000	-14.473789
1206.321211	-14.460586
1206.806812	-14.449177
1207.292805	-14.443189
1207.779189	-14.442486
1208.265965	-14.442870
1208.753134	-14.439972
1209.240696	-14.433394
1209.728651	-14.427150
1210.217000	-14.425387
1210.705744	-14.427928
1211.194883	-14.430083
1211.684417	-14.427216
1212.174347	-14.419704
1212.664673	-14.412406
1213.155396	-14.409716
1213.646516	-14.410798
1214.138034	-14.410352
1214.629951	-14.404009
1215.122266	-14.393080
1215.614980	-14.383404
1216.108095	-14.379179
1216.601609	-14.378506
1217.095524	-14.375360
1217.589841	-14.366020
1218.084559	-14.353192
1218.579679	-14.343035
1219.075202	-14.338916
1219.571128	-14.337592
1220.067458	-14.332684
1220.564191	-14.321356
1221.061330	-14.307381
1221.558874	-14.296833
1222.056823	-14.291377
1222.555178	-14.286422
1223.053940	-14.276185
1223.553109	-14.259709
1224.052686	-14.241963
1224.552671	-14.228124
1225.053065	-14.217709
1225.553867	-14.205197
1226.055079	-14.186429
1226.556702	-14.163380
1227.058735	-14.141931
1227.561179	-14.125330
1228.064035	-14.110783
1228.567303	-14.092618
1229.070983	-14.069102
1229.575077	-14.044639
1230.079585	-14.024736
1230.584506	-14.009677
1231.089842	-13.994298
1231.595594	-13.974147
1232.101761	-13.950651
1232.608345	-13.929699
1233.115345	-13.914744
1233.622762	-13.902589
1234.130597	-13.887068
1234.638851	-13.866384
1235.147523	-13.845261
1235.656615	-13.829477
1236.166126	-13.819030
1236.676058	-13.808025
1237.186411	-13.791503
1237.697185	-13.771276
1238.208381	-13.753792
1238.719999	-13.742521
1239.232040	-13.733789
1239.744505	-13.721196
1240.257394	-13.703138
1240.770708	-13.684571
1241.284446	-13.670894
1241.798610	-13.661540
1242.313201	-13.650958
1242.828218	-13.635335
1243.343662	-13.617301
1243.859534	-13.602411
1244.375834	-13.592202
1244.892563	-13.582582
1245.409721	-13.569223
1245.927309	-13.553208
1246.445327	-13.539514
1246.963777	-13.530677
1247.482657	-13.523398
1248.001970	-13.512786
1248.521716	-13.498797
1249.041894	-13.486485
1249.562506	-13.479419
1250.083553	-13.474964
1250.605034	-13.467328
1251.126950	-13.454773
1251.649302	-13.442039
1252.172091	-13.434303
1252.695316	-13.430620
1253.218979	-13.424716
1253.743079	-13.413038
1254.267619	-13.398999
1254.792597	-13.388714
1255.318015	-13.383201
1255.843874	-13.377123
1256.370173	-13.365556
1256.896913	-13.350202
1257.424095	-13.337068
1257.951720	-13.328528
1258.479787	-13.320443
1259.008298	-13.307534
1259.537254	-13.290223
1260.066654	-13.273795
1260.596499	-13.261364
1261.126790	-13.249802
1261.657527	-13.233964
1262.188711	-13.213616
1262.720342	-13.193536
1263.252422	-13.177045
1263.784950	-13.161738
1264.317928	-13.143093
1264.851355	-13.120690
1265.385232	-13.098866
1265.919560	-13.080780
1266.454340	-13.064215
1266.989572	-13.045064
1267.525256	-13.023284
1268.061394	-13.003008
1268.597985	-12.986656
1269.135031	-12.971644
1269.672531	-12.953847
1270.210487	-12.933772
1270.748899	-12.915934
1271.287768	-12.902223
1271.827094	-12.888999
1272.366877	-12.871869
1272.907119	-12.851904
1273.447820	-12.834361
1273.988981	-12.821316
1274.530601	-12.808278
1275.072683	-12.790350
1275.615226	-12.769102
1276.158230	-12.750516
1276.701697	-12.736852
1277.245627	-12.723476
1277.790021	-12.705309
1278.334879	-12.684083
1278.880202	-12.666087
1279.425991	-12.653294
1279.972245	-12.640908
1280.518966	-12.624193
1281.066155	-12.605075
1281.613811	-12.589288
1282.161936	-12.578126
1282.710529	-12.566620
1283.259593	-12.550717
1283.809126	-12.532837
1284.359131	-12.517711
1284.909607	-12.505325
1285.460555	-12.490968
1286.011976	-12.472189
1286.563870	-12.452044
1287.116237	-12.434008
1287.669080	-12.416377
1288.222397	-12.395183
1288.776191	-12.370500
1289.330460	-12.346284
1289.885207	-12.324122
1290.440431	-12.300519
1290.996133	-12.272681
1291.552314	-12.243625
1292.108975	-12.218007
1292.666115	-12.194938
1293.223737	-12.169167
1293.781839	-12.139469
1294.340424	-12.111390
1294.899491	-12.089410
1295.459041	-12.070037
1296.019075	-12.046869
1296.579593	-12.020643
1297.140597	-11.998436
1297.702086	-11.983180
1298.264061	-11.969171
1298.826524	-11.950571
1299.389474	-11.930302
1299.952912	-11.915377
1300.516839	-11.905926
1301.081255	-11.895250
1301.646162	-11.880047
1302.211559	-11.865217
1302.777448	-11.855617
1303.343829	-11.848267
1303.910702	-11.837431
1304.478069	-11.823729
1305.045930	-11.812558
1305.614285	-11.804931
1306.183136	-11.795853
1306.752483	-11.782893
1307.322326	-11.770199
1307.892666	-11.761102
1308.463504	-11.752282
1309.034841	-11.739563
1309.606677	-11.725363
1310.179012	-11.714675
1310.751849	-11.706288
1311.325186	-11.694535
1311.899025	-11.679330
1312.473366	-11.666874
1313.048211	-11.659147
1313.623559	-11.650147
1314.199412	-11.635919
1314.775770	-11.621901
1315.352634	-11.614187
1315.930004	-11.609054
1316.507881	-11.598933
1317.086266	-11.585399
1317.665159	-11.576876
1318.244562	-11.574613
1318.824474	-11.570485
1319.404897	-11.560808
1319.985831	-11.552566
1320.567276	-11.551363
1321.149234	-11.552004
1321.731706	-11.547684
1322.314691	-11.541545
1322.898190	-11.540557
1323.482205	-11.543078
1324.066736	-11.542018
1324.651783	-11.537516
1325.237347	-11.535941
1325.823430	-11.537727
1326.410031	-11.536421
1326.997151	-11.530654
1327.584791	-11.526417
1328.172952	-11.525488
1328.761634	-11.521642
1329.350839	-11.512222
1329.940566	-11.503502
1330.530817	-11.499074
1331.121592	-11.492954
1331.712891	-11.480583
1332.304716	-11.468078
1332.897068	-11.461520
1333.489946	-11.455904
1334.083352	-11.444467
1334.677287	-11.431722
1335.271750	-11.425858
1335.866744	-11.423978
1336.462268	-11.417606
1337.058323	-11.408604
1337.654910	-11.405570
1338.252029	-11.408012
1338.849682	-11.407501
1339.447869	-11.403321
1340.046591	-11.403168
1340.645848	-11.407828
1341.245641	-11.409800
1341.845972	-11.407546
1342.446840	-11.407686
1343.048246	-11.411202
1343.650191	-11.411050
1344.252677	-11.406177
1344.855702	-11.403503
1345.459269	-11.403985
1346.063379	-11.400373
1346.668030	-11.391720
1347.273226	-11.385958
1347.878965	-11.384581
1348.485250	-11.379866
1349.092080	-11.370510
1349.699456	-11.364954
1350.307380	-11.365425
1350.915851	-11.364015
1351.524871	-11.358877
1352.134441	-11.358190
1352.744560	-11.364028
1353.355231	-11.368529
1353.966453	-11.369753
1354.578227	-11.375345
1355.190555	-11.386632
1355.803436	-11.395629
1356.416872	-11.401106
1357.030863	-11.410527
1357.645411	-11.423959
1358.260515	-11.433269
1358.876177	-11.438551
1359.492397	-11.447655
1360.109176	-11.459467
1360.726516	-11.465753
1361.344416	-11.468233
1361.962877	-11.475341
1362.581901	-11.484955
1363.201487	-11.488922
1363.821637	-11.490471
1364.442352	-11.498161
1365.063632	-11.508900
1365.685478	-11.515120
1366.307891	-11.521022
1366.930871	-11.533923
1367.554420	-11.549170
1368.178538	-11.560440
1368.803226	-11.572901
1369.428485	-11.591483
1370.054315	-11.609905
1370.680717	-11.624067
1371.307693	-11.640300
1371.935242	-11.660420
1372.563366	-11.676874
1373.192065	-11.688779
1373.821341	-11.703727
1374.451193	-11.720493
1375.081623	-11.731040
1375.712632	-11.738495
1376.344221	-11.751126
1376.976389	-11.764566
1377.609139	-11.771418
1378.242470	-11.778308
1378.876384	-11.792636
1379.510881	-11.806972
1380.145963	-11.815527
1380.781629	-11.827014
1381.417881	-11.845934
1382.054720	-11.862789
1382.692147	-11.874500
1383.330161	-11.889893
1383.968765	-11.909089
1384.607959	-11.922864
1385.247743	-11.932673
1385.888119	-11.946123
1386.529087	-11.959034
1387.170648	-11.965330
1387.812804	-11.971257
1388.455554	-11.981022
1389.098899	-11.987173
1389.742842	-11.988711
1390.387381	-11.995088
1391.032519	-12.005670
1391.678256	-12.012082
1392.324592	-12.018589
1392.971529	-12.033370
1393.619068	-12.049818
1394.267208	-12.061179
1394.915952	-12.075504
1395.565300	-12.096092
1396.215253	-12.112638
1396.865812	-12.123756
1397.516977	-12.138941
1398.168749	-12.155423
1398.821130	-12.164335
1399.474120	-12.171634
1400.127719	-12.184649
1400.781930	-12.195745
1401.436752	-12.201634
1402.092186	-12.212438
1402.748234	-12.228643
1403.404897	-12.240985
1404.062174	-12.253622
1404.720067	-12.275177
1405.378577	-12.298309
1406.037705	-12.316838
1406.697451	-12.339312
1407.357817	-12.366779
1408.018803	-12.388341
1408.680410	-12.405717
1409.342639	-12.427937
1410.005492	-12.449635
1410.668968	-12.465305
1411.333068	-12.483859
1411.997795	-12.507459
1412.663147	-12.526745
1413.329127	-12.544611
1413.995736	-12.569550
1414.662973	-12.595343
1415.330840	-12.617932
1415.999339	-12.648097
1416.668469	-12.686538
1417.338232	-12.722197
1418.008628	-12.758163
1418.679659	-12.801486
1419.351325	-12.841407
1420.023628	-12.871503
1420.696568	-12.902630
1421.370145	-12.935470
1422.044362	-12.960506
1422.719219	-12.984804
1423.394717	-13.017982
1424.070856	-13.052022
1424.747638	-13.083917
1425.425064	-13.123354
1426.103134	-13.166889
1426.781850	-13.205146
1427.461212	-13.244484
1428.141221	-13.287917
1428.821878	-13.325021
1429.503185	-13.357349
1430.185141	-13.393557
1430.867749	-13.426254
1431.551008	-13.451207
1432.234920	-13.479871
1432.919486	-13.512159
1433.604707	-13.538972
1434.290583	-13.568223
1434.977116	-13.606254
1435.664307	-13.641946
1436.352156	-13.674831
1437.040664	-13.714736
1437.729833	-13.754549
1438.419663	-13.787589
1439.110156	-13.824644
1439.801312	-13.866125
1440.493132	-13.902005
1441.185617	-13.938814
1441.878768	-13.982135
1442.572586	-14.020934
1443.267072	-14.055611
1443.962228	-14.096359
1444.658053	-14.137072
1445.354549	-14.174944
1446.051717	-14.222781
1446.749558	-14.279938
1447.448073	-14.337799
1448.147263	-14.402983
1448.847128	-14.474532
1449.547671	-14.537227
1450.248891	-14.591129
1450.950789	-14.639939
1451.653368	-14.673017
1452.356627	-14.694462
1453.060568	-14.721093
1453.765192	-14.752119
1454.470500	-14.789862
1455.176492	-14.850817
1455.883170	-14.931060
1456.590534	-15.015466
1457.298586	-15.105272
1458.007327	-15.190840
1458.716758	-15.247755
1459.426880	-15.274461
1460.137693	-15.276508
1460.849199	-15.248616
1461.561398	-15.205744
1462.274293	-15.172784
1462.987883	-15.155795
1463.702170	-15.165304
1464.417155	-15.216177
1465.132838	-15.299355
1465.849222	-15.402592
1466.566306	-15.522134
1467.284093	-15.634026
1468.002582	-15.713400
1468.721775	-15.759655
1469.441674	-15.765723
1470.162278	-15.728169
1470.883590	-15.674329
1471.605609	-15.624368
1472.328338	-15.585112
1473.051777	-15.580070
1473.775928	-15.621528
1474.500790	-15.697610
1475.226367	-15.806381
1475.952657	-15.939455
1476.679663	-16.063210
1477.407386	-16.156793
1478.135826	-16.208522
1478.864985	-16.196735
1479.594863	-16.128122
1480.325463	-16.030318
1481.056784	-15.919645
1481.788828	-15.827302
1482.521597	-15.791645
1483.255090	-15.825870
1483.989309	-15.943838
1484.724256	-16.161611
1485.459931	-16.461642
1486.196336	-16.812648
1486.933471	-17.178101
1487.671337	-17.477194
1488.409937	-17.622220
1489.149270	-17.565303
1489.889337	-17.283688
1490.630141	-16.819852
1491.371682	-16.266822
1492.113961	-15.694120
1492.856979	-15.160792
1493.600738	-14.716097
1494.345238	-14.373447
1495.090481	-14.140118
1495.836467	-14.029123
1496.583198	-14.035766
1497.330675	-14.155659
1498.078899	-14.396078
1498.827872	-14.746666
1499.577593	-15.187924
1500.328065	-15.706018
1501.079289	-16.257760
1501.831265	-16.779693
1502.583995	-17.219233
1503.337480	-17.509488
1504.091721	-17.609084
1504.846719	-17.544154
1505.602475	-17.355753
1506.358991	-17.107004
1507.116268	-16.873167
1507.874306	-16.689509
1508.633108	-16.582059
1509.392673	-16.572872
1510.153004	-16.650350
1510.914101	-16.801482
1511.675965	-17.003878
1512.438599	-17.188402
1513.202002	-17.275119
1513.966176	-17.173267
1514.731122	-16.794492
1515.496842	-16.141286
1516.263336	-15.276646
1517.030607	-14.283618
1517.798654	-13.258780
1518.567479	-12.262526
1519.337083	-11.328170
1520.107468	-10.483867
1520.878634	-9.736868
1521.650584	-9.085824
1522.423317	-8.533757
1523.196836	-8.076432
1523.971141	-7.710263
1524.746233	-7.439709
1525.522115	-7.265238
1526.298786	-7.187296
1527.076249	-7.211354
1527.854504	-7.337389
1528.633553	-7.565606
1529.413397	-7.904473
1530.194037	-8.361339
1530.975474	-8.946574
1531.757709	-9.679418
1532.540745	-10.572549
1533.324581	-11.628244
1534.109220	-12.834755
1534.894662	-14.120846
1535.680909	-15.292060
1536.467961	-15.996115
1537.255821	-15.882986
1538.044489	-14.986002
1538.833967	-13.695461
1539.624256	-12.357929
1540.415357	-11.133090
1541.207271	-10.071870
1542.000000	-9.180616
1542.793545	-8.441727
1543.587907	-7.838763
1544.383087	-7.363034
1545.179088	-7.003338
1545.975909	-6.752562
1546.773552	-6.606472
1547.572019	-6.554657
1548.371311	-6.590037
1549.171428	-6.709616
1549.972373	-6.908528
1550.774147	-7.188431
1551.576751	-7.551470
1552.380185	-7.993181
1553.184453	-8.511706
1553.989554	-9.100435
1554.795490	-9.748030
1555.602263	-10.449457
1556.409873	-11.190043
1557.218322	-11.946630
1558.027612	-12.689708
1558.837743	-13.363299
1559.648717	-13.909991
1560.460536	-14.280040
1561.273200	-14.440637
1562.086710	-14.411975
1562.901069	-14.234480
1563.716278	-13.963127
1564.532337	-13.653606
1565.349249	-13.334394
1566.167014	-13.032143
1566.985634	-12.762539
1567.805111	-12.533942
1568.625444	-12.362216
1569.446637	-12.249127
1570.268690	-12.192765
1571.091605	-12.189627
1571.915382	-12.226085
1572.740024	-12.300629
1573.565532	-12.414136
1574.391907	-12.565246
1575.219150	-12.758557
1576.047262	-12.983810
1576.876246	-13.229467
1577.706103	-13.490793
1578.536833	-13.758696
1579.368439	-14.038305
1580.200922	-14.330223
1581.034282	-14.622096
1581.868522	-14.906641
1582.703643	-15.166160
1583.539646	-15.394599
1584.376532	-15.599820
1585.214304	-15.778819
1586.052962	-15.934499
1586.892508	-16.056273
1587.732943	-16.130183
1588.574269	-16.161605
1589.416487	-16.152768
1590.259599	-16.118251
1591.103605	-16.064629
1591.948508	-15.983033
1592.794309	-15.873811
1593.641009	-15.731726
1594.488609	-15.569010
1595.337112	-15.403020
1596.186518	-15.238209
1597.036829	-15.081667
1597.888047	-14.923885
1598.740172	-14.763706
1599.593207	-14.611009
1600.447153	-14.471437
1601.302010	-14.358442
1602.157782	-14.267168
1603.014469	-14.188630
1603.872072	-14.119848
1604.730593	-14.057157
1605.590034	-14.012647
1606.450397	-13.988919
1607.311681	-13.980973
1608.173890	-13.981401
1609.037024	-13.978030
1609.901085	-13.976609
1610.766075	-13.981854
1611.631995	-13.995741
1612.498846	-14.013143
1613.366630	-14.016758
1614.235349	-14.005503
1615.105004	-13.982544
1615.975596	-13.956596
1616.847128	-13.931980
1617.719600	-13.895764
1618.593014	-13.845914
1619.467372	-13.785246
1620.342675	-13.727300
1621.218924	-13.684230
1622.096122	-13.647914
1622.974270	-13.612320
1623.853369	-13.571742
1624.733420	-13.535540
1625.614427	-13.516584
1626.496389	-13.510987
1627.379308	-13.511670
1628.263187	-13.506213
1629.148026	-13.499840
1630.033828	-13.504599
1630.920593	-13.521269
1631.808324	-13.544445
1632.697022	-13.558313
1633.586688	-13.566014
1634.477324	-13.578944
1635.368932	-13.603844
1636.261514	-13.639493
1637.155070	-13.671489
1638.049602	-13.704137
1638.945113	-13.747870
1639.841603	-13.812551
1640.739075	-13.894448
1641.637529	-13.974770
1642.536968	-14.051861
1643.437393	-14.130314
1644.338806	-14.220018
1645.241209	-14.312244
1646.144602	-14.388069
1647.048988	-14.445271
1647.954368	-14.491588
1648.860744	-14.542332
1649.768118	-14.587410
1650.676491	-14.614103
1651.585865	-14.623490
1652.496241	-14.631514
1653.407621	-14.657093
1654.320008	-14.689794
1655.233401	-14.721411
1656.147804	-14.751528
1657.063218	-14.797991
1657.979645	-14.869804
1658.897085	-14.950401
1659.815542	-15.026598
1660.735016	-15.094893
1661.655509	-15.172329
1662.577023	-15.255547
1663.499560	-15.328695
1664.423121	-15.380997
1665.347709	-15.422350
1666.273324	-15.470976
1667.199969	-15.515834
1668.127645	-15.543312
1669.056353	-15.548876
1669.986097	-15.555882
1670.916877	-15.574846
1671.848695	-15.593150
1672.781553	-15.600606
1673.715452	-15.604074
1674.650395	-15.625064
1675.586383	-15.655559
1676.523418	-15.679267
1677.461501	-15.689382
1678.400635	-15.705077
1679.340821	-15.733714
1680.282061	-15.757040
1681.224357	-15.762499
1682.167710	-15.757745
1683.112122	-15.763300
1684.057595	-15.767071
1685.004132	-15.753255
1685.951732	-15.722554
1686.900400	-15.697078
1687.850135	-15.680524
1688.800940	-15.655900
1689.752818	-15.621806
1690.705768	-15.591740
1691.659795	-15.574088
1692.614898	-15.547844
1693.571081	-15.507756
1694.528345	-15.467764
1695.486691	-15.442705
1696.446122	-15.418195
1697.406640	-15.380745
1698.368245	-15.342423
1699.330941	-15.313692
1700.294729	-15.286760
1701.259611	-15.245421
1702.225588	-15.203188
1703.192664	-15.169152
1704.160838	-15.134898
1705.130114	-15.085074
1706.100493	-15.032080
1707.071977	-14.989587
1708.044568	-14.947529
1709.018268	-14.895098
1709.993079	-14.841607
1710.969003	-14.802643
1711.946041	-14.765473
1712.924196	-14.721767
1713.903469	-14.676247
1714.883862	-14.638404
1715.865378	-14.595244
1716.848017	-14.546495
1717.831783	-14.504583
1718.816677	-14.472752
1719.802701	-14.435550
1720.789857	-14.390126
1721.778147	-14.351088
1722.767573	-14.316388
1723.758136	-14.277767
1724.749840	-14.235809
1725.742685	-14.201159
1726.736673	-14.162561
1727.731808	-14.118321
1728.728090	-14.077617
1729.725521	-14.048058
1730.724105	-14.014496
1731.723842	-13.977738
1732.724735	-13.946329
1733.726785	-13.918569
1734.729995	-13.884773
1735.734366	-13.852414
1736.739902	-13.827086
1737.746603	-13.798741
1738.754472	-13.766985
1739.763510	-13.739720
1740.773721	-13.714047
1741.785105	-13.680446
1742.797665	-13.650921
1743.811403	-13.627927
1744.826321	-13.602294
1745.842422	-13.572017
1746.859706	-13.550120
1747.878177	-13.527440
1748.897835	-13.500445
1749.918685	-13.478419
1750.940726	-13.462507
1751.963963	-13.436795
1752.988395	-13.410413
1754.014027	-13.392023
1755.040860	-13.372137
1756.068895	-13.347683
1757.098135	-13.332264
1758.128583	-13.316043
1759.160240	-13.291567
1760.193109	-13.273463
1761.227191	-13.262954
1762.262488	-13.244705
1763.299004	-13.227501
1764.336740	-13.217040
1765.375697	-13.198564
1766.415880	-13.179683
1767.457288	-13.173750
1768.499926	-13.162446
1769.543794	-13.141333
1770.588895	-13.131040
1771.635231	-13.122518
1772.682805	-13.106340
1773.731619	-13.098374
1774.781674	-13.091574
1775.832973	-13.072052
1776.885519	-13.061735
1777.939312	-13.059550
1778.994357	-13.045186
1780.050654	-13.033070
1781.108207	-13.029631
1782.167017	-13.016033
1783.227087	-13.006376
1784.288418	-13.004673
1785.351013	-12.991655
1786.414875	-12.981160
1787.480006	-12.981077
1788.546407	-12.967795
1789.614082	-12.957366
1790.683032	-12.958446
1791.753259	-12.947503
1792.824767	-12.937743
1793.897557	-12.938941
1794.971632	-12.927256
1796.046994	-12.920655
1797.123645	-12.923689
1798.201588	-12.910821
1799.280824	-12.903376
1800.361357	-12.907808
1801.443188	-12.897092
1802.526320	-12.892158
1803.610756	-12.893821
1804.696497	-12.882656
1805.783546	-12.882257
1806.871906	-12.883472
1807.961578	-12.871670
1809.052565	-12.873918
1810.144870	-12.874198
1811.238494	-12.865313
1812.333441	-12.871468
1813.429713	-12.868888
1814.527311	-12.863341
1815.626239	-12.871014
1816.726499	-12.866724
1817.828094	-12.867358
1818.931025	-12.875776
1820.035295	-12.867576
1821.140906	-12.873667
1822.247862	-12.881172
1823.356165	-12.875464
1824.465816	-12.882672
1825.576819	-12.883333
1826.689175	-12.883293
1827.802888	-12.894719
1828.917960	-12.888606
1830.034394	-12.891964
1831.152191	-12.901288
1832.271354	-12.897537
1833.391887	-12.905377
1834.513790	-12.906216
1835.637068	-12.908056
1836.761722	-12.918794
1837.887755	-12.913904
1839.015169	-12.919287
1840.143968	-12.925358
1841.274153	-12.924103
1842.405727	-12.934163
1843.538693	-12.933236
1844.673053	-12.940124
1845.808810	-12.948310
1846.945966	-12.947558
1848.084525	-12.957625
1849.224488	-12.958670
1850.365858	-12.966365
1851.508638	-12.975309
1852.652831	-12.977076
1853.798438	-12.989884
1854.945463	-12.992579
1856.093909	-13.003211
1857.243777	-13.012063
1858.395071	-13.015936
1859.547794	-13.031184
1860.701947	-13.033618
1861.857533	-13.047379
1863.014556	-13.054414
1864.173018	-13.060569
1865.332922	-13.075449
1866.494270	-13.077760
1867.657065	-13.092991
1868.821309	-13.096554
1869.987006	-13.107554
1871.154158	-13.117772
1872.322768	-13.120058
1873.492839	-13.135100
1874.664373	-13.136979
1875.837373	-13.150374
1877.011841	-13.152292
1878.187782	-13.161630
1879.365197	-13.171234
1880.544089	-13.172841
1881.724460	-13.186582
1882.906315	-13.186637
1884.089655	-13.201064
1885.274483	-13.201686
1886.460803	-13.214269
1887.648616	-13.219719
1888.837927	-13.225848
1890.028736	-13.238691
1891.221049	-13.239074
1892.414866	-13.254863
1893.610192	-13.254647
1894.807028	-13.272846
1896.005379	-13.271833
1897.205246	-13.287518
1898.406633	-13.293083
1899.609542	-13.302617
1900.813977	-13.313769
1902.019940	-13.319723
1903.227434	-13.336531
1904.436462	-13.334860
1905.647028	-13.356262
1906.859133	-13.353294
1908.072781	-13.375989
1909.287976	-13.373276
1910.504719	-13.392934
1911.723013	-13.393498
1912.942863	-13.408923
1914.164270	-13.412656
1915.387238	-13.423331
1916.611770	-13.432652
1917.837868	-13.435111
1919.065536	-13.446990
1920.294777	-13.448318
1921.525594	-13.462237
1922.757989	-13.459487
1923.991967	-13.476962
1925.227529	-13.470451
1926.464679	-13.487274
1927.703420	-13.481972
1928.943755	-13.499800
1930.185688	-13.492245
1931.429221	-13.510725
1932.674356	-13.502435
1933.921099	-13.522223
1935.169451	-13.515681
1936.419415	-13.533288
1937.670996	-13.525479
1938.924195	-13.543406
1940.179017	-13.536062
1941.435463	-13.557273
1942.693538	-13.550149
1943.953245	-13.566651
1945.214586	-13.561380
1946.477566	-13.579942
1947.742186	-13.575150
1949.008451	-13.595877
1950.276363	-13.586425
1951.545926	-13.596642
1952.817143	-13.600074
1954.090017	-13.617332
1955.364551	-13.610951
1956.640749	-13.618153
1957.918615	-13.622616
1959.198150	-13.628508
1960.479359	-13.632099
1961.762244	-13.627060
1963.046810	-13.635628
1964.333059	-13.629773
1965.620995	-13.634953
1966.910621	-13.624304
1968.201940	-13.635631
1969.494956	-13.620116
1970.789672	-13.628140
1972.086091	-13.616582
1973.384217	-13.616242
1974.684053	-13.611943
1975.985602	-13.606748
1977.288869	-13.605379
1978.593855	-13.592880
1979.900566	-13.597751
1981.209003	-13.583234
1982.519171	-13.588485
1983.831073	-13.573375
1985.144712	-13.575040
1986.460093	-13.567128
1987.777217	-13.559047
1989.096089	-13.561527
1990.416713	-13.545183
1991.739092	-13.553597
1993.063228	-13.536020
1994.389127	-13.538406
1995.716791	-13.530311
1997.046223	-13.522747
1998.377428	-13.524775
1999.710409	-13.505757
2001.045169	-13.511962
2002.381713	-13.493847
2003.720043	-13.492687
2005.060163	-13.484346
2006.402077	-13.464646
2007.745788	-13.466777
2009.091301	-13.440860
2010.438618	-13.438432
2011.787743	-13.422886
2013.138680	-13.402302
2014.491433	-13.401922
2015.846005	-13.374124
2017.202399	-13.370089
2018.560621	-13.353615
2019.920673	-13.333093
2021.282558	-13.332431
2022.646281	-13.306732
2024.011846	-13.302221
2025.379256	-13.292428
2026.748515	-13.270937
2028.119626	-13.272012
2029.492594	-13.251927
2030.867422	-13.242582
2032.244114	-13.243574
2033.622673	-13.219434
2035.003104	-13.218313
2036.385411	-13.211181
2037.769597	-13.194804
2039.155665	-13.202381
2040.543621	-13.180675
2041.933467	-13.170092
2043.325208	-13.174842
2044.718847	-13.153183
2046.114389	-13.149086
2047.511837	-13.141969
2048.911195	-13.119390
2050.312467	-13.116842
2051.715657	-13.105985
2053.120769	-13.079592
2054.527807	-13.075022
2055.936775	-13.059518
2057.347677	-13.032732
2058.760516	-13.028981
2060.175297	-13.011018
2061.592025	-12.984656
2063.010701	-12.980840
2064.431332	-12.962257
2065.853921	-12.938358
2067.278472	-12.937599
2068.704988	-12.923812
2070.133475	-12.901386
2071.563936	-12.901984
2072.996375	-12.895866
2074.430796	-12.875212
2075.867204	-12.875818
2077.305603	-12.874634
2078.745996	-12.855707
2080.188389	-12.855891
2081.632784	-12.864181
2083.079187	-12.845757
2084.527601	-12.839771
2085.978030	-12.850059
2087.430480	-12.840312
2088.884954	-12.824868
2090.341455	-12.833648
2091.799990	-12.832659
2093.260561	-12.811741
2094.723173	-12.811316
2096.187831	-12.817411
2097.654538	-12.798570
2099.123300	-12.783069
2100.594119	-12.788280
2102.067001	-12.783323
2103.541950	-12.760094
2105.018971	-12.753512
2106.498067	-12.757722
2107.979243	-12.742749
2109.462503	-12.724332
2110.947853	-12.726821
2112.435295	-12.731940
2113.924836	-12.715542
2115.416478	-12.701877
2116.910227	-12.713238
2118.406087	-12.720469
2119.904063	-12.708179
2121.404158	-12.699504
2122.906378	-12.717027
2124.410727	-12.729376
2125.917210	-12.721267
2127.425831	-12.714191
2128.936594	-12.729967
2130.449505	-12.748838
2131.964567	-12.744229
2133.481786	-12.734945
2135.001166	-12.746482
2136.522711	-12.768753
2138.046427	-12.772045
2139.572317	-12.759781
2141.100388	-12.760436
2142.630642	-12.779400
2144.163085	-12.791491
2145.697722	-12.782453
2147.234558	-12.770975
2148.773596	-12.776362
2150.314842	-12.796945
2151.858301	-12.802011
2153.403977	-12.791419
2154.951875	-12.782559
2156.502000	-12.792824
2158.054357	-12.817729
2159.608950	-12.827249
2161.165785	-12.820665
2162.724866	-12.814744
2164.286198	-12.831514
2165.849786	-12.861257
2167.415635	-12.884323
2168.983749	-12.889740
2170.554134	-12.884361
2172.126795	-12.896971
2173.701737	-12.924119
2175.278964	-12.956665
2176.858481	-12.980478
2178.440294	-12.984756
2180.024408	-12.987260
2181.610827	-12.999479
2183.199557	-13.029117
2184.790602	-13.064320
2186.383968	-13.092464
2187.979660	-13.101172
2189.577683	-13.098149
2191.178041	-13.104020
2192.780741	-13.122079
2194.385787	-13.151396
2195.993185	-13.183157
2197.602939	-13.204983
2199.215054	-13.211704
2200.829537	-13.208391
2202.446392	-13.211324
2204.065624	-13.225823
2205.687239	-13.249650
2207.311242	-13.291981
2208.937638	-13.333912
2210.566433	-13.363286
2212.197631	-13.382679
2213.831239	-13.397012
2215.467261	-13.409089
2217.105703	-13.422178
2218.746570	-13.452168
2220.389867	-13.501459
2222.035601	-13.557782
2223.683776	-13.610188
2225.334398	-13.656011
2226.987472	-13.697629
2228.643004	-13.723446
2230.300999	-13.730642
2231.961463	-13.740349
2233.624402	-13.757230
2235.289820	-13.777615
2236.957723	-13.801186
2238.628118	-13.838888
2240.301009	-13.892166
2241.976402	-13.945924
2243.654303	-13.992071
2245.334717	-14.039320
2247.017650	-14.093704
2248.703108	-14.142196
2250.391096	-14.170324
2252.081620	-14.186245
2253.774686	-14.211695
2255.470300	-14.243413
2257.168467	-14.262274
2258.869193	-14.260415
2260.572484	-14.263414
2262.278345	-14.293657
2263.986783	-14.338130
2265.697804	-14.370353
2267.411412	-14.386651
2269.127615	-14.404924
2270.846417	-14.452196
2272.567826	-14.525090
2274.291846	-14.599446
2276.018484	-14.654323
2277.747745	-14.690022
2279.479637	-14.736288
2281.214164	-14.813497
2282.951333	-14.914224
2284.691149	-15.015754
2286.433619	-15.089416
2288.178750	-15.143930
2289.926546	-15.197850
2291.677014	-15.266790
2293.430161	-15.360741
2295.185992	-15.468455
2296.944513	-15.575486
2298.705732	-15.662014
2300.469653	-15.726931
2302.236283	-15.779393
2304.005629	-15.836127
2305.777696	-15.903064
2307.552492	-15.976093
2309.330022	-16.050583
2311.110292	-16.116830
2312.893310	-16.171784
2314.679080	-16.212627
2316.467611	-16.242546
2318.258907	-16.265891
2320.052976	-16.287672
2321.849824	-16.319173
2323.649457	-16.364909
2325.451883	-16.427365
2327.257106	-16.505424
2329.065135	-16.597374
2330.875975	-16.694743
2332.689633	-16.794189
2334.506116	-16.884585
2336.325430	-16.952308
2338.147581	-16.995906
2339.972578	-17.023889
2341.800425	-17.043711
2343.631130	-17.064941
2345.464700	-17.100550
2347.301141	-17.161283
2349.140461	-17.250680
2350.982665	-17.352507
2352.827760	-17.456048
2354.675754	-17.556175
2356.526653	-17.651427
2358.380464	-17.737078
2360.237195	-17.820407
2362.096851	-17.924269
2363.959440	-18.056164
2365.824968	-18.207782
2367.693444	-18.351346
2369.564873	-18.476718
2371.439263	-18.576637
2373.316620	-18.657634
2375.196953	-18.733189
2377.080267	-18.830342
2378.966570	-18.955973
2380.855869	-19.076548
2382.748171	-19.166934
2384.643484	-19.226168
2386.541815	-19.279245
2388.443170	-19.345535
2390.347557	-19.444889
2392.254984	-19.562111
2394.165457	-19.657832
2396.078984	-19.717812
2397.995572	-19.771287
2399.915229	-19.856463
2401.837961	-19.974184
2403.763777	-20.086233
2405.692684	-20.162315
2407.624689	-20.223156
2409.559800	-20.321666
2411.498023	-20.464228
2413.439368	-20.611765
2415.383840	-20.726870
2417.331449	-20.837747
2419.282201	-20.988214
2421.236104	-21.177952
2423.193165	-21.342182
2425.153393	-21.443942
2427.116795	-21.535927
2429.083378	-21.661440
2431.053151	-21.771017
2433.026121	-21.814733
2435.002297	-21.852098
2436.981685	-21.956434
2438.964293	-22.094095
2440.950131	-22.193852
2442.939204	-22.287603
2444.931522	-22.438035
2446.927092	-22.580343
2448.925923	-22.640495
2450.928022	-22.695977
2452.933397	-22.838602
2454.942056	-22.997338
2456.954008	-23.124257
2458.969260	-23.302609
2460.987821	-23.514195
2463.009699	-23.622809
2465.034902	-23.691697
2467.063437	-23.847730
2469.095315	-24.025447
2471.130542	-24.165954
2473.169127	-24.365797
2475.211078	-24.540996
2477.256404	-24.571052
2479.305112	-24.632151
2481.357212	-24.816506
2483.412713	-24.975007
2485.471621	-25.130060
2487.533946	-25.292874
2489.599696	-25.314746
2491.668880	-25.348796
2493.741507	-25.533946
2495.817585	-25.682619
2497.897122	-25.793936
2499.980127	-25.903890
2502.066609	-25.923164
2504.156578	-26.061910
2506.250040	-26.323858
2508.347006	-26.461032
2510.447483	-26.609731
2512.551482	-26.759718
2514.659010	-26.912465
2516.770076	-27.219738
2518.884690	-27.400257
2521.002861	-27.503100
2523.124597	-27.707270
2525.249907	-27.852520
2527.378801	-28.086563
2529.511287	-28.205677
2531.647375	-28.272715
2533.787074	-28.499045
2535.930393	-28.633190
2538.077340	-28.785560
2540.227927	-28.853136
2542.382160	-28.981142
2544.540051	-29.152032
2546.701608	-29.152934
2548.866840	-29.282776
2551.035757	-29.359655
2553.208369	-29.530630
2555.384684	-29.593113
2557.564713	-29.720643
2559.748465	-29.949352
2561.935948	-30.069800
2564.127174	-30.307367
2566.322152	-30.484871
2568.520890	-30.798493
2570.723399	-30.906786
2572.929689	-31.205274
2575.139769	-31.374949
2577.353649	-31.636151
2579.571340	-31.802266
2581.792849	-32.079068
2584.018189	-32.210626
2586.247368	-32.424609
2588.480396	-32.583520
2590.717284	-32.785710
2592.958041	-32.916715
2595.202678	-33.102313
2597.451204	-33.157071
2599.703630	-33.295311
2601.959966	-33.313957
2604.220222	-33.417786
2606.484408	-33.405530
2608.752535	-33.550535
2611.024612	-33.550151
2613.300651	-33.778961
2615.580661	-33.821088
2617.864653	-34.099045
2620.152638	-34.228285
2622.444625	-34.528394
2624.740626	-34.718237
2627.040651	-34.965032
2629.344710	-35.251440
2631.652814	-35.455939
2633.964974	-35.817132
2636.281200	-35.997441
2638.601504	-36.364607
2640.925896	-36.587156
2643.254386	-36.884664
2645.586987	-37.202995
2647.923707	-37.390727
2650.264559	-37.754154
2652.609554	-37.857147
2654.958702	-38.038173
2657.312015	-38.207336
2659.669503	-38.077702
2662.031178	-38.193840
2664.397051	-38.105392
2666.767132	-38.070093
2669.141434	-38.211825
2671.519968	-38.149316
2673.902745	-38.291314
2676.289776	-38.480866
2678.681072	-38.505240
2681.076646	-38.754117
2683.476508	-38.917774
2685.880671	-39.040635
2688.289145	-39.415841
2690.701942	-39.583160
2693.119075	-39.783659
2695.540554	-40.243281
2697.966391	-40.528882
2700.396599	-40.787781
2702.831189	-41.374899
2705.270172	-41.795592
2707.713561	-42.153162
2710.161368	-42.777193
2712.613605	-43.286605
2715.070283	-43.540782
2717.531416	-43.720617
2719.997014	-43.954036
2722.467090	-43.883658
2724.941657	-43.748733
2727.420726	-43.832934
2729.904310	-43.874764
2732.392421	-43.734297
2734.885072	-43.652102
2737.382275	-43.802250
2739.884042	-43.770663
2742.390387	-43.654253
2744.901321	-43.669834
2747.416857	-43.796417
2749.937008	-43.909432
2752.461787	-43.808805
2754.991206	-43.930205
2757.525279	-44.197306
2760.064017	-44.431250
2762.607434	-44.639048
2765.155544	-44.916060
2767.708358	-45.484163
2770.265890	-46.233791
2772.828153	-46.947554
2775.395160	-47.485345
2777.966924	-48.117106
2780.543459	-48.674352
2783.124778	-49.284182
2785.710894	-49.801806
2788.301821	-49.980013
2790.897572	-50.218345
2793.498160	-50.465140
2796.103599	-50.691112
2798.713903	-51.035356
2801.329085	-51.104350
2803.949159	-50.990775
2806.574139	-50.684201
2809.204038	-50.396798
2811.838871	-50.115518
2814.478650	-49.890148
2817.123391	-49.725878
2819.773107	-49.530622
2822.427812	-49.204632
2825.087521	-48.953361
2827.752247	-48.941795
2830.422005	-49.094729
2833.096808	-49.419721
2835.776672	-49.953249
2838.461611	-50.599801
2841.151638	-51.193268
2843.846769	-51.624338
2846.547019	-52.070474
2849.252401	-52.573661
2851.962930	-52.881335
2854.678621	-53.445643
2857.399489	-53.942552
2860.125549	-54.429382
2862.856815	-55.110341
2865.593302	-55.976505
2868.335026	-56.980250
2871.082002	-57.985197
2873.834244	-59.006259
2876.591767	-60.128679
2879.354588	-59.949143
2882.122721	-59.777123
2884.896181	-58.332435
2887.674984	-57.057526
2890.459146	-56.442304
2893.248681	-55.761459
2896.043606	-55.735330
2898.843937	-55.742582
2901.649687	-56.001412
2904.460875	-56.174950
2907.277515	-56.258895
2910.099623	-56.387851
2912.927215	-56.453335
2915.760308	-56.699351
2918.598916	-56.828518
2921.443057	-56.763245
2924.292747	-56.923322
2927.148002	-56.840943
2930.008837	-57.020446
2932.875270	-57.309171
2935.747318	-57.629216
2938.624995	-58.249836
2941.508320	-59.102635
2944.397308	-60.463550
2947.291977	-62.753247
2950.192343	-65.622088
2953.098423	-67.821099
2956.010234	-70.123751
2958.927792	-67.885379
2961.851116	-66.435118
2964.780221	-66.563545
2967.715126	-65.635762
2970.655847	-66.274529
2973.602402	-66.245201
2976.554808	-65.690835
2979.513083	-65.530980
2982.477243	-65.158008
2985.447308	-65.192805
2988.423293	-65.678775
2991.405218	-66.053086
2994.393099	-66.008042
2997.386955	-65.382858
