# 2022-03-22_10.47.34
# shape = sech2
# FWHM_ps = 0.11
# carrier_nm = 1542
# frep_MHz = 12126
# pow_mW = 8000
# GDD = 0.0
# propa_len = 0.13244444444444445
# untap_len = 0.01
# taper_len = 0.07244444444444445
# waist_len = 0.02
# uptap_len = 0.02
# untap_scale = 1.0
# waist_scale = 0.1
# workingDir = NL_20110305_12 (Spirou)
# axis = slow
# window_ps = 10.0
# steps = 200
# points = 21700
# 
# wavelength [nm]	 power spectral density [dB]
600.043425	-109.409393
600.163550	-90.733457
600.283723	-83.420809
600.403943	-95.519448
600.524212	-95.343843
600.644529	-87.760305
600.764895	-82.496614
600.885308	-85.600572
601.005770	-84.786635
601.126280	-88.538708
601.246839	-86.123669
601.367446	-94.985730
601.488101	-91.749188
601.608804	-81.833641
601.729557	-82.310661
601.850357	-92.275339
601.971206	-89.736134
602.092104	-80.567261
602.213050	-84.087167
602.334045	-86.879545
602.455089	-83.249864
602.576181	-93.909315
602.697322	-93.113463
602.818511	-85.355637
602.939749	-85.249586
603.061036	-83.908977
603.182372	-85.271259
603.303757	-88.711292
603.425191	-87.568933
603.546673	-91.089826
603.668204	-89.358146
603.789785	-91.434838
603.911414	-88.732715
604.033092	-85.843583
604.154820	-89.896083
604.276596	-93.954710
604.398422	-88.252817
604.520297	-88.597759
604.642220	-86.018248
604.764193	-83.680208
604.886216	-91.433847
605.008287	-94.723221
605.130408	-95.547583
605.252578	-92.956266
605.374798	-87.472947
605.497066	-83.605591
605.619385	-82.168303
605.741752	-85.118998
605.864169	-86.846704
605.986636	-87.537633
606.109152	-89.855787
606.231718	-88.382827
606.354333	-85.501656
606.476998	-85.155547
606.599712	-88.545502
606.722476	-95.027889
606.845290	-94.146545
606.968154	-89.726027
607.091067	-87.004896
607.214030	-89.961548
607.337043	-83.523896
607.460106	-80.391401
607.583219	-84.355588
607.706381	-96.291153
607.829594	-92.489214
607.952856	-90.024032
608.076169	-84.138301
608.199531	-84.199884
608.322944	-88.533201
608.446407	-89.287375
608.569920	-84.768138
608.693483	-89.044451
608.817096	-91.761785
608.940759	-88.498537
609.064473	-83.949621
609.188237	-86.161680
609.312051	-81.513693
609.435916	-80.920761
609.559831	-85.527591
609.683796	-86.066125
609.807812	-90.558075
609.931878	-82.643498
610.055995	-85.457454
610.180162	-106.354275
610.304380	-88.899288
610.428648	-87.636291
610.552967	-94.973666
610.677337	-83.175370
610.801757	-87.020659
610.926228	-93.590653
611.050750	-85.045863
611.175323	-85.867774
611.299946	-81.900245
611.424620	-77.515638
611.549345	-79.287427
611.674121	-90.664764
611.798948	-87.482044
611.923826	-88.583603
612.048755	-92.319041
612.173734	-82.280140
612.298765	-79.657222
612.423847	-100.053689
612.548980	-78.728882
612.674165	-81.273732
612.799400	-87.409981
612.924687	-79.561365
613.050025	-80.863194
613.175414	-87.536993
613.300854	-79.464929
613.426346	-78.548577
613.551889	-95.845581
613.677484	-81.390020
613.803130	-80.559215
613.928827	-88.924275
614.054576	-81.537334
614.180377	-81.525030
614.306229	-85.549409
614.432132	-80.680972
614.558087	-83.087023
614.684094	-82.517916
614.810153	-92.008750
614.936263	-81.404517
615.062425	-77.426009
615.188639	-87.008822
615.314904	-81.189703
615.441222	-76.148895
615.567591	-82.808851
615.694012	-77.501710
615.820486	-75.943606
615.947011	-79.828768
616.073588	-100.242771
616.200217	-78.016676
616.326898	-79.540295
616.453632	-82.861024
616.580417	-77.576131
616.707255	-80.960443
616.834144	-78.760454
616.961086	-94.726803
617.088081	-75.994909
617.215127	-77.049341
617.342226	-82.946175
617.469378	-77.925474
617.596581	-79.447318
617.723837	-90.495133
617.851146	-81.375287
617.978507	-74.844373
618.105920	-76.789081
618.233386	-86.164690
618.360905	-77.945035
618.488476	-78.346881
618.616100	-80.726921
618.743777	-79.231637
618.871506	-77.502765
618.999288	-76.791234
619.127123	-89.189472
619.255011	-77.378879
619.382951	-78.142144
619.510945	-80.178395
619.638991	-84.132503
619.767090	-74.742459
619.895243	-75.841397
620.023448	-80.761874
620.151706	-79.530074
620.280017	-76.169831
620.408382	-76.046151
620.536799	-80.807478
620.665270	-80.639157
620.793794	-75.499128
620.922371	-84.670615
621.051002	-77.310390
621.179686	-76.092796
621.308423	-73.216225
621.437213	-75.907032
621.566057	-80.332703
621.694954	-81.850737
621.823905	-73.892613
621.952909	-83.078251
622.081967	-76.100521
622.211079	-74.996894
622.340244	-74.354729
622.469462	-79.178972
622.598735	-78.245280
622.728061	-75.299220
622.857441	-75.646244
622.986874	-77.563488
623.116361	-79.534728
623.245903	-76.415768
623.375498	-72.014438
623.505147	-80.422892
623.634850	-76.970223
623.764606	-74.634157
623.894417	-74.600284
624.024282	-77.292145
624.154201	-77.653593
624.284174	-75.914884
624.414202	-74.819927
624.544283	-75.253106
624.674419	-76.934905
624.804609	-77.084528
624.934853	-71.748418
625.065151	-74.396797
625.195504	-81.963944
625.325911	-74.935262
625.456373	-76.311239
625.586889	-72.005522
625.717460	-75.324321
625.848085	-76.929932
625.978764	-74.873717
626.109498	-76.180313
626.240287	-74.335192
626.371131	-74.691560
626.502029	-78.949785
626.632982	-70.023799
626.763989	-74.750375
626.895052	-76.857021
627.026169	-77.148116
627.157341	-74.103091
627.288568	-74.626079
627.419850	-72.788745
627.551187	-77.205063
627.682579	-75.842169
627.814026	-74.457749
627.945528	-72.159071
628.077085	-73.010558
628.208697	-75.516674
628.340364	-77.403499
628.472087	-72.113008
628.603865	-76.383521
628.735698	-73.638188
628.867586	-74.832543
628.999530	-74.066110
629.131529	-74.153010
629.263584	-72.077454
629.395694	-73.095485
629.527859	-78.384963
629.660080	-74.895555
629.792357	-72.860163
629.924689	-73.027864
630.057077	-72.104536
630.189520	-74.572122
630.322019	-72.929199
630.454574	-73.180861
630.587184	-76.202449
630.719851	-71.422930
630.852573	-74.402227
630.985351	-75.358080
631.118185	-72.224299
631.251075	-71.987753
631.384021	-73.322539
631.517023	-75.078123
631.650081	-74.058696
631.783195	-73.128898
631.916365	-71.822076
632.049592	-71.196955
632.182874	-74.088855
632.316213	-71.818804
632.449608	-75.001408
632.583059	-76.382012
632.716567	-69.525903
632.850131	-72.484183
632.983751	-72.659719
633.117428	-72.420435
633.251161	-74.478128
633.384951	-73.530003
633.518797	-70.114600
633.652700	-78.730282
633.786660	-69.477442
633.920676	-72.084524
634.054749	-73.480607
634.188879	-73.303241
634.323065	-70.014713
634.457308	-78.051408
634.591608	-71.341339
634.725965	-73.938157
634.860379	-72.413184
634.994850	-71.095357
635.129377	-70.010035
635.263962	-75.879901
635.398604	-71.457745
635.533303	-70.042554
635.668058	-74.963216
635.802872	-71.774048
635.937742	-71.893138
636.072669	-73.652560
636.207654	-71.832072
636.342696	-70.485531
636.477796	-73.356915
636.612953	-71.960641
636.748167	-70.246309
636.883439	-75.491685
637.018768	-72.291064
637.154155	-71.384412
637.289599	-68.695689
637.425101	-75.652524
637.560660	-69.855277
637.696277	-71.536675
637.831952	-73.352147
637.967685	-70.600538
638.103475	-68.513083
638.239324	-80.443611
638.375230	-70.349197
638.511194	-73.022306
638.647215	-70.735997
638.783295	-72.344545
638.919433	-70.319662
639.055629	-71.069507
639.191883	-74.086779
639.328195	-70.290736
639.464565	-70.579955
639.600994	-72.158366
639.737481	-73.422197
639.874025	-66.735532
640.010629	-75.101133
640.147290	-70.494606
640.284010	-72.084657
640.420789	-70.020168
640.557625	-73.454171
640.694521	-71.896872
640.831474	-70.612138
640.968487	-70.047167
641.105558	-72.662530
641.242687	-69.298483
641.379876	-69.999279
641.517123	-74.451973
641.654429	-72.323902
641.791793	-70.952560
641.929216	-69.516023
642.066699	-72.181363
642.204240	-69.790763
642.341840	-69.709285
642.479499	-72.820413
642.617217	-73.160508
642.754994	-70.105383
642.892830	-69.293084
643.030726	-74.516225
643.168680	-70.065881
643.306694	-70.876858
643.444767	-68.542084
643.582899	-74.243352
643.721091	-71.887478
643.859342	-69.509239
643.997652	-72.479931
644.136022	-69.423083
644.274451	-70.856675
644.412940	-68.696227
644.551488	-69.270096
644.690096	-73.674503
644.828763	-72.632428
644.967490	-67.269787
645.106277	-78.063782
645.245124	-68.001414
645.384030	-73.954567
645.522997	-67.652998
645.662023	-72.509785
645.801109	-69.303431
645.940255	-73.866898
646.079460	-67.043360
646.218726	-71.431723
646.358052	-70.993585
646.497438	-70.705082
646.636884	-70.279443
646.776391	-70.167729
646.915957	-71.964555
647.055584	-69.788950
647.195271	-71.442360
647.335019	-68.564185
647.474826	-69.839452
647.614695	-74.702611
647.754623	-70.340204
647.894612	-69.339950
648.034662	-69.670809
648.174772	-70.439438
648.314943	-72.483773
648.455174	-69.078232
648.595466	-71.485160
648.735819	-67.804302
648.876233	-77.923835
649.016707	-69.523245
649.157242	-71.069415
649.297838	-68.145771
649.438495	-71.438260
649.579213	-68.320966
649.719992	-70.707124
649.860832	-70.642340
650.001733	-69.572251
650.142695	-73.070531
650.283718	-70.030734
650.424803	-73.268048
650.565949	-65.851126
650.707156	-76.790117
650.848424	-67.118817
650.989754	-77.682853
651.131145	-67.583102
651.272597	-73.293143
651.414111	-68.017236
651.555687	-70.480617
651.697324	-71.005434
651.839022	-70.176558
651.980782	-68.803723
652.122604	-72.147632
652.264488	-68.158489
652.406433	-73.730413
652.548441	-65.469824
652.690510	-76.318897
652.832640	-67.122723
652.974833	-72.024105
653.117088	-70.077293
653.259405	-72.714087
653.401784	-68.874413
653.544224	-69.713476
653.686727	-69.726162
653.829293	-71.464149
653.971920	-70.314654
654.114609	-69.037717
654.257361	-72.331282
654.400175	-71.500446
654.543052	-68.371747
654.685991	-72.804059
654.828992	-68.036214
654.972056	-70.084547
655.115183	-69.448554
655.258372	-72.087318
655.401623	-71.319149
655.544937	-72.119237
655.688314	-66.740039
655.831754	-71.230441
655.975256	-68.581854
656.118822	-69.489092
656.262450	-68.542637
656.406141	-72.016552
656.549894	-68.742137
656.693711	-71.663657
656.837591	-68.980831
656.981534	-65.919273
657.125540	-78.696054
657.269610	-68.249878
657.413742	-73.123798
657.557938	-73.872395
657.702196	-66.562234
657.846519	-67.600354
657.990904	-68.498286
658.135353	-67.398744
658.279866	-73.088674
658.424441	-77.811396
658.569081	-66.785962
658.713784	-74.088012
658.858550	-66.999866
659.003381	-72.972016
659.148274	-67.411525
659.293232	-76.061759
659.438253	-68.968052
659.583339	-69.440397
659.728488	-74.383396
659.873701	-67.144969
660.018978	-69.976297
660.164318	-69.078383
660.309723	-72.363474
660.455192	-69.528021
660.600725	-75.144256
660.746323	-70.694952
660.891984	-67.113007
661.037710	-73.167712
661.183500	-68.633074
661.329354	-68.646444
661.475272	-75.583282
661.621255	-69.414577
661.767303	-74.214356
661.913415	-65.920970
662.059591	-75.989291
662.205833	-67.018747
662.352138	-72.134572
662.498509	-71.928377
662.644944	-70.801899
662.791443	-67.986334
662.938008	-69.734893
663.084638	-73.892871
663.231332	-66.198456
663.378091	-73.804884
663.524915	-69.227271
663.671804	-77.232401
663.818759	-68.121357
663.965778	-73.440523
664.112863	-69.958039
664.260012	-69.161125
664.407227	-68.414505
664.554507	-74.667161
664.701853	-77.058486
664.849264	-67.625246
664.996740	-74.997873
665.144282	-68.293510
665.291889	-72.852527
665.439561	-68.755976
665.587300	-75.064926
665.735103	-77.124633
665.882973	-68.163538
666.030908	-74.473435
666.178909	-71.264389
666.326976	-71.177663
666.475109	-72.270792
666.623307	-69.377345
666.771571	-84.089724
666.919902	-69.612058
667.068298	-71.478091
667.216761	-71.293055
667.365289	-72.983762
667.513884	-72.571508
667.662545	-71.875798
667.811272	-75.573221
667.960065	-74.439671
668.108925	-72.446381
668.257851	-68.959082
668.406843	-73.151585
668.555902	-71.738756
668.705027	-71.518552
668.854219	-71.466639
669.003478	-72.844780
669.152803	-78.123986
669.302195	-67.796328
669.451653	-75.112092
669.601179	-65.904415
669.750771	-79.296060
669.900430	-76.532612
670.050156	-69.432605
670.199949	-72.610231
670.349808	-69.857909
670.499735	-73.298198
670.649729	-74.692106
670.799790	-74.083502
670.949918	-78.961948
671.100114	-72.935405
671.250377	-73.932921
671.400707	-70.244213
671.551104	-71.673113
671.701569	-81.845773
671.852101	-77.484952
672.002700	-77.529595
672.153368	-76.480340
672.304102	-69.317041
672.454905	-84.479268
672.605775	-73.107536
672.756713	-80.638218
672.907718	-75.504038
673.058791	-77.626150
673.209933	-78.247369
673.361142	-74.963079
673.512419	-76.828015
673.663764	-75.617572
673.815177	-81.450198
673.966658	-84.403237
674.118207	-78.888206
674.269825	-73.810874
674.421510	-80.550724
674.573264	-77.727224
674.725086	-77.376567
674.876977	-76.472997
675.028936	-78.124185
675.180963	-80.190351
675.333059	-75.252985
675.485224	-78.005157
675.637457	-78.228279
675.789758	-80.867631
675.942129	-79.293165
676.094568	-76.620333
676.247075	-74.052117
676.399652	-97.429770
676.552298	-80.820372
676.705012	-81.083767
676.857795	-76.312550
677.010648	-75.998067
677.163569	-77.808033
677.316560	-78.505746
677.469619	-86.172916
677.622748	-75.263523
677.775946	-75.213489
677.929214	-85.519069
678.082551	-87.819355
678.235957	-77.822493
678.389432	-78.818180
678.542977	-75.126851
678.696592	-80.524940
678.850276	-76.155980
679.004030	-86.469346
679.157853	-87.229612
679.311746	-77.613992
679.465709	-81.723458
679.619742	-75.204049
679.773844	-78.997023
679.928017	-79.757125
680.082259	-77.297251
680.236571	-76.417275
680.390954	-85.885781
680.545406	-72.643145
680.699929	-83.599204
680.854522	-82.038218
681.009185	-75.492531
681.163918	-77.679497
681.318722	-72.154398
681.473596	-70.893284
681.628540	-78.042587
681.783555	-80.481136
681.938641	-70.531624
682.093797	-85.775789
682.249023	-69.230681
682.404321	-77.129613
682.559689	-81.866700
682.715128	-70.799722
682.870637	-71.218084
683.026218	-78.175755
683.181869	-72.940410
683.337591	-72.707293
683.493385	-75.252959
683.649249	-69.799519
683.805185	-70.572048
683.961191	-73.950092
684.117269	-68.599312
684.273418	-72.450600
684.429639	-75.303804
684.585930	-70.768309
684.742294	-66.846551
684.898728	-76.399700
685.055234	-69.059529
685.211812	-70.914729
685.368461	-70.663810
685.525182	-69.382030
685.681975	-67.108429
685.838839	-70.821323
685.995775	-69.166838
686.152783	-68.473259
686.309863	-68.360941
686.467014	-71.488359
686.624238	-67.363548
686.781534	-68.060799
686.938902	-69.752167
687.096342	-65.766302
687.253854	-67.002962
687.411438	-71.542493
687.569095	-67.499155
687.726824	-66.172400
687.884626	-66.543260
688.042499	-69.168628
688.200446	-65.675825
688.358465	-66.535558
688.516556	-68.886134
688.674720	-65.368603
688.832957	-66.692161
688.991266	-65.940955
689.149649	-66.818914
689.308104	-65.068734
689.466632	-65.790654
689.625233	-68.349573
689.783906	-66.456897
689.942653	-64.342470
690.101473	-63.244996
690.260367	-67.250084
690.419333	-64.460995
690.578372	-71.477601
690.737485	-62.470503
690.896672	-67.115742
691.055931	-61.472950
691.215264	-65.965430
691.374671	-65.851798
691.534151	-67.486245
691.693704	-63.281767
691.853332	-62.508394
692.013033	-63.384834
692.172807	-64.600542
692.332656	-66.534206
692.492578	-61.955093
692.652575	-67.205735
692.812645	-61.774140
692.972789	-62.313586
693.133007	-64.168185
693.293300	-63.571640
693.453666	-64.886085
693.614107	-61.217775
693.774622	-63.362967
693.935211	-63.187160
694.095875	-63.371403
694.256613	-62.547461
694.417426	-61.982842
694.578313	-62.932026
694.739274	-62.678550
694.900311	-63.405220
695.061421	-61.121466
695.222607	-60.917061
695.383868	-63.651302
695.545203	-61.348813
695.706613	-61.892251
695.868098	-62.593170
696.029658	-61.140891
696.191293	-61.040483
696.353003	-61.294933
696.514789	-61.562796
696.676649	-61.809158
696.838585	-61.152384
697.000596	-61.797044
697.162682	-59.055682
697.324844	-62.070768
697.487081	-61.085569
697.649394	-60.519568
697.811782	-61.553764
697.974246	-59.109621
698.136786	-61.026772
698.299401	-59.879656
698.462092	-60.839960
698.624859	-59.424136
698.787702	-60.409476
698.950621	-60.330007
699.113616	-59.502571
699.276686	-59.379641
699.439833	-60.105064
699.603056	-59.568130
699.766355	-59.935417
699.929731	-60.651402
700.093183	-58.885613
700.256711	-59.566664
700.420315	-59.548139
700.583996	-59.411950
700.747754	-59.092822
700.911588	-59.680438
701.075499	-60.238618
701.239486	-58.171131
701.403550	-59.279337
701.567691	-58.947142
701.731909	-59.324567
701.896203	-59.449815
702.060575	-58.563308
702.225024	-59.329118
702.389549	-58.498089
702.554152	-58.586703
702.718832	-59.216689
702.883589	-58.401036
703.048424	-59.307434
703.213335	-58.599518
703.378324	-58.585790
703.543391	-57.964493
703.708535	-58.882479
703.873757	-58.284304
704.039056	-60.108554
704.204433	-56.947335
704.369887	-59.505250
704.535420	-57.625871
704.701030	-58.560119
704.866718	-58.353998
705.032484	-58.013561
705.198328	-58.648310
705.364250	-57.552643
705.530250	-58.545127
705.696328	-57.950171
705.862485	-57.758006
706.028720	-57.731646
706.195033	-58.762861
706.361424	-57.262435
706.527894	-58.105027
706.694442	-58.420924
706.861069	-56.280432
707.027775	-59.847463
707.194559	-56.680782
707.361422	-58.065703
707.528363	-58.336446
707.695384	-56.958921
707.862483	-57.973539
708.029661	-57.630715
708.196918	-57.166185
708.364254	-57.742282
708.531670	-57.998658
708.699164	-57.061771
708.866738	-57.300389
709.034391	-57.555267
709.202123	-57.168331
709.369935	-58.395685
709.537826	-56.956948
709.705796	-56.528918
709.873847	-57.947890
710.041976	-57.699988
710.210186	-56.930776
710.378475	-57.644148
710.546844	-56.569522
710.715292	-56.886206
710.883821	-58.515212
711.052429	-56.742311
711.221118	-56.916635
711.389887	-56.846140
711.558735	-57.481514
711.727664	-56.472214
711.896673	-57.801977
712.065763	-57.004268
712.234932	-56.081514
712.404183	-57.960223
712.573513	-56.726731
712.742924	-57.224467
712.912416	-56.200305
713.081988	-57.989368
713.251641	-56.175588
713.421375	-56.767649
713.591190	-57.920488
713.761085	-55.672174
713.931061	-57.750152
714.101119	-56.127613
714.271257	-58.137872
714.441476	-55.539599
714.611777	-57.167664
714.782159	-57.802147
714.952622	-55.728340
715.123166	-57.594949
715.293792	-55.576882
715.464499	-58.121320
715.635288	-55.362545
715.806158	-58.358847
715.977110	-56.656794
716.148143	-55.918108
716.319259	-56.404042
716.490456	-56.237840
716.661735	-57.985258
716.833096	-56.098085
717.004538	-57.466888
717.176063	-55.772903
717.347670	-56.515767
717.519359	-56.326747
717.691130	-57.336306
717.862984	-57.502335
718.034920	-55.274118
718.206938	-56.957219
718.379039	-55.923075
718.551222	-58.366218
718.723488	-55.819656
718.895836	-56.428127
719.068267	-56.834528
719.240781	-55.957029
719.413377	-57.139970
719.586057	-56.098235
719.758819	-56.965892
719.931664	-56.370537
720.104593	-56.780114
720.277604	-55.922064
720.450699	-57.625415
720.623876	-55.757570
720.797137	-56.455281
720.970482	-56.134856
721.143910	-56.823762
721.317421	-56.694298
721.491016	-56.792563
721.664694	-55.582740
721.838456	-57.289429
722.012302	-55.650895
722.186231	-57.295170
722.360244	-55.613055
722.534342	-56.873866
722.708523	-56.117779
722.882788	-56.885465
723.057137	-56.207637
723.231570	-56.078786
723.406088	-56.527316
723.580689	-55.198203
723.755375	-57.267605
723.930146	-56.527761
724.105000	-56.491649
724.279940	-56.178612
724.454963	-55.461219
724.630072	-56.293115
724.805265	-56.370534
724.980543	-57.181153
725.155905	-55.404570
725.331353	-56.065785
725.506885	-56.011049
725.682503	-55.407486
725.858205	-57.909070
726.033993	-55.044575
726.209865	-56.707793
726.385823	-55.122457
726.561866	-56.896549
726.737995	-55.858426
726.914209	-55.702413
727.090508	-56.524679
727.266893	-54.553874
727.443364	-57.024598
727.619920	-55.562785
727.796562	-57.138316
727.973290	-54.815261
728.150103	-56.326570
728.327003	-54.396259
728.503988	-56.096423
728.681060	-56.508166
728.858218	-55.827629
729.035461	-55.800685
729.212791	-54.443176
729.390208	-56.609183
729.567710	-54.095552
729.745299	-57.462502
729.922975	-54.407472
730.100737	-56.249871
730.278586	-54.815983
730.456521	-55.066007
730.634543	-55.973137
730.812652	-54.227265
730.990848	-56.131420
731.169130	-54.591224
731.347500	-55.663791
731.525957	-55.316538
731.704500	-54.233872
731.883131	-56.188476
732.061850	-52.880980
732.240655	-56.467969
732.419548	-54.231636
732.598528	-55.862598
732.777596	-55.453792
732.956751	-53.042114
733.135994	-55.680860
733.315325	-53.424270
733.494744	-55.193863
733.674250	-54.897366
733.853844	-54.500632
734.033526	-54.580522
734.213296	-53.860438
734.393154	-53.996189
734.573101	-54.084379
734.753135	-54.525278
734.933258	-53.662865
735.113469	-54.952989
735.293769	-53.378657
735.474157	-54.838703
735.654633	-53.602213
735.835198	-52.616843
736.015852	-55.311807
736.196594	-52.404207
736.377426	-55.697655
736.558346	-53.716577
736.739355	-53.040025
736.920453	-52.832299
737.101640	-53.465740
737.282916	-52.890787
737.464282	-54.707294
737.645736	-54.015258
737.827280	-52.225564
738.008914	-53.843638
738.190637	-52.283336
738.372449	-52.801058
738.554351	-53.544840
738.736342	-53.182520
738.918424	-52.882713
739.100595	-53.068928
739.282855	-53.056324
739.465206	-51.419418
739.647647	-53.833992
739.830178	-52.005478
740.012799	-52.410401
740.195510	-53.592479
740.378311	-52.080853
740.561203	-52.802244
740.744185	-52.220732
740.927258	-51.812699
741.110421	-51.458296
741.293674	-53.934998
741.477018	-51.547016
741.660453	-52.688533
741.843979	-52.466036
742.027596	-50.998344
742.211303	-52.077099
742.395102	-51.596786
742.578991	-51.994842
742.762972	-51.825697
742.947044	-51.891076
743.131207	-52.438649
743.315461	-50.987259
743.499807	-51.432668
743.684244	-51.519999
743.868773	-51.304779
744.053394	-50.890757
744.238106	-53.214562
744.422910	-50.778552
744.607805	-51.867968
744.792793	-50.761767
744.977872	-50.442806
745.163044	-51.475363
745.348307	-50.811289
745.533663	-53.168320
745.719111	-49.889386
745.904651	-51.817867
746.090283	-50.227036
746.276008	-50.397536
746.461826	-51.293039
746.647735	-50.845417
746.833738	-51.569935
747.019833	-50.134316
747.206021	-50.910288
747.392302	-50.324326
747.578676	-51.559974
747.765143	-50.035972
747.951703	-50.358312
748.138356	-50.646256
748.325102	-50.401933
748.511941	-50.900702
748.698874	-50.460158
748.885900	-50.861612
749.073019	-49.014855
749.260232	-50.859690
749.447539	-49.670450
749.634939	-51.363778
749.822433	-50.375106
750.010021	-49.488983
750.197703	-50.718024
750.385479	-49.011394
750.573348	-50.657395
750.761312	-50.529452
750.949370	-49.777124
751.137523	-50.672308
751.325769	-49.536902
751.514110	-49.931852
751.702545	-49.632138
751.891075	-50.135205
752.079700	-50.219119
752.268419	-49.520772
752.457233	-49.917995
752.646142	-49.389287
752.835145	-50.549814
753.024244	-48.874567
753.213437	-51.184067
753.402726	-48.330857
753.592110	-50.676958
753.781589	-49.204669
753.971163	-50.080365
754.160833	-49.721278
754.350598	-49.666045
754.540459	-49.497117
754.730415	-49.112051
754.920467	-49.901242
755.110615	-49.370062
755.300858	-50.460361
755.491198	-49.033691
755.681633	-49.738184
755.872164	-49.475092
756.062792	-49.578055
756.253515	-49.631966
756.444335	-49.253397
756.635252	-49.786038
756.826264	-49.220038
757.017373	-50.118063
757.208579	-49.450207
757.399881	-49.496196
757.591280	-49.463964
757.782776	-48.713666
757.974368	-49.890559
758.166058	-49.948179
758.357844	-49.836738
758.549728	-49.143037
758.741708	-49.329421
758.933786	-49.461164
759.125961	-49.710346
759.318233	-49.730617
759.510603	-49.521352
759.703071	-49.380887
759.895635	-49.444352
760.088298	-49.885127
760.281058	-49.514167
760.473916	-49.594421
760.666872	-49.410226
760.859926	-50.031927
761.053078	-49.384962
761.246328	-49.495981
761.439676	-49.549055
761.633122	-49.276049
761.826667	-50.779094
762.020310	-49.440726
762.214052	-49.792905
762.407892	-48.702376
762.601831	-49.978334
762.795868	-50.405293
762.990004	-49.482510
763.184239	-49.811171
763.378573	-49.772749
763.573006	-50.519782
763.767538	-49.177011
763.962169	-49.554359
764.156900	-49.927785
764.351729	-50.691722
764.546658	-49.796121
764.741687	-49.520999
764.936815	-50.233822
765.132042	-49.761515
765.327370	-50.986332
765.522797	-49.025561
765.718324	-51.103390
765.913950	-49.934725
766.109677	-49.972090
766.305504	-50.526414
766.501431	-49.352198
766.697458	-52.498362
766.893586	-49.039921
767.089814	-51.053658
767.286142	-50.006854
767.482571	-50.161090
767.679100	-51.469331
767.875730	-49.484368
768.072461	-51.802565
768.269293	-50.142775
768.466225	-51.617540
768.663259	-49.290812
768.860393	-51.749342
769.057629	-49.772880
769.254966	-52.177738
769.452404	-50.675108
769.649944	-50.920827
769.847585	-51.445857
770.045328	-50.065755
770.243172	-51.775160
770.441118	-50.911072
770.639166	-51.595504
770.837315	-50.922050
771.035567	-51.597404
771.233920	-50.485738
771.432376	-51.836892
771.630934	-51.427014
771.829594	-51.218916
772.028356	-52.745667
772.227220	-50.773363
772.426188	-51.745860
772.625257	-51.036517
772.824430	-51.615472
773.023705	-51.438078
773.223083	-53.007564
773.422563	-51.918228
773.622147	-51.413230
773.821834	-52.036483
774.021624	-50.847521
774.221517	-52.417170
774.421513	-51.889128
774.621613	-52.631911
774.821816	-51.923619
775.022122	-52.470057
775.222532	-51.699596
775.423046	-51.073474
775.623664	-53.229375
775.824385	-51.657466
776.025211	-53.007424
776.226140	-51.709752
776.427173	-52.866169
776.628311	-51.486884
776.829553	-52.293600
777.030899	-52.222699
777.232350	-52.286788
777.433905	-52.782330
777.635564	-52.137216
777.837328	-52.203695
778.039197	-51.295778
778.241171	-53.201045
778.443250	-51.509392
778.645433	-52.920679
778.847722	-52.396225
779.050116	-52.251202
779.252615	-51.504055
779.455219	-51.122553
779.657929	-53.035325
779.860744	-51.026332
780.063665	-53.690960
780.266691	-51.305747
780.469823	-52.374608
780.673061	-50.718066
780.876405	-51.165734
781.079855	-51.992961
781.283410	-51.216789
781.487072	-52.583369
781.690840	-50.962184
781.894715	-51.392469
782.098695	-50.718651
782.302783	-50.633284
782.506976	-50.830992
782.711277	-51.245007
782.915684	-51.210556
783.120198	-50.886964
783.324818	-50.493442
783.529546	-50.060855
783.734381	-49.698764
783.939322	-50.342032
784.144372	-50.408777
784.349528	-50.154928
784.554792	-50.385015
784.760163	-49.278923
784.965642	-49.506621
785.171228	-49.021712
785.376922	-49.548311
785.582724	-49.444480
785.788634	-49.591316
785.994651	-49.541472
786.200777	-47.800486
786.407011	-49.850289
786.613353	-47.237659
786.819804	-49.612737
787.026363	-48.241101
787.233030	-48.860488
787.439806	-48.080550
787.646691	-47.973784
787.853684	-47.470218
788.060786	-47.620067
788.267997	-48.193506
788.475317	-47.485166
788.682746	-48.114847
788.890285	-47.136861
789.097932	-46.386531
789.305689	-47.676287
789.513555	-46.054915
789.721531	-47.997967
789.929617	-46.608912
790.137812	-47.188482
790.346117	-46.106000
790.554531	-46.146540
790.763056	-45.869034
790.971691	-46.387839
791.180436	-45.904773
791.389291	-46.395107
791.598256	-46.197165
791.807332	-45.284507
792.016518	-45.578030
792.225815	-45.002153
792.435222	-45.456041
792.644740	-44.981407
792.854369	-45.899241
793.064109	-44.992850
793.273960	-44.868459
793.483922	-44.356132
793.693995	-44.689183
793.904180	-44.474737
794.114475	-44.603556
794.324882	-44.764401
794.535401	-44.194882
794.746031	-44.219350
794.956774	-43.614392
795.167627	-44.067351
795.378593	-43.615738
795.589671	-44.160746
795.800861	-43.751113
796.012162	-43.686676
796.223577	-43.400887
796.435103	-43.055030
796.646742	-43.194056
796.858493	-43.197690
797.070357	-43.425994
797.282334	-42.639211
797.494423	-43.516233
797.706626	-42.299758
797.918941	-42.783890
798.131369	-42.179895
798.343911	-43.188796
798.556566	-42.126950
798.769334	-42.527589
798.982215	-42.259669
799.195210	-42.036896
799.408319	-41.992549
799.621541	-41.693367
799.834877	-42.292536
800.048327	-41.932127
800.261890	-41.723427
800.475568	-41.552725
800.689360	-41.602822
800.903266	-41.172223
801.117287	-41.368714
801.331422	-41.533684
801.545671	-41.686848
801.760036	-40.779117
801.974514	-41.115616
802.189108	-41.172618
802.403816	-40.389550
802.618640	-41.024512
802.833578	-41.026856
803.048632	-40.906238
803.263800	-40.319169
803.479085	-40.820535
803.694484	-40.337632
803.909999	-39.961516
804.125630	-40.521555
804.341376	-40.604193
804.557239	-39.870653
804.773217	-40.470487
804.989311	-39.989184
805.205521	-39.725477
805.421847	-39.826998
805.638290	-39.986498
805.854849	-39.975366
806.071524	-39.572886
806.288316	-39.790745
806.505225	-39.369981
806.722250	-39.397757
806.939393	-39.528041
807.156652	-39.373092
807.374028	-39.465251
807.591521	-39.570688
807.809132	-39.004527
808.026859	-39.003272
808.244705	-39.031002
808.462667	-38.879261
808.680748	-39.015383
808.898946	-39.138974
809.117261	-38.857892
809.335695	-38.840550
809.554246	-38.652575
809.772916	-38.408373
809.991704	-38.780570
810.210610	-38.321933
810.429634	-38.908057
810.648777	-38.283234
810.868039	-38.502818
811.087419	-38.119470
811.306918	-38.282430
811.526535	-38.162998
811.746272	-38.302400
811.966127	-38.251826
812.186102	-38.145661
812.406196	-37.847830
812.626409	-37.918673
812.846742	-37.873925
813.067194	-37.938503
813.287766	-37.936838
813.508457	-37.896796
813.729269	-37.711892
813.950200	-37.503139
814.171251	-37.695216
814.392422	-37.495075
814.613714	-37.735538
814.835126	-37.401123
815.056658	-37.747949
815.278311	-37.222105
815.500084	-37.426515
815.721978	-37.132452
815.943993	-37.322367
816.166128	-37.247267
816.388385	-37.329260
816.610762	-37.290037
816.833261	-37.029072
817.055881	-36.924438
817.278623	-36.940979
817.501486	-37.038112
817.724471	-36.957611
817.947577	-37.046363
818.170805	-36.867075
818.394155	-36.874917
818.617627	-36.639405
818.841221	-36.788939
819.064937	-36.549363
819.288775	-36.959903
819.512736	-36.577795
819.736819	-36.779579
819.961025	-36.443900
820.185354	-36.544530
820.409805	-36.403106
820.634379	-36.627120
820.859076	-36.388320
821.083897	-36.612886
821.308840	-36.439885
821.533907	-36.217211
821.759097	-36.316341
821.984411	-36.207460
822.209848	-36.396364
822.435409	-36.354654
822.661093	-36.253071
822.886902	-36.151305
823.112834	-36.091244
823.338891	-35.898822
823.565072	-36.183803
823.791377	-36.138447
824.017807	-36.352496
824.244361	-35.947114
824.471039	-35.852219
824.697843	-35.857269
824.924771	-35.753097
825.151824	-36.007026
825.379002	-36.140290
825.606306	-35.956105
825.833734	-35.697823
826.061288	-35.568289
826.288967	-35.882323
826.516772	-35.567808
826.744703	-36.059717
826.972759	-35.685375
827.200941	-35.730859
827.429249	-35.594816
827.657683	-35.711692
827.886243	-35.594637
828.114930	-35.471007
828.343743	-35.656307
828.572682	-35.673987
828.801748	-35.742443
829.030941	-35.457270
829.260260	-35.431088
829.489706	-35.429114
829.719280	-35.538764
829.948980	-35.703732
830.178808	-35.389825
830.408763	-35.443695
830.638845	-35.363300
830.869055	-35.547244
831.099393	-35.265106
831.329858	-35.496350
831.560451	-35.245650
831.791173	-35.592081
832.022022	-35.331942
832.252999	-35.120435
832.484105	-35.256140
832.715339	-35.597570
832.946702	-35.118650
833.178193	-35.296340
833.409813	-35.286390
833.641561	-35.143952
833.873439	-35.328209
834.105445	-35.049267
834.337581	-35.258898
834.569846	-35.454527
834.802241	-34.828587
835.034764	-35.327689
835.267418	-35.048613
835.500201	-35.184364
835.733114	-35.119599
835.966157	-35.241734
836.199329	-35.100518
836.432632	-35.115783
836.666065	-34.967561
836.899629	-35.188288
837.133323	-35.022180
837.367147	-35.299454
837.601102	-35.050495
837.835188	-35.099196
838.069405	-35.015344
838.303752	-34.993855
838.538231	-35.042264
838.772841	-35.208224
839.007582	-35.163737
839.242455	-35.166584
839.477459	-34.899768
839.712595	-35.028642
839.947863	-35.014623
840.183263	-35.004278
840.418794	-35.326618
840.654458	-35.108014
840.890254	-34.970316
841.126182	-34.940223
841.362242	-35.094011
841.598435	-34.832363
841.834761	-35.294026
842.071220	-35.120148
842.307811	-35.078277
842.544536	-34.946808
842.781393	-35.123681
843.018384	-34.687536
843.255508	-35.383915
843.492765	-34.909291
843.730156	-35.247241
843.967681	-34.965335
844.205339	-34.977209
844.443132	-34.851845
844.681058	-35.287682
844.919118	-34.809938
845.157313	-35.313695
845.395642	-34.954328
845.634105	-35.019018
845.872703	-34.988921
846.111436	-35.079145
846.350303	-34.977458
846.589306	-35.334686
846.828443	-34.797220
847.067716	-35.184695
847.307124	-34.943493
847.546667	-35.002219
847.786345	-35.246057
848.026160	-34.996974
848.266110	-35.093981
848.506195	-35.081235
848.746417	-34.870738
848.986775	-35.249976
849.227269	-35.029089
849.467899	-35.274160
849.708666	-35.075933
849.949569	-34.989683
850.190609	-35.090978
850.431785	-35.078716
850.673099	-35.193129
850.914549	-35.272601
851.156137	-35.254713
851.397861	-35.045541
851.639723	-35.014947
851.881723	-35.261311
852.123860	-35.100962
852.366135	-35.433542
852.608547	-35.287037
852.851098	-35.263954
853.093786	-34.958666
853.336613	-35.258367
853.579578	-35.264894
853.822681	-35.310820
854.065923	-35.502013
854.309304	-35.278157
854.552823	-35.040768
854.796481	-35.307609
855.040278	-35.271673
855.284215	-35.396638
855.528290	-35.441145
855.772505	-35.368988
856.016859	-35.206724
856.261353	-35.293215
856.505987	-35.332625
856.750760	-35.377024
856.995673	-35.504484
857.240727	-35.335680
857.485920	-35.374124
857.731254	-35.242978
857.976729	-35.407607
858.222343	-35.495907
858.468099	-35.423840
858.713995	-35.405388
858.960032	-35.301504
859.206211	-35.496985
859.452530	-35.333885
859.698991	-35.667240
859.945593	-35.356232
860.192336	-35.501779
860.439222	-35.302198
860.686248	-35.470591
860.933417	-35.537724
861.180728	-35.618748
861.428181	-35.486931
861.675776	-35.433490
861.923514	-35.288216
862.171394	-35.569105
862.419417	-35.474175
862.667582	-35.757352
862.915890	-35.434105
863.164342	-35.519290
863.412936	-35.219245
863.661674	-35.560023
863.910555	-35.561068
864.159579	-35.723512
864.408747	-35.487547
864.658059	-35.473437
864.907515	-35.303623
865.157114	-35.481239
865.406858	-35.616399
865.656746	-35.722504
865.906778	-35.456285
866.156955	-35.527595
866.407277	-35.279376
866.657743	-35.567224
866.908354	-35.544040
867.159110	-35.749392
867.410011	-35.415493
867.661057	-35.506217
867.912249	-35.359652
868.163586	-35.567125
868.415069	-35.586586
868.666697	-35.569898
868.918472	-35.483401
869.170392	-35.416516
869.422458	-35.423209
869.674671	-35.590889
869.927030	-35.530228
870.179536	-35.450354
870.432188	-35.434090
870.684987	-35.374069
870.937933	-35.436135
871.191026	-35.518033
871.444266	-35.533535
871.697653	-35.238893
871.951188	-35.418677
872.204870	-35.185614
872.458700	-35.529193
872.712677	-35.365449
872.966803	-35.479661
873.221076	-35.059009
873.475498	-35.264044
873.730068	-35.152849
873.984787	-35.447891
874.239654	-35.251660
874.494669	-35.270100
874.749834	-35.009920
875.005147	-35.041747
875.260610	-35.100759
875.516222	-35.356129
875.771983	-35.060976
876.027894	-35.133764
876.283954	-34.794290
876.540164	-34.994910
876.796524	-34.956416
877.053033	-35.231318
877.309693	-34.868868
877.566503	-34.879671
877.823464	-34.751990
878.080575	-34.773342
878.337837	-34.956487
878.595249	-34.880876
878.852813	-34.771333
879.110528	-34.580194
879.368393	-34.663941
879.626410	-34.711488
879.884579	-34.675164
880.142899	-34.687180
880.401371	-34.500295
880.659994	-34.413023
880.918770	-34.501825
881.177698	-34.650260
881.436778	-34.290073
881.696010	-34.498335
881.955395	-34.251209
882.214933	-34.215480
882.474623	-34.451594
882.734467	-34.295166
882.994463	-34.141473
883.254613	-34.066924
883.514916	-34.200244
883.775372	-33.893364
884.035982	-34.431926
884.296746	-33.832757
884.557664	-33.985176
884.818735	-33.718533
885.079961	-33.993235
885.341341	-33.811970
885.602876	-34.055262
885.864565	-33.599272
886.126409	-33.541417
886.388407	-33.607582
886.650561	-33.702513
886.912870	-33.807574
887.175334	-33.465928
887.437953	-33.350745
887.700728	-33.234866
887.963658	-33.558467
888.226745	-33.472053
888.489987	-33.448343
888.753385	-33.059234
889.016940	-33.149693
889.280651	-33.098899
889.544518	-33.376376
889.808543	-33.194979
890.072723	-33.075058
890.337061	-32.779398
890.601556	-32.940213
890.866208	-33.093089
891.131017	-33.085765
891.395984	-32.837638
891.661109	-32.701438
891.926391	-32.669134
892.191831	-32.861580
892.457429	-32.873920
892.723186	-32.721253
892.989100	-32.529789
893.255173	-32.449670
893.521405	-32.642315
893.787796	-32.644254
894.054345	-32.616300
894.321053	-32.241933
894.587921	-32.366532
894.854948	-32.326315
895.122134	-32.516961
895.389480	-32.299798
895.656986	-32.217934
895.924651	-32.001529
896.192477	-32.181243
896.460463	-32.282120
896.728609	-32.116383
896.996915	-31.952514
897.265382	-31.836616
897.534010	-31.959771
897.802799	-31.964276
898.071749	-32.042967
898.340860	-31.631726
898.610132	-31.647746
898.879566	-31.706066
899.149162	-31.783236
899.418919	-31.708495
899.688838	-31.539635
899.958919	-31.312820
900.229162	-31.475017
900.499568	-31.589280
900.770136	-31.385851
901.040867	-31.357602
901.311761	-31.078515
901.582817	-31.200534
901.854037	-31.258754
902.125420	-31.242061
902.396966	-31.009939
902.668676	-30.923773
902.940550	-30.847099
903.212587	-31.001515
903.484788	-30.996375
903.757153	-30.784825
904.029683	-30.627405
904.302377	-30.540396
904.575236	-30.807794
904.848259	-30.717338
905.121447	-30.522324
905.394800	-30.299148
905.668319	-30.372585
905.942002	-30.546992
906.215852	-30.435168
906.489866	-30.189829
906.764047	-30.125049
907.038393	-30.128956
907.312906	-30.276968
907.587584	-30.124886
907.862429	-29.980840
908.137441	-29.865308
908.412619	-29.864340
908.687964	-30.087978
908.963476	-29.832918
909.239155	-29.695827
909.515002	-29.624498
909.791015	-29.724940
910.067197	-29.808878
910.343546	-29.534750
910.620063	-29.485957
910.896748	-29.434013
911.173601	-29.522162
911.450623	-29.549484
911.727813	-29.345118
912.005171	-29.220160
912.282699	-29.275402
912.560395	-29.363200
912.838261	-29.298983
913.116296	-29.112198
913.394500	-29.069164
913.672874	-29.093875
913.951418	-29.148771
914.230131	-29.114474
914.509015	-28.917718
914.788068	-28.836717
915.067292	-28.957693
915.346687	-28.940888
915.626252	-28.900002
915.905988	-28.730158
916.185895	-28.621649
916.465973	-28.745648
916.746223	-28.821004
917.026644	-28.655998
917.307236	-28.488370
917.588000	-28.422694
917.868937	-28.608768
918.150045	-28.652209
918.431325	-28.406116
918.712778	-28.207125
918.994404	-28.306977
919.276202	-28.540198
919.558173	-28.384820
919.840317	-28.094020
920.122634	-28.058629
920.405125	-28.291639
920.687789	-28.340302
920.970627	-28.027286
921.253639	-27.895327
921.536824	-28.075398
921.820184	-28.154129
922.103718	-27.931105
922.387427	-27.857619
922.671310	-27.895639
922.955368	-27.903240
923.239601	-27.790142
923.524009	-27.817652
923.808592	-27.815386
924.093351	-27.640577
924.378285	-27.594950
924.663396	-27.784706
924.948682	-27.753346
925.234144	-27.381926
925.519782	-27.453754
925.805597	-27.761163
926.091589	-27.522241
926.377757	-27.303904
926.664102	-27.365855
926.950624	-27.577777
927.237323	-27.348849
927.524200	-27.272263
927.811255	-27.307882
928.098487	-27.282622
928.385897	-27.228685
928.673485	-27.317006
928.961251	-27.120047
929.249196	-26.973119
929.537319	-27.272432
929.825621	-27.193123
930.114102	-26.816121
930.402762	-26.964767
930.691601	-27.098645
930.980620	-26.885011
931.269818	-26.836417
931.559196	-26.833168
931.848753	-26.665614
932.138491	-26.878412
932.428409	-26.770793
932.718508	-26.446617
933.008787	-26.594614
933.299246	-26.696840
933.589887	-26.492475
933.880709	-26.425446
934.171712	-26.385979
934.462896	-26.358223
934.754262	-26.472429
935.045810	-26.304426
935.337539	-26.096563
935.629451	-26.287625
935.921545	-26.267529
936.213822	-26.157547
936.506281	-26.082664
936.798922	-26.030518
937.091747	-26.110272
937.384755	-26.139940
937.677946	-25.941220
937.971321	-25.894379
938.264879	-26.021141
938.558621	-25.971538
938.852547	-25.925453
939.146657	-25.810695
939.440952	-25.820036
939.735431	-25.924708
940.030095	-25.835375
940.324943	-25.730180
940.619977	-25.709929
940.915196	-25.781642
941.210600	-25.757166
941.506189	-25.675542
941.801965	-25.576156
942.097926	-25.633095
942.394074	-25.675222
942.690407	-25.577848
942.986927	-25.459600
943.283634	-25.497992
943.580527	-25.518135
943.877608	-25.510068
944.174875	-25.320957
944.472330	-25.338013
944.769972	-25.401637
945.067802	-25.359275
945.365820	-25.218827
945.664026	-25.195397
945.962420	-25.241447
946.261002	-25.235803
946.559773	-25.118545
946.858733	-25.051398
947.157881	-25.100176
947.457219	-25.115304
947.756746	-25.020165
948.056462	-24.934607
948.356368	-24.941098
948.656464	-25.040858
948.956749	-24.919760
949.257225	-24.789765
949.557891	-24.866420
949.858748	-24.931115
950.159796	-24.816972
950.461034	-24.708945
950.762463	-24.759571
951.064084	-24.848516
951.365896	-24.729716
951.667900	-24.636237
951.970095	-24.658875
952.272483	-24.782647
952.575063	-24.664481
952.877835	-24.543929
953.180799	-24.592302
953.483956	-24.714998
953.787307	-24.595496
954.090850	-24.451928
954.394586	-24.562938
954.698516	-24.598000
955.002640	-24.544020
955.306957	-24.398856
955.611469	-24.446126
955.916174	-24.561779
956.221074	-24.449064
956.526169	-24.319445
956.831458	-24.402021
957.136942	-24.434500
957.442622	-24.392464
957.748496	-24.260225
958.054567	-24.272996
958.360833	-24.377028
958.667294	-24.290544
958.973952	-24.172471
959.280806	-24.197887
959.587857	-24.232100
959.895104	-24.239329
960.202548	-24.065376
960.510189	-24.064982
960.818027	-24.171826
961.126062	-24.099689
961.434295	-23.992921
961.742726	-23.947023
962.051355	-24.046396
962.360182	-24.053630
962.669207	-23.825546
962.978431	-23.872532
963.287854	-23.962001
963.597475	-23.909253
963.907296	-23.768232
964.217315	-23.725664
964.527535	-23.908860
964.837954	-23.804605
965.148573	-23.616547
965.459392	-23.713761
965.770411	-23.769868
966.081630	-23.713509
966.393051	-23.530824
966.704672	-23.605086
967.016494	-23.734743
967.328517	-23.534366
967.640742	-23.470799
967.953169	-23.544087
968.265797	-23.590793
968.578627	-23.445773
968.891660	-23.363356
969.204895	-23.482595
969.518332	-23.464659
969.831972	-23.313307
970.145816	-23.321153
970.459862	-23.365727
970.774112	-23.343328
971.088565	-23.230649
971.403223	-23.231919
971.718084	-23.278137
972.033149	-23.239299
972.348419	-23.148735
972.663893	-23.167249
972.979572	-23.199743
973.295456	-23.162052
973.611546	-23.086130
973.927840	-23.110844
974.244340	-23.164973
974.561046	-23.077599
974.877958	-23.050505
975.195076	-23.096291
975.512401	-23.102537
975.829932	-23.040262
976.147670	-23.027213
976.465615	-23.076577
976.783767	-23.078074
977.102126	-22.985264
977.420693	-23.037009
977.739468	-23.071163
978.058451	-23.013945
978.377642	-22.985838
978.697041	-23.034815
979.016649	-23.048890
979.336466	-22.960293
979.656492	-22.996459
979.976727	-23.033144
980.297171	-22.986981
980.617825	-22.942868
980.938689	-22.995716
981.259763	-23.001929
981.581048	-22.922512
981.902542	-22.923878
982.224248	-22.984376
982.546164	-22.923157
982.868291	-22.856518
983.190630	-22.911332
983.513180	-22.909920
983.835942	-22.829915
984.158916	-22.795091
984.482101	-22.852449
984.805500	-22.814533
985.129110	-22.701767
985.452934	-22.732039
985.776970	-22.767154
986.101220	-22.655981
986.425683	-22.607589
986.750359	-22.630566
987.075250	-22.656532
987.400354	-22.502813
987.725673	-22.486884
988.051206	-22.579535
988.376954	-22.477161
988.702916	-22.382684
989.029094	-22.417275
989.355487	-22.483263
989.682095	-22.341556
990.008919	-22.268291
990.335959	-22.422313
990.663216	-22.356033
990.990688	-22.215457
991.318377	-22.272538
991.646283	-22.374544
991.974406	-22.245730
992.302746	-22.137819
992.631304	-22.317953
992.960079	-22.291131
993.289072	-22.111181
993.618283	-22.175410
993.947713	-22.294982
994.277361	-22.150514
994.607227	-22.052750
994.937313	-22.198325
995.267618	-22.194276
995.598142	-21.998597
995.928886	-22.051726
996.259849	-22.150145
996.591033	-22.019862
996.922437	-21.915192
997.254061	-22.033051
997.585906	-22.019485
997.917972	-21.864730
998.250260	-21.875877
998.582768	-21.964917
998.915498	-21.874074
999.248450	-21.753353
999.581624	-21.867880
999.915020	-21.872230
1000.248639	-21.730161
1000.582480	-21.745270
1000.916545	-21.846486
1001.250832	-21.765182
1001.585343	-21.670854
1001.920077	-21.796296
1002.255035	-21.798597
1002.590218	-21.689519
1002.925624	-21.723269
1003.261255	-21.828632
1003.597111	-21.747790
1003.933192	-21.697176
1004.269497	-21.818982
1004.606029	-21.819245
1004.942785	-21.737675
1005.279768	-21.779667
1005.616977	-21.888892
1005.954412	-21.789938
1006.292074	-21.786837
1006.629962	-21.890514
1006.968077	-21.877201
1007.306420	-21.803074
1007.644990	-21.876149
1007.983787	-21.929888
1008.322813	-21.851110
1008.662067	-21.848181
1009.001549	-21.935588
1009.341259	-21.897581
1009.681199	-21.821263
1010.021367	-21.901072
1010.361765	-21.910710
1010.702392	-21.801181
1011.043250	-21.829698
1011.384337	-21.872415
1011.725654	-21.785596
1012.067202	-21.726235
1012.408980	-21.794247
1012.750989	-21.734690
1013.093230	-21.625237
1013.435702	-21.671797
1013.778405	-21.652844
1014.121341	-21.528903
1014.464508	-21.513235
1014.807908	-21.555227
1015.151540	-21.415565
1015.495405	-21.373211
1015.839503	-21.411405
1016.183835	-21.325102
1016.528400	-21.231138
1016.873198	-21.271343
1017.218231	-21.232722
1017.563498	-21.115596
1017.908999	-21.135512
1018.254735	-21.146096
1018.600707	-21.035654
1018.946913	-21.018659
1019.293354	-21.068596
1019.640032	-20.984336
1019.986945	-20.929059
1020.334094	-21.008752
1020.681480	-20.947188
1021.029102	-20.885981
1021.376961	-20.935920
1021.725058	-20.947735
1022.073391	-20.847222
1022.421962	-20.896849
1022.770772	-20.929584
1023.119819	-20.845153
1023.469104	-20.847793
1023.818628	-20.919122
1024.168391	-20.846140
1024.518393	-20.806167
1024.868634	-20.900221
1025.219115	-20.837620
1025.569836	-20.782496
1025.920796	-20.854406
1026.271997	-20.836302
1026.623438	-20.745751
1026.975121	-20.814499
1027.327044	-20.813161
1027.679208	-20.727068
1028.031614	-20.764102
1028.384262	-20.781223
1028.737152	-20.717626
1029.090284	-20.705891
1029.443659	-20.763970
1029.797276	-20.692214
1030.151137	-20.678747
1030.505240	-20.716179
1030.859587	-20.695307
1031.214178	-20.637738
1031.569013	-20.690361
1031.924093	-20.677466
1032.279417	-20.617688
1032.634985	-20.654599
1032.990799	-20.659885
1033.346858	-20.606364
1033.703162	-20.608569
1034.059712	-20.646323
1034.416509	-20.578000
1034.773551	-20.583721
1035.130841	-20.599004
1035.488377	-20.576264
1035.846160	-20.522313
1036.204190	-20.575520
1036.562468	-20.537025
1036.920994	-20.490823
1037.279768	-20.513728
1037.638790	-20.516196
1037.998061	-20.430187
1038.357581	-20.469401
1038.717350	-20.467960
1039.077368	-20.383164
1039.437636	-20.404192
1039.798154	-20.420229
1040.158922	-20.326474
1040.519940	-20.338711
1040.881209	-20.362398
1041.242729	-20.266944
1041.604501	-20.267794
1041.966524	-20.296264
1042.328798	-20.206431
1042.691325	-20.192386
1043.054103	-20.228175
1043.417135	-20.136458
1043.780419	-20.120347
1044.143956	-20.151057
1044.507746	-20.073191
1044.871791	-20.044477
1045.236088	-20.075506
1045.600641	-20.005754
1045.965447	-19.972679
1046.330508	-20.000650
1046.695824	-19.945540
1047.061395	-19.901531
1047.427222	-19.932830
1047.793304	-19.881464
1048.159642	-19.843515
1048.526237	-19.863596
1048.893088	-19.833891
1049.260196	-19.780701
1049.627561	-19.808579
1049.995183	-19.782604
1050.363063	-19.736056
1050.731201	-19.754455
1051.099597	-19.743933
1051.468251	-19.688429
1051.837164	-19.716103
1052.206336	-19.707358
1052.575767	-19.653742
1052.945458	-19.677169
1053.315409	-19.681534
1053.685619	-19.619144
1054.056090	-19.652309
1054.426821	-19.653063
1054.797814	-19.595107
1055.169067	-19.622430
1055.540582	-19.636188
1055.912359	-19.564790
1056.284398	-19.607784
1056.656698	-19.607104
1057.029262	-19.544827
1057.402088	-19.581875
1057.775177	-19.587874
1058.148530	-19.516316
1058.522146	-19.563351
1058.896027	-19.556220
1059.270171	-19.487762
1059.644580	-19.538026
1060.019254	-19.520477
1060.394193	-19.456700
1060.769397	-19.502576
1061.144867	-19.477713
1061.520602	-19.414832
1061.896604	-19.462163
1062.272872	-19.423539
1062.649407	-19.365137
1063.026210	-19.409342
1063.403279	-19.356201
1063.780616	-19.312389
1064.158221	-19.337233
1064.536094	-19.288295
1064.914235	-19.234815
1065.292645	-19.267691
1065.671325	-19.197505
1066.050273	-19.165227
1066.429491	-19.172485
1066.808979	-19.111106
1067.188738	-19.073573
1067.568766	-19.080955
1067.949066	-19.016177
1068.329636	-18.978782
1068.710478	-18.984001
1069.091592	-18.911123
1069.472977	-18.885635
1069.854635	-18.881236
1070.236565	-18.811613
1070.618768	-18.784928
1071.001243	-18.782549
1071.383993	-18.704855
1071.767016	-18.694757
1072.150313	-18.679538
1072.533884	-18.607486
1072.917730	-18.602408
1073.301850	-18.584959
1073.686246	-18.514450
1074.070917	-18.522936
1074.455864	-18.490993
1074.841087	-18.433325
1075.226586	-18.449285
1075.612362	-18.411016
1075.998415	-18.365358
1076.384745	-18.385166
1076.771353	-18.338157
1077.158238	-18.311025
1077.545401	-18.332688
1077.932843	-18.281068
1078.320564	-18.268149
1078.708564	-18.287028
1079.096842	-18.231273
1079.485401	-18.242304
1079.874240	-18.246923
1080.263358	-18.196964
1080.652757	-18.216495
1081.042438	-18.212943
1081.432399	-18.170593
1081.822641	-18.202051
1082.213166	-18.179263
1082.603972	-18.152724
1082.995061	-18.181159
1083.386433	-18.156001
1083.778087	-18.138477
1084.170025	-18.165000
1084.562246	-18.129095
1084.954751	-18.124772
1085.347541	-18.150188
1085.740615	-18.102873
1086.133973	-18.118651
1086.527617	-18.119340
1086.921546	-18.084758
1087.315761	-18.098737
1087.710262	-18.097472
1088.105050	-18.050790
1088.500124	-18.081815
1088.895485	-18.050337
1089.291134	-18.026789
1089.687070	-18.044834
1090.083294	-17.998568
1090.479806	-17.984885
1090.876607	-17.992562
1091.273696	-17.939387
1091.671075	-17.936018
1092.068744	-17.921783
1092.466702	-17.864865
1092.864950	-17.874843
1093.263489	-17.837203
1093.662319	-17.793452
1094.061440	-17.794851
1094.460852	-17.744062
1094.860555	-17.712009
1095.260551	-17.712804
1095.660840	-17.646597
1096.061421	-17.633885
1096.462295	-17.618479
1096.863462	-17.552421
1097.264923	-17.559592
1097.666678	-17.517087
1098.068727	-17.469840
1098.471071	-17.477375
1098.873710	-17.425428
1099.276644	-17.390904
1099.679874	-17.394899
1100.083400	-17.326770
1100.487222	-17.327772
1100.891340	-17.303197
1101.295756	-17.249150
1101.700468	-17.249822
1102.105478	-17.214036
1102.510787	-17.171911
1102.916393	-17.184004
1103.322298	-17.119212
1103.728502	-17.111358
1104.135005	-17.097118
1104.541807	-17.046700
1104.948909	-17.048157
1105.356312	-17.020156
1105.764015	-16.979019
1106.172019	-16.994004
1106.580324	-16.946542
1106.988931	-16.932770
1107.397840	-16.933365
1107.807051	-16.891691
1108.216564	-16.898996
1108.626380	-16.884624
1109.036500	-16.850130
1109.446923	-16.866210
1109.857649	-16.842574
1110.268680	-16.831785
1110.680016	-16.839436
1111.091657	-16.807393
1111.503602	-16.809774
1111.915854	-16.813184
1112.328411	-16.782744
1112.741275	-16.794841
1113.154445	-16.774465
1113.567922	-16.751639
1113.981706	-16.773828
1114.395798	-16.726390
1114.810198	-16.726809
1115.224906	-16.722607
1115.639923	-16.675035
1116.055249	-16.693338
1116.470884	-16.647864
1116.886829	-16.626286
1117.303084	-16.631871
1117.719650	-16.572184
1118.136526	-16.579408
1118.553713	-16.536441
1118.971212	-16.510746
1119.389022	-16.509395
1119.807145	-16.459857
1120.225580	-16.444936
1120.644328	-16.429654
1121.063389	-16.389758
1121.482763	-16.389948
1121.902452	-16.362476
1122.322454	-16.325915
1122.742771	-16.340627
1123.163404	-16.301406
1123.584351	-16.297672
1124.005614	-16.289143
1124.427193	-16.255574
1124.849089	-16.283049
1125.271301	-16.245010
1125.693830	-16.246369
1126.116677	-16.249583
1126.539842	-16.225396
1126.963324	-16.242683
1127.387126	-16.223837
1127.811246	-16.211951
1128.235685	-16.233383
1128.660444	-16.201677
1129.085522	-16.207410
1129.510922	-16.204149
1129.936641	-16.176997
1130.362682	-16.203072
1130.789044	-16.157082
1131.215728	-16.160884
1131.642734	-16.152567
1132.070063	-16.121568
1132.497714	-16.132112
1132.925689	-16.085552
1133.353987	-16.075896
1133.782610	-16.071437
1134.211556	-16.027454
1134.640827	-16.020838
1135.070424	-15.992201
1135.500345	-15.959565
1135.930593	-15.962799
1136.361166	-15.905055
1136.792067	-15.902429
1137.223294	-15.881219
1137.654848	-15.833523
1138.086730	-15.845563
1138.518940	-15.784928
1138.951479	-15.790346
1139.384346	-15.772695
1139.817543	-15.715492
1140.251069	-15.739918
1140.684925	-15.689269
1141.119111	-15.690440
1141.553628	-15.674975
1141.988475	-15.623567
1142.423655	-15.660442
1142.859166	-15.602716
1143.295009	-15.608218
1143.731185	-15.594603
1144.167694	-15.550471
1144.604536	-15.584052
1145.041711	-15.523048
1145.479221	-15.531822
1145.917065	-15.516451
1146.355245	-15.476507
1146.793759	-15.494288
1147.232609	-15.438504
1147.671795	-15.448680
1148.111317	-15.421145
1148.551177	-15.379028
1148.991373	-15.385364
1149.431907	-15.345045
1149.872779	-15.323657
1150.313989	-15.304768
1150.755538	-15.252201
1151.197426	-15.258262
1151.639653	-15.208969
1152.082220	-15.176627
1152.525128	-15.162852
1152.968376	-15.100780
1153.411966	-15.108858
1153.855897	-15.042945
1154.300169	-15.025132
1154.744784	-14.992494
1155.189742	-14.948684
1155.635042	-14.928614
1156.080687	-14.890469
1156.526674	-14.854788
1156.973007	-14.824750
1157.419683	-14.787930
1157.866705	-14.769419
1158.314072	-14.729572
1158.761786	-14.692823
1159.209845	-14.674746
1159.658251	-14.644490
1160.107004	-14.618417
1160.556104	-14.579281
1161.005553	-14.571122
1161.455349	-14.533517
1161.905494	-14.519482
1162.355989	-14.490892
1162.806832	-14.466825
1163.258026	-14.458067
1163.709570	-14.421571
1164.161464	-14.419531
1164.613710	-14.397910
1165.066307	-14.364493
1165.519256	-14.377329
1165.972558	-14.340261
1166.426212	-14.339585
1166.880219	-14.318663
1167.334580	-14.300991
1167.789295	-14.313167
1168.244364	-14.277273
1168.699788	-14.270857
1169.155567	-14.274260
1169.611702	-14.249601
1170.068193	-14.251473
1170.525041	-14.233937
1170.982245	-14.223724
1171.439807	-14.229749
1171.897726	-14.201952
1172.356004	-14.204580
1172.814640	-14.196140
1173.273635	-14.173658
1173.732989	-14.188392
1174.192703	-14.160722
1174.652778	-14.149915
1175.113213	-14.155933
1175.574009	-14.133964
1176.035167	-14.131033
1176.496687	-14.112592
1176.958569	-14.105209
1177.420814	-14.112092
1177.883422	-14.072398
1178.346394	-14.076186
1178.809730	-14.077401
1179.273430	-14.041759
1179.737496	-14.053199
1180.201927	-14.025548
1180.666723	-14.021532
1181.131886	-14.019541
1181.597416	-13.985047
1182.063312	-13.998455
1182.529576	-13.969661
1182.996209	-13.965958
1183.463209	-13.963565
1183.930579	-13.921646
1184.398317	-13.948642
1184.866426	-13.918576
1185.334904	-13.894409
1185.803754	-13.913293
1186.272974	-13.870456
1186.742566	-13.889447
1187.212529	-13.848669
1187.682865	-13.851528
1188.153574	-13.853148
1188.624656	-13.805647
1189.096112	-13.832650
1189.567942	-13.791958
1190.040147	-13.792536
1190.512726	-13.788134
1190.985681	-13.745315
1191.459012	-13.772810
1191.932720	-13.730475
1192.406804	-13.727397
1192.881265	-13.715943
1193.356104	-13.696243
1193.831322	-13.700010
1194.306918	-13.654344
1194.782893	-13.674470
1195.259248	-13.648622
1195.735982	-13.618594
1196.213097	-13.636140
1196.690593	-13.593755
1197.168471	-13.602393
1197.646730	-13.571676
1198.125371	-13.566926
1198.604395	-13.560570
1199.083803	-13.527728
1199.563594	-13.536730
1200.043769	-13.506705
1200.524329	-13.510099
1201.005273	-13.482175
1201.486604	-13.475714
1201.968320	-13.480714
1202.450422	-13.433910
1202.932912	-13.456143
1203.415789	-13.431713
1203.899054	-13.415833
1204.382707	-13.414635
1204.866748	-13.400076
1205.351179	-13.395203
1205.836000	-13.371774
1206.321211	-13.382734
1206.806812	-13.357392
1207.292805	-13.353511
1207.779189	-13.347662
1208.265965	-13.333004
1208.753134	-13.334434
1209.240696	-13.308004
1209.728651	-13.323293
1210.217000	-13.297726
1210.705744	-13.289788
1211.194883	-13.297235
1211.684417	-13.272168
1212.174347	-13.269939
1212.664673	-13.267082
1213.155396	-13.256541
1213.646516	-13.237905
1214.138034	-13.251878
1214.629951	-13.224738
1215.122266	-13.222041
1215.614980	-13.223363
1216.108095	-13.200154
1216.601609	-13.206316
1217.095524	-13.186293
1217.589841	-13.189832
1218.084559	-13.172368
1218.579679	-13.166163
1219.075202	-13.165886
1219.571128	-13.144612
1220.067458	-13.144614
1220.564191	-13.137972
1221.061330	-13.121149
1221.558874	-13.115770
1222.056823	-13.117113
1222.555178	-13.085499
1223.053940	-13.099139
1223.553109	-13.080266
1224.052686	-13.059685
1224.552671	-13.075293
1225.053065	-13.037895
1225.553867	-13.044047
1226.055079	-13.029798
1226.556702	-13.013589
1227.058735	-13.008476
1227.561179	-12.991400
1228.064035	-12.984209
1228.567303	-12.964156
1229.070983	-12.960216
1229.575077	-12.938760
1230.079585	-12.928033
1230.584506	-12.915966
1231.089842	-12.896394
1231.595594	-12.883443
1232.101761	-12.871899
1232.608345	-12.847029
1233.115345	-12.838016
1233.622762	-12.823871
1234.130597	-12.790428
1234.638851	-12.800645
1235.147523	-12.753684
1235.656615	-12.757003
1236.166126	-12.733865
1236.676058	-12.703395
1237.186411	-12.711352
1237.697185	-12.661672
1238.208381	-12.671371
1238.719999	-12.634683
1239.232040	-12.624448
1239.744505	-12.607304
1240.257394	-12.582506
1240.770708	-12.575759
1241.284446	-12.545063
1241.798610	-12.542469
1242.313201	-12.510518
1242.828218	-12.508946
1243.343662	-12.480007
1243.859534	-12.472024
1244.375834	-12.457104
1244.892563	-12.432996
1245.409721	-12.435423
1245.927309	-12.400410
1246.445327	-12.409030
1246.963777	-12.377592
1247.482657	-12.377311
1248.001970	-12.361607
1248.521716	-12.347453
1249.041894	-12.344333
1249.562506	-12.324939
1250.083553	-12.324649
1250.605034	-12.307861
1251.126950	-12.305458
1251.649302	-12.293350
1252.172091	-12.289712
1252.695316	-12.279560
1253.218979	-12.276179
1253.743079	-12.269728
1254.267619	-12.262978
1254.792597	-12.263033
1255.318015	-12.252133
1255.843874	-12.257558
1256.370173	-12.245676
1256.896913	-12.250861
1257.424095	-12.245385
1257.951720	-12.243857
1258.479787	-12.247858
1259.008298	-12.240041
1259.537254	-12.251409
1260.066654	-12.240294
1260.596499	-12.254594
1261.126790	-12.246008
1261.657527	-12.258137
1262.188711	-12.255473
1262.720342	-12.262010
1263.252422	-12.269728
1263.784950	-12.266890
1264.317928	-12.286366
1264.851355	-12.275672
1265.385232	-12.302342
1265.919560	-12.290906
1266.454340	-12.314240
1266.989572	-12.315469
1267.525256	-12.322721
1268.061394	-12.344219
1268.597985	-12.333443
1269.135031	-12.370963
1269.672531	-12.351965
1270.210487	-12.391217
1270.748899	-12.379228
1271.287768	-12.407767
1271.827094	-12.408621
1272.366877	-12.425318
1272.907119	-12.436778
1273.447820	-12.446196
1273.988981	-12.461678
1274.530601	-12.468700
1275.072683	-12.485874
1275.615226	-12.490086
1276.158230	-12.509339
1276.701697	-12.510589
1277.245627	-12.531496
1277.790021	-12.530151
1278.334879	-12.550630
1278.880202	-12.550205
1279.425991	-12.566595
1279.972245	-12.568719
1280.518966	-12.580019
1281.066155	-12.584892
1281.613811	-12.591509
1282.161936	-12.597623
1282.710529	-12.602112
1283.259593	-12.607188
1283.809126	-12.610652
1284.359131	-12.612912
1284.909607	-12.617448
1285.460555	-12.615330
1286.011976	-12.621892
1286.563870	-12.614735
1287.116237	-12.624304
1287.669080	-12.611529
1288.222397	-12.622982
1288.776191	-12.606329
1289.330460	-12.618008
1289.885207	-12.599366
1290.440431	-12.608849
1290.996133	-12.591170
1291.552314	-12.596050
1292.108975	-12.580396
1292.666115	-12.579963
1293.223737	-12.567219
1293.781839	-12.561356
1294.340424	-12.550474
1294.899491	-12.540579
1295.459041	-12.530435
1296.019075	-12.517509
1296.579593	-12.506604
1297.140597	-12.492893
1297.702086	-12.479642
1298.264061	-12.466209
1298.826524	-12.449707
1299.389474	-12.438008
1299.952912	-12.417272
1300.516839	-12.407309
1301.081255	-12.383026
1301.646162	-12.374659
1302.211559	-12.347648
1302.777448	-12.339569
1303.343829	-12.312118
1303.910702	-12.302574
1304.478069	-12.276005
1305.045930	-12.263735
1305.614285	-12.240205
1306.183136	-12.223770
1306.752483	-12.204121
1307.322326	-12.183626
1307.892666	-12.168301
1308.463504	-12.143534
1309.034841	-12.132153
1309.606677	-12.104456
1310.179012	-12.095813
1310.751849	-12.066142
1311.325186	-12.059133
1311.899025	-12.029755
1312.473366	-12.022400
1313.048211	-11.994762
1313.623559	-11.985739
1314.199412	-11.961496
1314.775770	-11.949196
1315.352634	-11.929310
1315.930004	-11.913780
1316.507881	-11.898382
1317.086266	-11.879241
1317.665159	-11.868054
1318.244562	-11.846389
1318.824474	-11.838473
1319.404897	-11.815145
1319.985831	-11.809418
1320.567276	-11.786357
1321.149234	-11.780862
1321.731706	-11.759651
1322.314691	-11.753048
1322.898190	-11.735322
1323.482205	-11.726352
1324.066736	-11.712930
1324.651783	-11.701461
1325.237347	-11.692271
1325.823430	-11.678519
1326.410031	-11.673094
1326.997151	-11.658075
1327.584791	-11.655293
1328.172952	-11.640323
1328.761634	-11.638567
1329.350839	-11.625271
1329.940566	-11.622988
1330.530817	-11.612790
1331.121592	-11.608998
1331.712891	-11.602098
1332.304716	-11.596843
1332.897068	-11.592994
1333.489946	-11.587055
1334.083352	-11.584844
1334.677287	-11.579559
1335.271750	-11.577778
1335.866744	-11.573968
1336.462268	-11.571977
1337.058323	-11.570149
1337.654910	-11.568119
1338.252029	-11.566975
1338.849682	-11.566495
1339.447869	-11.564824
1340.046591	-11.567021
1340.645848	-11.563464
1341.245641	-11.569119
1341.845972	-11.564198
1342.446840	-11.571835
1343.048246	-11.567013
1343.650191	-11.575144
1344.252677	-11.572300
1344.855702	-11.578618
1345.459269	-11.579561
1346.063379	-11.583159
1346.668030	-11.587909
1347.273226	-11.589236
1347.878965	-11.596448
1348.485250	-11.597733
1349.092080	-11.604877
1349.699456	-11.607774
1350.307380	-11.614070
1350.915851	-11.618709
1351.524871	-11.624554
1352.134441	-11.629869
1352.744560	-11.636755
1353.355231	-11.640828
1353.966453	-11.650477
1354.578227	-11.652552
1355.190555	-11.664271
1355.803436	-11.665725
1356.416872	-11.677822
1357.030863	-11.680727
1357.645411	-11.690949
1358.260515	-11.696792
1358.876177	-11.704819
1359.492397	-11.712996
1360.109176	-11.719671
1360.726516	-11.728796
1361.344416	-11.736156
1361.962877	-11.744121
1362.581901	-11.753252
1363.201487	-11.760343
1363.821637	-11.769871
1364.442352	-11.777955
1365.063632	-11.785871
1365.685478	-11.796565
1366.307891	-11.802317
1366.930871	-11.814781
1367.554420	-11.820047
1368.178538	-11.832298
1368.803226	-11.838840
1369.428485	-11.849386
1370.054315	-11.858035
1370.680717	-11.867066
1371.307693	-11.876317
1371.935242	-11.886159
1372.563366	-11.893817
1373.192065	-11.905572
1373.821341	-11.911987
1374.451193	-11.923840
1375.081623	-11.931281
1375.712632	-11.941040
1376.344221	-11.951008
1376.976389	-11.958579
1377.609139	-11.969580
1378.242470	-11.977311
1378.876384	-11.987334
1379.510881	-11.996496
1380.145963	-12.005055
1380.781629	-12.015077
1381.417881	-12.024174
1382.054720	-12.032390
1382.692147	-12.043937
1383.330161	-12.050420
1383.968765	-12.063048
1384.607959	-12.069780
1385.247743	-12.081150
1385.888119	-12.089881
1386.529087	-12.099683
1387.170648	-12.109071
1387.812804	-12.119314
1388.455554	-12.127524
1389.098899	-12.139470
1389.742842	-12.146105
1390.387381	-12.158600
1391.032519	-12.166120
1391.678256	-12.176629
1392.324592	-12.186158
1392.971529	-12.195238
1393.619068	-12.204953
1394.267208	-12.214594
1394.915952	-12.222880
1395.565300	-12.233546
1396.215253	-12.241131
1396.865812	-12.251264
1397.516977	-12.259700
1398.168749	-12.268086
1398.821130	-12.278105
1399.474120	-12.285226
1400.127719	-12.294957
1400.781930	-12.303218
1401.436752	-12.311170
1402.092186	-12.320201
1402.748234	-12.328196
1403.404897	-12.335686
1404.062174	-12.345437
1404.720067	-12.351307
1405.378577	-12.361388
1406.037705	-12.367827
1406.697451	-12.376732
1407.357817	-12.384432
1408.018803	-12.392604
1408.680410	-12.400280
1409.342639	-12.409705
1410.005492	-12.415779
1410.668968	-12.426388
1411.333068	-12.432641
1411.997795	-12.442145
1412.663147	-12.449993
1413.329127	-12.458370
1413.995736	-12.466565
1414.662973	-12.475980
1415.330840	-12.482763
1415.999339	-12.493665
1416.668469	-12.500588
1417.338232	-12.510510
1418.008628	-12.519238
1418.679659	-12.528283
1419.351325	-12.537335
1420.023628	-12.547109
1420.696568	-12.555130
1421.370145	-12.565881
1422.044362	-12.574210
1422.719219	-12.584179
1423.394717	-12.593867
1424.070856	-12.603249
1424.747638	-12.613977
1425.425064	-12.624097
1426.103134	-12.634225
1426.781850	-12.646082
1427.461212	-12.656438
1428.141221	-12.667660
1428.821878	-12.679860
1429.503185	-12.690205
1430.185141	-12.702430
1430.867749	-12.713277
1431.551008	-12.724500
1432.234920	-12.735898
1432.919486	-12.746975
1433.604707	-12.757674
1434.290583	-12.770382
1434.977116	-12.780181
1435.664307	-12.793919
1436.352156	-12.805520
1437.040664	-12.818310
1437.729833	-12.831710
1438.419663	-12.845568
1439.110156	-12.857684
1439.801312	-12.873114
1440.493132	-12.884261
1441.185617	-12.898237
1441.878768	-12.909682
1442.572586	-12.920823
1443.267072	-12.931373
1443.962228	-12.942117
1444.658053	-12.949483
1445.354549	-12.961202
1446.051717	-12.968276
1446.749558	-12.978377
1447.448073	-12.988518
1448.147263	-12.998918
1448.847128	-13.009513
1449.547671	-13.023531
1450.248891	-13.034149
1450.950789	-13.049347
1451.653368	-13.061808
1452.356627	-13.074977
1453.060568	-13.087753
1453.765192	-13.098904
1454.470500	-13.107307
1455.176492	-13.117016
1455.883170	-13.120373
1456.590534	-13.125023
1457.298586	-13.126851
1458.007327	-13.126322
1458.716758	-13.125995
1459.426880	-13.126164
1460.137693	-13.124090
1460.849199	-13.127050
1461.561398	-13.129076
1462.274293	-13.134042
1462.987883	-13.142996
1463.702170	-13.152975
1464.417155	-13.165351
1465.132838	-13.181726
1465.849222	-13.196252
1466.566306	-13.212981
1467.284093	-13.229028
1468.002582	-13.241472
1468.721775	-13.252649
1469.441674	-13.259636
1470.162278	-13.260519
1470.883590	-13.258578
1471.605609	-13.250057
1472.328338	-13.235990
1473.051777	-13.219699
1473.775928	-13.197773
1474.500790	-13.173826
1475.226367	-13.150209
1475.952657	-13.124987
1476.679663	-13.101597
1477.407386	-13.082662
1478.135826	-13.064603
1478.864985	-13.052470
1479.594863	-13.044805
1480.325463	-13.039715
1481.056784	-13.038622
1481.788828	-13.040521
1482.521597	-13.040137
1483.255090	-13.040451
1483.989309	-13.035912
1484.724256	-13.024536
1485.459931	-13.005082
1486.196336	-12.975525
1486.933471	-12.930997
1487.671337	-12.875048
1488.409937	-12.802384
1489.149270	-12.715124
1489.889337	-12.613532
1490.630141	-12.499487
1491.371682	-12.372421
1492.113961	-12.239267
1492.856979	-12.098062
1493.600738	-11.954861
1494.345238	-11.811467
1495.090481	-11.671272
1495.836467	-11.535376
1496.583198	-11.409654
1497.330675	-11.292145
1498.078899	-11.188367
1498.827872	-11.098121
1499.577593	-11.023102
1500.328065	-10.963184
1501.079289	-10.920948
1501.831265	-10.891422
1502.583995	-10.877013
1503.337480	-10.872907
1504.091721	-10.876003
1504.846719	-10.881236
1505.602475	-10.885951
1506.358991	-10.880711
1507.116268	-10.864186
1507.874306	-10.829568
1508.633108	-10.774161
1509.392673	-10.695845
1510.153004	-10.596158
1510.914101	-10.473855
1511.675965	-10.335241
1512.438599	-10.182560
1513.202002	-10.020584
1513.966176	-9.854458
1514.731122	-9.689587
1515.496842	-9.528175
1516.263336	-9.376857
1517.030607	-9.238283
1517.798654	-9.116496
1518.567479	-9.016180
1519.337083	-8.942108
1520.107468	-8.897933
1520.878634	-8.891151
1521.650584	-8.926515
1522.423317	-9.010939
1523.196836	-9.152688
1523.971141	-9.359516
1524.746233	-9.639667
1525.522115	-10.005219
1526.298786	-10.465519
1527.076249	-11.033716
1527.854504	-11.724223
1528.633553	-12.550082
1529.413397	-13.521385
1530.194037	-14.641070
1530.975474	-15.869668
1531.757709	-17.097104
1532.540745	-18.058262
1533.324581	-18.382840
1534.109220	-17.898759
1534.894662	-16.844795
1535.680909	-15.585655
1536.467961	-14.362932
1537.255821	-13.268803
1538.044489	-12.335514
1538.833967	-11.561921
1539.624256	-10.938160
1540.415357	-10.453677
1541.207271	-10.098434
1542.000000	-9.860552
1542.793545	-9.733409
1543.587907	-9.707894
1544.383087	-9.774920
1545.179088	-9.927227
1545.975909	-10.153705
1546.773552	-10.441338
1547.572019	-10.775730
1548.371311	-11.136811
1549.171428	-11.499265
1549.972373	-11.838250
1550.774147	-12.122200
1551.576751	-12.326946
1552.380185	-12.434339
1553.184453	-12.439185
1553.989554	-12.347565
1554.795490	-12.179856
1555.602263	-11.954579
1556.409873	-11.698551
1557.218322	-11.428852
1558.027612	-11.162881
1558.837743	-10.910913
1559.648717	-10.682553
1560.460536	-10.479908
1561.273200	-10.309144
1562.086710	-10.168921
1562.901069	-10.061303
1563.716278	-9.985314
1564.532337	-9.941410
1565.349249	-9.926871
1566.167014	-9.943549
1566.985634	-9.987899
1567.805111	-10.060520
1568.625444	-10.159567
1569.446637	-10.285009
1570.268690	-10.433591
1571.091605	-10.606975
1571.915382	-10.801288
1572.740024	-11.016388
1573.565532	-11.249822
1574.391907	-11.500830
1575.219150	-11.764587
1576.047262	-12.041215
1576.876246	-12.325346
1577.706103	-12.614191
1578.536833	-12.902697
1579.368439	-13.187877
1580.200922	-13.461832
1581.034282	-13.721868
1581.868522	-13.960916
1582.703643	-14.174770
1583.539646	-14.357437
1584.376532	-14.507838
1585.214304	-14.620519
1586.052962	-14.696611
1586.892508	-14.735480
1587.732943	-14.739678
1588.574269	-14.710469
1589.416487	-14.653875
1590.259599	-14.572328
1591.103605	-14.470909
1591.948508	-14.353796
1592.794309	-14.225563
1593.641009	-14.088416
1594.488609	-13.946520
1595.337112	-13.801876
1596.186518	-13.655970
1597.036829	-13.510410
1597.888047	-13.366351
1598.740172	-13.223860
1599.593207	-13.083266
1600.447153	-12.945417
1601.302010	-12.809519
1602.157782	-12.675977
1603.014469	-12.545169
1603.872072	-12.417269
1604.730593	-12.292132
1605.590034	-12.171200
1606.450397	-12.054434
1607.311681	-11.942774
1608.173890	-11.836722
1609.037024	-11.737674
1609.901085	-11.645033
1610.766075	-11.560569
1611.631995	-11.483730
1612.498846	-11.415277
1613.366630	-11.354399
1614.235349	-11.302155
1615.105004	-11.256707
1615.975596	-11.218759
1616.847128	-11.186806
1617.719600	-11.160986
1618.593014	-11.139182
1619.467372	-11.122137
1620.342675	-11.107494
1621.218924	-11.095589
1622.096122	-11.084634
1622.974270	-11.075308
1623.853369	-11.065344
1624.733420	-11.056153
1625.614427	-11.046010
1626.496389	-11.035960
1627.379308	-11.024745
1628.263187	-11.014297
1629.148026	-11.002867
1630.033828	-10.992656
1630.920593	-10.982726
1631.808324	-10.974831
1632.697022	-10.967674
1633.586688	-10.963808
1634.477324	-10.961325
1635.368932	-10.962055
1636.261514	-10.964851
1637.155070	-10.971017
1638.049602	-10.978564
1638.945113	-10.989384
1639.841603	-11.001470
1640.739075	-11.015510
1641.637529	-11.030369
1642.536968	-11.046791
1643.437393	-11.062741
1644.338806	-11.079460
1645.241209	-11.095681
1646.144602	-11.111456
1647.048988	-11.126250
1647.954368	-11.140835
1648.860744	-11.154054
1649.768118	-11.166684
1650.676491	-11.178896
1651.585865	-11.190416
1652.496241	-11.201712
1653.407621	-11.213189
1654.320008	-11.224939
1655.233401	-11.236569
1656.147804	-11.249395
1657.063218	-11.262191
1657.979645	-11.275814
1658.897085	-11.289697
1659.815542	-11.304685
1660.735016	-11.319082
1661.655509	-11.334805
1662.577023	-11.350046
1663.499560	-11.365866
1664.423121	-11.381027
1665.347709	-11.397063
1666.273324	-11.411714
1667.199969	-11.427121
1668.127645	-11.441782
1669.056353	-11.456905
1669.986097	-11.471350
1670.916877	-11.487152
1671.848695	-11.502430
1672.781553	-11.518951
1673.715452	-11.535837
1674.650395	-11.553791
1675.586383	-11.571730
1676.523418	-11.591010
1677.461501	-11.610280
1678.400635	-11.630067
1679.340821	-11.650146
1680.282061	-11.670839
1681.224357	-11.691532
1682.167710	-11.712950
1683.112122	-11.734944
1684.057595	-11.757363
1685.004132	-11.780685
1685.951732	-11.804784
1686.900400	-11.829546
1687.850135	-11.855080
1688.800940	-11.881705
1689.752818	-11.908664
1690.705768	-11.936669
1691.659795	-11.965209
1692.614898	-11.994690
1693.571081	-12.024289
1694.528345	-12.055157
1695.486691	-12.086180
1696.446122	-12.117998
1697.406640	-12.150143
1698.368245	-12.183241
1699.330941	-12.216114
1700.294729	-12.249930
1701.259611	-12.283804
1702.225588	-12.318212
1703.192664	-12.352535
1704.160838	-12.387604
1705.130114	-12.422290
1706.100493	-12.457448
1707.071977	-12.492681
1708.044568	-12.528306
1709.018268	-12.563943
1709.993079	-12.600381
1710.969003	-12.637011
1711.946041	-12.673972
1712.924196	-12.711541
1713.903469	-12.749315
1714.883862	-12.787267
1715.865378	-12.825653
1716.848017	-12.864405
1717.831783	-12.903473
1718.816677	-12.943167
1719.802701	-12.983454
1720.789857	-13.024346
1721.778147	-13.065876
1722.767573	-13.108314
1723.758136	-13.150957
1724.749840	-13.194233
1725.742685	-13.237733
1726.736673	-13.281547
1727.731808	-13.325389
1728.728090	-13.369892
1729.725521	-13.414433
1730.724105	-13.459542
1731.723842	-13.504904
1732.724735	-13.550726
1733.726785	-13.596386
1734.729995	-13.642470
1735.734366	-13.688358
1736.739902	-13.734365
1737.746603	-13.780267
1738.754472	-13.826408
1739.763510	-13.872316
1740.773721	-13.918595
1741.785105	-13.964950
1742.797665	-14.011578
1743.811403	-14.058430
1744.826321	-14.105593
1745.842422	-14.153022
1746.859706	-14.200636
1747.878177	-14.248682
1748.897835	-14.296634
1749.918685	-14.345025
1750.940726	-14.393241
1751.963963	-14.441974
1752.988395	-14.490520
1754.014027	-14.539677
1755.040860	-14.588672
1756.068895	-14.638325
1757.098135	-14.687659
1758.128583	-14.737426
1759.160240	-14.786785
1760.193109	-14.836080
1761.227191	-14.884754
1762.262488	-14.933275
1763.299004	-14.981171
1764.336740	-15.028548
1765.375697	-15.075824
1766.415880	-15.122609
1767.457288	-15.169127
1768.499926	-15.214927
1769.543794	-15.260403
1770.588895	-15.304433
1771.635231	-15.347851
1772.682805	-15.389690
1773.731619	-15.430745
1774.781674	-15.470242
1775.832973	-15.509214
1776.885519	-15.547022
1777.939312	-15.584136
1778.994357	-15.619930
1780.050654	-15.654528
1781.108207	-15.687507
1782.167017	-15.718654
1783.227087	-15.748439
1784.288418	-15.776707
1785.351013	-15.803855
1786.414875	-15.829682
1787.480006	-15.854877
1788.546407	-15.878491
1789.614082	-15.901282
1790.683032	-15.922627
1791.753259	-15.943036
1792.824767	-15.961905
1793.897557	-15.980012
1794.971632	-15.996927
1796.046994	-16.012925
1797.123645	-16.027947
1798.201588	-16.042096
1799.280824	-16.055369
1800.361357	-16.067415
1801.443188	-16.078670
1802.526320	-16.088492
1803.610756	-16.097275
1804.696497	-16.104629
1805.783546	-16.111157
1806.871906	-16.116216
1807.961578	-16.120469
1809.052565	-16.123751
1810.144870	-16.126309
1811.238494	-16.128028
1812.333441	-16.129118
1813.429713	-16.129021
1814.527311	-16.127375
1815.626239	-16.124186
1816.726499	-16.119205
1817.828094	-16.112968
1818.931025	-16.105743
1820.035295	-16.097900
1821.140906	-16.088798
1822.247862	-16.078473
1823.356165	-16.066052
1824.465816	-16.051622
1825.576819	-16.035229
1826.689175	-16.017357
1827.802888	-15.998301
1828.917960	-15.978360
1830.034394	-15.957659
1831.152191	-15.935807
1832.271354	-15.912979
1833.391887	-15.888825
1834.513790	-15.863628
1835.637068	-15.837468
1836.761722	-15.810895
1837.887755	-15.783873
1839.015169	-15.756551
1840.143968	-15.728690
1841.274153	-15.699884
1842.405727	-15.670148
1843.538693	-15.639506
1844.673053	-15.608066
1845.808810	-15.575867
1846.945966	-15.542940
1848.084525	-15.508990
1849.224488	-15.474050
1850.365858	-15.438426
1851.508638	-15.402366
1852.652831	-15.366197
1853.798438	-15.329990
1854.945463	-15.293404
1856.093909	-15.256179
1857.243777	-15.218320
1858.395071	-15.180044
1859.547794	-15.141742
1860.701947	-15.104101
1861.857533	-15.067103
1863.014556	-15.030593
1864.173018	-14.994162
1865.332922	-14.957212
1866.494270	-14.919584
1867.657065	-14.881617
1868.821309	-14.843796
1869.987006	-14.806351
1871.154158	-14.769500
1872.322768	-14.732793
1873.492839	-14.695889
1874.664373	-14.658721
1875.837373	-14.621472
1877.011841	-14.584385
1878.187782	-14.547870
1879.365197	-14.512073
1880.544089	-14.476732
1881.724460	-14.441790
1882.906315	-14.406887
1884.089655	-14.371983
1885.274483	-14.337307
1886.460803	-14.302974
1887.648616	-14.269021
1888.837927	-14.235359
1890.028736	-14.201783
1891.221049	-14.168157
1892.414866	-14.134815
1893.610192	-14.101652
1894.807028	-14.068749
1896.005379	-14.035978
1897.205246	-14.003184
1898.406633	-13.970397
1899.609542	-13.937905
1900.813977	-13.905818
1902.019940	-13.874117
1903.227434	-13.842706
1904.436462	-13.811184
1905.647028	-13.779510
1906.859133	-13.747743
1908.072781	-13.716145
1909.287976	-13.684942
1910.504719	-13.654166
1911.723013	-13.623490
1912.942863	-13.592617
1914.164270	-13.561361
1915.387238	-13.529778
1916.611770	-13.498268
1917.837868	-13.467112
1919.065536	-13.436382
1920.294777	-13.405923
1921.525594	-13.375527
1922.757989	-13.345176
1923.991967	-13.315164
1925.227529	-13.285920
1926.464679	-13.257675
1927.703420	-13.230404
1928.943755	-13.203820
1930.185688	-13.177733
1931.429221	-13.152157
1932.674356	-13.127194
1933.921099	-13.102870
1935.169451	-13.079150
1936.419415	-13.056003
1937.670996	-13.033476
1938.924195	-13.011594
1940.179017	-12.990317
1941.435463	-12.969466
1942.693538	-12.948867
1943.953245	-12.928563
1945.214586	-12.908776
1946.477566	-12.889666
1947.742186	-12.871183
1949.008451	-12.852997
1950.276363	-12.834747
1951.545926	-12.816297
1952.817143	-12.797768
1954.090017	-12.779452
1955.364551	-12.761638
1956.640749	-12.744346
1957.918615	-12.727231
1959.198150	-12.709997
1960.479359	-12.692491
1961.762244	-12.675050
1963.046810	-12.658123
1964.333059	-12.641706
1965.620995	-12.625310
1966.910621	-12.608359
1968.201940	-12.590653
1969.494956	-12.572459
1970.789672	-12.554306
1972.086091	-12.536423
1973.384217	-12.518754
1974.684053	-12.501118
1975.985602	-12.483323
1977.288869	-12.465389
1978.593855	-12.447470
1979.900566	-12.429784
1981.209003	-12.412544
1982.519171	-12.395842
1983.831073	-12.379542
1985.144712	-12.363524
1986.460093	-12.347675
1987.777217	-12.331987
1989.096089	-12.316637
1990.416713	-12.301917
1991.739092	-12.288164
1993.063228	-12.275486
1994.389127	-12.263679
1995.716791	-12.252279
1997.046223	-12.241160
1998.377428	-12.230738
1999.710409	-12.221569
2001.045169	-12.213771
2002.381713	-12.206766
2003.720043	-12.199961
2005.060163	-12.193417
2006.402077	-12.187607
2007.745788	-12.182942
2009.091301	-12.179269
2010.438618	-12.176165
2011.787743	-12.173269
2013.138680	-12.170472
2014.491433	-12.167905
2015.846005	-12.165726
2017.202399	-12.164081
2018.560621	-12.162760
2019.920673	-12.161343
2021.282558	-12.159728
2022.646281	-12.157927
2024.011846	-12.156028
2025.379256	-12.154107
2026.748515	-12.152273
2028.119626	-12.150807
2029.492594	-12.149664
2030.867422	-12.148335
2032.244114	-12.146576
2033.622673	-12.144757
2035.003104	-12.143364
2036.385411	-12.142345
2037.769597	-12.141090
2039.155665	-12.139194
2040.543621	-12.137005
2041.933467	-12.135194
2043.325208	-12.134023
2044.718847	-12.133222
2046.114389	-12.132320
2047.511837	-12.131237
2048.911195	-12.130471
2050.312467	-12.130453
2051.715657	-12.131129
2053.120769	-12.132172
2054.527807	-12.133400
2055.936775	-12.135109
2057.347677	-12.137692
2058.760516	-12.141133
2060.175297	-12.145426
2061.592025	-12.150794
2063.010701	-12.157339
2064.431332	-12.164858
2065.853921	-12.172920
2067.278472	-12.181531
2068.704988	-12.191415
2070.133475	-12.202878
2071.563936	-12.215456
2072.996375	-12.228565
2074.430796	-12.241907
2075.867204	-12.255936
2077.305603	-12.271025
2078.745996	-12.286585
2080.188389	-12.301872
2081.632784	-12.316578
2083.079187	-12.331223
2084.527601	-12.346664
2085.978030	-12.362628
2087.430480	-12.378337
2088.884954	-12.393559
2090.341455	-12.408641
2091.799990	-12.424326
2093.260561	-12.440582
2094.723173	-12.456982
2096.187831	-12.473461
2097.654538	-12.489732
2099.123300	-12.505865
2100.594119	-12.522072
2102.067001	-12.538494
2103.541950	-12.555559
2105.018971	-12.572704
2106.498067	-12.589318
2107.979243	-12.605736
2109.462503	-12.622561
2110.947853	-12.640609
2112.435295	-12.659095
2113.924836	-12.676989
2115.416478	-12.694962
2116.910227	-12.713862
2118.406087	-12.734536
2119.904063	-12.756149
2121.404158	-12.777543
2122.906378	-12.799426
2124.410727	-12.822269
2125.917210	-12.846787
2127.425831	-12.872769
2128.936594	-12.899801
2130.449505	-12.928563
2131.964567	-12.958449
2133.481786	-12.989646
2135.001166	-13.022167
2136.522711	-13.055911
2138.046427	-13.091074
2139.572317	-13.126318
2141.100388	-13.162329
2142.630642	-13.199746
2144.163085	-13.238487
2145.697722	-13.278079
2147.234558	-13.317375
2148.773596	-13.357388
2150.314842	-13.397960
2151.858301	-13.438949
2153.403977	-13.479519
2154.951875	-13.519280
2156.502000	-13.560297
2158.054357	-13.602605
2159.608950	-13.645601
2161.165785	-13.687441
2162.724866	-13.728678
2164.286198	-13.770363
2165.849786	-13.811564
2167.415635	-13.852432
2168.983749	-13.892605
2170.554134	-13.933190
2172.126795	-13.973744
2173.701737	-14.014664
2175.278964	-14.056158
2176.858481	-14.097715
2178.440294	-14.139434
2180.024408	-14.180811
2181.610827	-14.223779
2183.199557	-14.267768
2184.790602	-14.312023
2186.383968	-14.355844
2187.979660	-14.401205
2189.577683	-14.449643
2191.178041	-14.499230
2192.780741	-14.548511
2194.385787	-14.597335
2195.993185	-14.649024
2197.602939	-14.703707
2199.215054	-14.760878
2200.829537	-14.820529
2202.446392	-14.885151
2204.065624	-14.955976
2205.687239	-15.032691
2207.311242	-15.114129
2208.937638	-15.196859
2210.566433	-15.279288
2212.197631	-15.360612
2213.831239	-15.441526
2215.467261	-15.519833
2217.105703	-15.595293
2218.746570	-15.669380
2220.389867	-15.745900
2222.035601	-15.824244
2223.683776	-15.902420
2225.334398	-15.979715
2226.987472	-16.058173
2228.643004	-16.138053
2230.300999	-16.215827
2231.961463	-16.288270
2233.624402	-16.356121
2235.289820	-16.420371
2236.957723	-16.480131
2238.628118	-16.536212
2240.301009	-16.589040
2241.976402	-16.640607
2243.654303	-16.693885
2245.334717	-16.751018
2247.017650	-16.810376
2248.703108	-16.872178
2250.391096	-16.940012
2252.081620	-17.017060
2253.774686	-17.100590
2255.470300	-17.188251
2257.168467	-17.281986
2258.869193	-17.384551
2260.572484	-17.493667
2262.278345	-17.605086
2263.986783	-17.719632
2265.697804	-17.838453
2267.411412	-17.959540
2269.127615	-18.079410
2270.846417	-18.197604
2272.567826	-18.313759
2274.291846	-18.429822
2276.018484	-18.544274
2277.747745	-18.655376
2279.479637	-18.762449
2281.214164	-18.871111
2282.951333	-18.980623
2284.691149	-19.087560
2286.433619	-19.190903
2288.178750	-19.294710
2289.926546	-19.398509
2291.677014	-19.497489
2293.430161	-19.592292
2295.185992	-19.687010
2296.944513	-19.781014
2298.705732	-19.871268
2300.469653	-19.962215
2302.236283	-20.057436
2304.005629	-20.159779
2305.777696	-20.267142
2307.552492	-20.381356
2309.330022	-20.502154
2311.110292	-20.630935
2312.893310	-20.765670
2314.679080	-20.895940
2316.467611	-21.018861
2318.258907	-21.134612
2320.052976	-21.243512
2321.849824	-21.343806
2323.649457	-21.443867
2325.451883	-21.550355
2327.257106	-21.661516
2329.065135	-21.779319
2330.875975	-21.905965
2332.689633	-22.043931
2334.506116	-22.186133
2336.325430	-22.328811
2338.147581	-22.472726
2339.972578	-22.617416
2341.800425	-22.768538
2343.631130	-22.924968
2345.464700	-23.082878
2347.301141	-23.246338
2349.140461	-23.412188
2350.982665	-23.579586
2352.827760	-23.745368
2354.675754	-23.909852
2356.526653	-24.072129
2358.380464	-24.226822
2360.237195	-24.377869
2362.096851	-24.523154
2363.959440	-24.663417
2365.824968	-24.800243
2367.693444	-24.929778
2369.564873	-25.051002
2371.439263	-25.170896
2373.316620	-25.286666
2375.196953	-25.405753
2377.080267	-25.528450
2378.966570	-25.649529
2380.855869	-25.772751
2382.748171	-25.903553
2384.643484	-26.033918
2386.541815	-26.165743
2388.443170	-26.299871
2390.347557	-26.439048
2392.254984	-26.575600
2394.165457	-26.715054
2396.078984	-26.862660
2397.995572	-27.014763
2399.915229	-27.161319
2401.837961	-27.312709
2403.763777	-27.478761
2405.692684	-27.660278
2407.624689	-27.837613
2409.559800	-28.016823
2411.498023	-28.215721
2413.439368	-28.423971
2415.383840	-28.621390
2417.331449	-28.831457
2419.282201	-29.059791
2421.236104	-29.275577
2423.193165	-29.487794
2425.153393	-29.712320
2427.116795	-29.934276
2429.083378	-30.131199
2431.053151	-30.315832
2433.026121	-30.508127
2435.002297	-30.679709
2436.981685	-30.805675
2438.964293	-30.938995
2440.950131	-31.086861
2442.939204	-31.193667
2444.931522	-31.288474
2446.927092	-31.416918
2448.925923	-31.526452
2450.928022	-31.609395
2452.933397	-31.722512
2454.942056	-31.848963
2456.954008	-31.963626
2458.969260	-32.083037
2460.987821	-32.230959
2463.009699	-32.387343
2465.034902	-32.512259
2467.063437	-32.654909
2469.095315	-32.836978
2471.130542	-32.993646
2473.169127	-33.146033
2475.211078	-33.341495
2477.256404	-33.540742
2479.305112	-33.737539
2481.357212	-33.957753
2483.412713	-34.203068
2485.471621	-34.474312
2487.533946	-34.753601
2489.599696	-35.045124
2491.668880	-35.371262
2493.741507	-35.700159
2495.817585	-36.029921
2497.897122	-36.377562
2499.980127	-36.684323
2502.066609	-36.961897
2504.156578	-37.244885
2506.250040	-37.492905
2508.347006	-37.666585
2510.447483	-37.779246
2512.551482	-37.910102
2514.659010	-38.028299
2516.770076	-38.078780
2518.884690	-38.139969
2521.002861	-38.207123
2523.124597	-38.223944
2525.249907	-38.251275
2527.378801	-38.301974
2529.511287	-38.326777
2531.647375	-38.345128
2533.787074	-38.399333
2535.930393	-38.506418
2538.077340	-38.598496
2540.227927	-38.690169
2542.382160	-38.822700
2544.540051	-38.935865
2546.701608	-39.066894
2548.866840	-39.243631
2551.035757	-39.401907
2553.208369	-39.562715
2555.384684	-39.784646
2557.564713	-40.041485
2559.748465	-40.297620
2561.935948	-40.631061
2564.127174	-41.074942
2566.322152	-41.478787
2568.520890	-41.939070
2570.723399	-42.561999
2572.929689	-43.119233
2575.139769	-43.672675
2577.353649	-44.308094
2579.571340	-44.851182
2581.792849	-45.338046
2584.018189	-45.811063
2586.247368	-46.154618
2588.480396	-46.367311
2590.717284	-46.600870
2592.958041	-46.707128
2595.202678	-46.677870
2597.451204	-46.688434
2599.703630	-46.520036
2601.959966	-46.318732
2604.220222	-46.227479
2606.484408	-46.055046
2608.752535	-45.839746
2611.024612	-45.730041
2613.300651	-45.601056
2615.580661	-45.447945
2617.864653	-45.453062
2620.152638	-45.385693
2622.444625	-45.275224
2624.740626	-45.282898
2627.040651	-45.250048
2629.344710	-45.202178
2631.652814	-45.205090
2633.964974	-45.248980
2636.281200	-45.384517
2638.601504	-45.590131
2640.925896	-45.793482
2643.254386	-46.056010
2645.586987	-46.464628
2647.923707	-46.947421
2650.264559	-47.657717
2652.609554	-48.394092
2654.958702	-49.085319
2657.312015	-49.921755
2659.669503	-50.800803
2662.031178	-51.716807
2664.397051	-52.676238
2666.767132	-53.713836
2669.141434	-54.685122
2671.519968	-55.799855
2673.902745	-56.776430
2676.289776	-57.547705
2678.681072	-58.097377
2681.076646	-58.473115
2683.476508	-58.390021
2685.880671	-57.941490
2688.289145	-57.762105
2690.701942	-57.117926
2693.119075	-56.723572
2695.540554	-55.850239
2697.966391	-55.089291
2700.396599	-54.704370
2702.831189	-54.144816
2705.270172	-53.545802
2707.713561	-52.969975
2710.161368	-52.434706
2712.613605	-52.109575
2715.070283	-51.657619
2717.531416	-51.223923
2719.997014	-51.177536
2722.467090	-50.958219
2724.941657	-51.092202
2727.420726	-51.363780
2729.904310	-51.514691
2732.392421	-52.160315
2734.885072	-52.898679
2737.382275	-53.218582
2739.884042	-53.958070
2742.390387	-54.666503
2744.901321	-55.155421
2747.416857	-56.156411
2749.937008	-56.479531
2752.461787	-57.006343
2754.991206	-58.041014
2757.525279	-58.873341
2760.064017	-59.331338
2762.607434	-60.623839
2765.155544	-61.310374
2767.708358	-62.380153
2770.265890	-63.487806
2772.828153	-64.026490
2775.395160	-66.459597
2777.966924	-69.645494
2780.543459	-71.482435
2783.124778	-78.333789
2785.710894	-81.252692
2788.301821	-72.815973
2790.897572	-67.426351
2793.498160	-65.130049
2796.103599	-63.583478
2798.713903	-61.215296
2801.329085	-60.176244
2803.949159	-59.547808
2806.574139	-58.344687
2809.204038	-58.460831
2811.838871	-58.346663
2814.478650	-58.280381
2817.123391	-59.213146
2819.773107	-59.028376
2822.427812	-59.957442
2825.087521	-61.000914
2827.752247	-60.621036
2830.422005	-62.136660
2833.096808	-61.656880
2835.776672	-62.374938
2838.461611	-63.221397
2841.151638	-62.502244
2843.846769	-63.674423
2846.547019	-63.189835
2849.252401	-63.330703
2851.962930	-63.570419
2854.678621	-62.574128
2857.399489	-63.375154
2860.125549	-62.728253
2862.856815	-62.471393
2865.593302	-63.158613
2868.335026	-63.782204
2871.082002	-64.267456
2873.834244	-64.851612
2876.591767	-66.074910
2879.354588	-66.770463
2882.122721	-68.168731
2884.896181	-70.612519
2887.674984	-69.158509
2890.459146	-70.579543
2893.248681	-70.802336
2896.043606	-69.123193
2898.843937	-68.425745
2901.649687	-67.802725
2904.460875	-67.463748
2907.277515	-69.416135
2910.099623	-68.561130
2912.927215	-68.962845
2915.760308	-70.147887
2918.598916	-70.767201
2921.443057	-69.728712
2924.292747	-72.541529
2927.148002	-71.929027
2930.008837	-73.542741
2932.875270	-75.403235
2935.747318	-75.463125
2938.624995	-80.681974
2941.508320	-74.980990
2944.397308	-76.151855
2947.291977	-71.996521
2950.192343	-70.564097
2953.098423	-68.304647
2956.010234	-67.557159
2958.927792	-67.389458
2961.851116	-66.620620
2964.780221	-66.289149
2967.715126	-66.508119
2970.655847	-66.450118
2973.602402	-65.806582
2976.554808	-68.011269
2979.513083	-68.326253
2982.477243	-69.471558
2985.447308	-70.678590
2988.423293	-74.735113
2991.405218	-79.017577
2994.393099	-79.626300
2997.386955	-85.220221
