# 2022-03-22_00.15.31
# shape = sech2
# FWHM_ps = 0.1
# carrier_nm = 1542
# frep_MHz = 12126
# pow_mW = 8000
# GDD = 0.0
# propa_len = 0.13933333333333334
# untap_len = 0.01
# taper_len = 0.07933333333333334
# waist_len = 0.02
# uptap_len = 0.02
# untap_scale = 1.0
# waist_scale = 0.11578947368421054
# workingDir = NL_20110305_12 (Spirou)
# axis = slow
# window_ps = 10.0
# steps = 200
# points = 21700
# 
# wavelength [nm]	 power spectral density [dB]
600.043425	-87.734012
600.163550	-87.793862
600.283723	-85.571342
600.403943	-91.157375
600.524212	-90.555968
600.644529	-91.173859
600.764895	-94.636922
600.885308	-88.400661
601.005770	-90.718185
601.126280	-90.563359
601.246839	-91.879342
601.367446	-91.714913
601.488101	-88.002142
601.608804	-91.787253
601.729557	-88.226836
601.850357	-94.719812
601.971206	-98.456528
602.092104	-89.402402
602.213050	-96.447524
602.334045	-90.069246
602.455089	-87.899715
602.576181	-85.888642
602.697322	-86.620314
602.818511	-85.446800
602.939749	-85.536320
603.061036	-95.662093
603.182372	-89.856049
603.303757	-95.038739
603.425191	-93.538018
603.546673	-88.035924
603.668204	-88.287645
603.789785	-86.712993
603.911414	-85.704953
604.033092	-83.585052
604.154820	-86.504129
604.276596	-91.801851
604.398422	-88.928865
604.520297	-90.669756
604.642220	-89.469423
604.764193	-87.025101
604.886216	-86.569832
605.008287	-86.867559
605.130408	-87.243376
605.252578	-93.387251
605.374798	-87.155993
605.497066	-89.720165
605.619385	-89.435833
605.741752	-87.195279
605.864169	-88.401016
605.986636	-86.886791
606.109152	-87.367643
606.231718	-84.636043
606.354333	-87.988276
606.476998	-90.645519
606.599712	-90.010633
606.722476	-90.592023
606.845290	-93.590829
606.968154	-92.729792
607.091067	-92.512168
607.214030	-87.391024
607.337043	-85.830949
607.460106	-90.036849
607.583219	-96.203445
607.706381	-90.329365
607.829594	-97.550501
607.952856	-97.450338
608.076169	-95.103282
608.199531	-103.582339
608.322944	-100.506684
608.446407	-88.114503
608.569920	-89.467649
608.693483	-90.971960
608.817096	-97.605788
608.940759	-102.456807
609.064473	-106.678828
609.188237	-99.239364
609.312051	-91.650843
609.435916	-97.107061
609.559831	-90.089738
609.683796	-87.259510
609.807812	-87.312901
609.931878	-86.072091
610.055995	-87.146970
610.180162	-88.378245
610.304380	-89.228083
610.428648	-102.057046
610.552967	-94.517370
610.677337	-88.635470
610.801757	-92.900069
610.926228	-100.058510
611.050750	-95.112708
611.175323	-95.759128
611.299946	-89.913318
611.424620	-89.307694
611.549345	-86.047920
611.674121	-89.043148
611.798948	-93.333734
611.923826	-88.279024
612.048755	-82.971539
612.173734	-83.404906
612.298765	-87.588394
612.423847	-83.518225
612.548980	-83.803729
612.674165	-88.740621
612.799400	-96.586247
612.924687	-96.549031
613.050025	-87.523075
613.175414	-87.310759
613.300854	-92.784858
613.426346	-88.483331
613.551889	-87.743925
613.677484	-92.711275
613.803130	-96.865578
613.928827	-92.173449
614.054576	-85.937219
614.180377	-83.561639
614.306229	-83.444291
614.432132	-87.628231
614.558087	-91.290496
614.684094	-95.571828
614.810153	-98.621384
614.936263	-90.284839
615.062425	-88.912695
615.188639	-90.936614
615.314904	-101.286155
615.441222	-95.426287
615.567591	-91.557236
615.694012	-84.983496
615.820486	-88.795832
615.947011	-86.230718
616.073588	-83.205910
616.200217	-83.431026
616.326898	-83.358444
616.453632	-82.806623
616.580417	-90.736102
616.707255	-100.449612
616.834144	-91.752536
616.961086	-93.028173
617.088081	-87.082804
617.215127	-95.317825
617.342226	-92.811147
617.469378	-89.181599
617.596581	-90.333313
617.723837	-89.305367
617.851146	-83.136040
617.978507	-82.380981
618.105920	-84.848515
618.233386	-89.003661
618.360905	-87.130061
618.488476	-90.509267
618.616100	-85.497552
618.743777	-87.475410
618.871506	-93.399318
618.999288	-92.267774
619.127123	-85.792518
619.255011	-82.082364
619.382951	-81.279752
619.510945	-81.758098
619.638991	-81.463674
619.767090	-81.692474
619.895243	-81.442693
620.023448	-84.898658
620.151706	-88.295898
620.280017	-94.621863
620.408382	-101.051015
620.536799	-88.617417
620.665270	-87.096701
620.793794	-82.921365
620.922371	-83.419650
621.051002	-84.806172
621.179686	-88.606593
621.308423	-88.392767
621.437213	-97.783486
621.566057	-88.993858
621.694954	-84.318404
621.823905	-86.220700
621.952909	-89.125674
622.081967	-89.251413
622.211079	-91.376735
622.340244	-98.038001
622.469462	-88.806901
622.598735	-84.814398
622.728061	-84.548166
622.857441	-86.856646
622.986874	-93.209182
623.116361	-89.040232
623.245903	-93.357523
623.375498	-100.735828
623.505147	-89.660819
623.634850	-86.433166
623.764606	-83.863123
623.894417	-86.506755
624.024282	-87.789773
624.154201	-91.335572
624.284174	-90.639411
624.414202	-90.217508
624.544283	-88.040869
624.674419	-89.997517
624.804609	-89.944560
624.934853	-88.414910
625.065151	-88.644721
625.195504	-84.738155
625.325911	-81.496847
625.456373	-79.418662
625.586889	-80.504178
625.717460	-83.355570
625.848085	-90.675502
625.978764	-95.682375
626.109498	-94.812166
626.240287	-87.176357
626.371131	-84.541901
626.502029	-85.821827
626.632982	-91.681350
626.763989	-100.143140
626.895052	-98.111034
627.026169	-86.695953
627.157341	-82.732989
627.288568	-79.962596
627.419850	-81.067881
627.551187	-81.817652
627.682579	-83.940561
627.814026	-85.191745
627.945528	-90.801161
628.077085	-94.405309
628.208697	-103.697204
628.340364	-102.862146
628.472087	-102.627651
628.603865	-96.867521
628.735698	-89.488016
628.867586	-82.661163
628.999530	-82.314650
629.131529	-82.641586
629.263584	-83.812643
629.395694	-84.083767
629.527859	-85.678809
629.660080	-94.011501
629.792357	-101.680731
629.924689	-101.578824
630.057077	-98.301050
630.189520	-88.279556
630.322019	-82.585526
630.454574	-84.217875
630.587184	-93.250838
630.719851	-96.619038
630.852573	-90.007076
630.985351	-85.708930
631.118185	-87.970134
631.251075	-89.264088
631.384021	-86.533668
631.517023	-86.855594
631.650081	-88.163063
631.783195	-91.353708
631.916365	-86.780608
632.049592	-89.075867
632.182874	-90.365861
632.316213	-85.111715
632.449608	-83.812898
632.583059	-83.443190
632.716567	-92.032595
632.850131	-89.020290
632.983751	-89.574011
633.117428	-93.249287
633.251161	-87.885092
633.384951	-85.863138
633.518797	-86.472208
633.652700	-92.968492
633.786660	-96.877709
633.920676	-91.411946
634.054749	-88.975944
634.188879	-86.393139
634.323065	-82.829310
634.457308	-82.277081
634.591608	-85.525557
634.725965	-88.067283
634.860379	-84.001351
634.994850	-84.634923
635.129377	-85.388881
635.263962	-84.389253
635.398604	-82.339334
635.533303	-82.901132
635.668058	-86.639944
635.802872	-93.170928
635.937742	-97.271395
636.072669	-89.950577
636.207654	-85.412206
636.342696	-84.613526
636.477796	-86.179223
636.612953	-86.785223
636.748167	-83.806817
636.883439	-86.944024
637.018768	-87.390396
637.154155	-96.117066
637.289599	-87.170113
637.425101	-82.298034
637.560660	-84.861711
637.696277	-84.115447
637.831952	-85.608802
637.967685	-82.792351
638.103475	-79.425829
638.239324	-82.493587
638.375230	-85.896958
638.511194	-90.436752
638.647215	-83.938840
638.783295	-83.663132
638.919433	-92.428846
639.055629	-89.764335
639.191883	-83.644619
639.328195	-86.326543
639.464565	-90.673824
639.600994	-87.130887
639.737481	-80.628387
639.874025	-82.843018
640.010629	-84.698545
640.147290	-93.557855
640.284010	-91.298920
640.420789	-95.073693
640.557625	-84.128564
640.694521	-82.753051
640.831474	-79.571675
640.968487	-80.070450
641.105558	-78.590091
641.242687	-78.593776
641.379876	-81.304553
641.517123	-84.272939
641.654429	-97.142131
641.791793	-83.722197
641.929216	-83.369919
642.066699	-100.416845
642.204240	-85.690891
642.341840	-82.868459
642.479499	-83.700099
642.617217	-91.527969
642.754994	-87.194846
642.892830	-81.946528
643.030726	-80.852134
643.168680	-79.111154
643.306694	-80.381242
643.444767	-80.058933
643.582899	-82.128570
643.721091	-88.031909
643.859342	-99.001485
643.997652	-85.075143
644.136022	-85.779042
644.274451	-88.833664
644.412940	-81.074074
644.551488	-80.648485
644.690096	-84.447770
644.828763	-90.019249
644.967490	-89.632749
645.106277	-91.718079
645.245124	-88.951586
645.384030	-81.198088
645.522997	-79.613848
645.662023	-79.776251
645.801109	-81.043276
645.940255	-79.702720
646.079460	-82.613446
646.218726	-82.338829
646.358052	-81.729498
646.497438	-93.461699
646.636884	-88.173882
646.776391	-83.719042
646.915957	-84.253448
647.055584	-81.061746
647.195271	-87.915550
647.335019	-88.173324
647.474826	-86.223590
647.614695	-88.163403
647.754623	-81.741663
647.894612	-82.146902
648.034662	-83.925553
648.174772	-85.815898
648.314943	-99.911030
648.455174	-83.790695
648.595466	-77.470011
648.735819	-80.491672
648.876233	-80.635786
649.016707	-80.266354
649.157242	-79.411704
649.297838	-77.298292
649.438495	-77.959944
649.579213	-79.364383
649.719992	-89.488125
649.860832	-90.558647
650.001733	-83.452884
650.142695	-84.826590
650.283718	-84.037637
650.424803	-83.309999
650.565949	-80.972024
650.707156	-81.088006
650.848424	-83.224598
650.989754	-84.052558
651.131145	-81.617174
651.272597	-78.877591
651.414111	-79.596904
651.555687	-84.166441
651.697324	-83.401780
651.839022	-86.110090
651.980782	-87.366395
652.122604	-80.256059
652.264488	-83.801685
652.406433	-88.871495
652.548441	-85.075140
652.690510	-86.703332
652.832640	-82.119857
652.974833	-85.248819
653.117088	-89.462310
653.259405	-85.043033
653.401784	-94.480746
653.544224	-86.240550
653.686727	-79.066350
653.829293	-80.120626
653.971920	-77.636700
654.114609	-79.116911
654.257361	-80.764990
654.400175	-80.617508
654.543052	-92.973201
654.685991	-87.673093
654.828992	-84.341983
654.972056	-86.027681
655.115183	-79.413969
655.258372	-84.955103
655.401623	-110.096506
655.544937	-82.154301
655.688314	-83.740512
655.831754	-82.452258
655.975256	-78.154812
656.118822	-81.377163
656.262450	-80.919250
656.406141	-83.001839
656.549894	-87.115856
656.693711	-90.545727
656.837591	-89.483743
656.981534	-112.606313
657.125540	-82.728731
657.269610	-80.565348
657.413742	-80.658566
657.557938	-79.335292
657.702196	-78.554351
657.846519	-76.903314
657.990904	-77.809690
658.135353	-78.907703
658.279866	-82.254679
658.424441	-87.949141
658.569081	-84.188908
658.713784	-84.682130
658.858550	-100.728274
659.003381	-81.112417
659.148274	-82.675817
659.293232	-85.347394
659.438253	-86.019041
659.583339	-98.498246
659.728488	-87.667998
659.873701	-82.716218
660.018978	-87.621337
660.164318	-81.395361
660.309723	-79.946862
660.455192	-80.503626
660.600725	-80.827773
660.746323	-85.968014
660.891984	-83.259906
661.037710	-84.410163
661.183500	-100.374890
661.329354	-83.762486
661.475272	-85.768076
661.621255	-94.510741
661.767303	-85.682891
661.913415	-83.296165
662.059591	-85.917267
662.205833	-81.484497
662.352138	-81.434778
662.498509	-79.269467
662.644944	-78.130960
662.791443	-83.120219
662.938008	-78.173979
663.084638	-77.552197
663.231332	-84.396211
663.378091	-86.407711
663.524915	-101.249100
663.671804	-86.630838
663.818759	-84.246082
663.965778	-85.764023
664.112863	-83.105905
664.260012	-77.544615
664.407227	-79.671309
664.554507	-81.524443
664.701853	-81.240871
664.849264	-81.163847
664.996740	-87.137625
665.144282	-90.314363
665.291889	-81.123829
665.439561	-79.985525
665.587300	-79.613079
665.735103	-82.264890
665.882973	-83.099583
666.030908	-82.669167
666.178909	-81.834496
666.326976	-91.284872
666.475109	-87.091191
666.623307	-85.393186
666.771571	-83.156385
666.919902	-83.682633
667.068298	-82.189882
667.216761	-95.463589
667.365289	-90.773524
667.513884	-89.459339
667.662545	-80.148167
667.811272	-84.262260
667.960065	-79.239205
668.108925	-75.064532
668.257851	-75.852438
668.406843	-78.456962
668.555902	-83.408753
668.705027	-83.889571
668.854219	-96.268266
669.003478	-87.319058
669.152803	-92.923586
669.302195	-83.856941
669.451653	-85.376606
669.601179	-82.954772
669.750771	-81.351862
669.900430	-83.009096
670.050156	-82.963289
670.199949	-84.479543
670.349808	-82.953750
670.499735	-83.863301
670.649729	-80.020610
670.799790	-89.773854
670.949918	-85.080688
671.100114	-80.228517
671.250377	-92.616935
671.400707	-84.777755
671.551104	-86.101049
671.701569	-80.293050
671.852101	-81.681718
672.002700	-87.678766
672.153368	-82.469813
672.304102	-91.615443
672.454905	-87.661830
672.605775	-91.848747
672.756713	-85.443875
672.907718	-87.564367
673.058791	-84.079337
673.209933	-79.410166
673.361142	-85.896373
673.512419	-93.903034
673.663764	-104.749966
673.815177	-77.709445
673.966658	-77.522560
674.118207	-78.143424
674.269825	-84.171099
674.421510	-83.688546
674.573264	-83.487804
674.725086	-78.830106
674.876977	-79.925297
675.028936	-77.424766
675.180963	-80.999485
675.333059	-85.236181
675.485224	-111.208739
675.637457	-97.337625
675.789758	-82.882778
675.942129	-92.351697
676.094568	-89.089563
676.247075	-85.298946
676.399652	-79.511500
676.552298	-84.464482
676.705012	-82.485039
676.857795	-81.733122
677.010648	-83.378202
677.163569	-80.240974
677.316560	-74.005027
677.469619	-79.255572
677.622748	-87.390143
677.775946	-82.816726
677.929214	-80.671711
678.082551	-77.481632
678.235957	-77.022620
678.389432	-75.060227
678.542977	-76.782086
678.696592	-78.409711
678.850276	-85.097566
679.004030	-83.303533
679.157853	-85.620496
679.311746	-91.131645
679.465709	-78.792418
679.619742	-80.410479
679.773844	-92.109489
679.928017	-77.719726
680.082259	-73.942017
680.236571	-78.300301
680.390954	-79.850305
680.545406	-84.734296
680.699929	-77.743634
680.854522	-75.309823
681.009185	-76.469856
681.163918	-99.638187
681.318722	-84.764774
681.473596	-78.677205
681.628540	-79.300058
681.783555	-80.072716
681.938641	-75.893838
682.093797	-76.595819
682.249023	-81.186781
682.404321	-82.761051
682.559689	-87.628099
682.715128	-94.474615
682.870637	-80.807938
683.026218	-78.357038
683.181869	-77.769627
683.337591	-80.545846
683.493385	-76.285264
683.649249	-73.487849
683.805185	-70.169037
683.961191	-72.672965
684.117269	-78.928787
684.273418	-81.692586
684.429639	-97.824979
684.585930	-82.993664
684.742294	-79.389318
684.898728	-77.100519
685.055234	-73.177197
685.211812	-72.889613
685.368461	-73.810112
685.525182	-72.947281
685.681975	-75.385400
685.838839	-75.896119
685.995775	-79.253445
686.152783	-77.870426
686.309863	-75.062267
686.467014	-76.928079
686.624238	-75.810582
686.781534	-81.116579
686.938902	-86.723337
687.096342	-84.133463
687.253854	-84.234300
687.411438	-81.975622
687.569095	-78.913522
687.726824	-83.654464
687.884626	-83.106520
688.042499	-81.881027
688.200446	-77.982701
688.358465	-80.010486
688.516556	-80.034427
688.674720	-85.222824
688.832957	-83.029291
688.991266	-79.817301
689.149649	-79.317699
689.308104	-78.106783
689.466632	-76.707233
689.625233	-74.133168
689.783906	-77.724917
689.942653	-84.697095
690.101473	-83.594869
690.260367	-90.782752
690.419333	-85.159934
690.578372	-76.041499
690.737485	-74.011044
690.896672	-75.426273
691.055931	-73.129423
691.215264	-74.802630
691.374671	-81.508664
691.534151	-82.942909
691.693704	-78.355036
691.853332	-75.713287
692.013033	-77.335150
692.172807	-79.514243
692.332656	-81.464955
692.492578	-94.177976
692.652575	-73.350122
692.812645	-70.080567
692.972789	-72.045952
693.133007	-71.274970
693.293300	-75.928529
693.453666	-77.366451
693.614107	-76.352340
693.774622	-73.191424
693.935211	-68.261390
694.095875	-68.726945
694.256613	-72.485860
694.417426	-75.482130
694.578313	-80.321851
694.739274	-74.707458
694.900311	-73.528602
695.061421	-71.939821
695.222607	-68.397782
695.383868	-74.997259
695.545203	-75.503919
695.706613	-73.864915
695.868098	-76.266307
696.029658	-74.717866
696.191293	-81.107443
696.353003	-73.584717
696.514789	-75.770417
696.676649	-88.563510
696.838585	-77.233682
697.000596	-76.053507
697.162682	-78.044890
697.324844	-74.886784
697.487081	-72.359185
697.649394	-71.026372
697.811782	-78.283986
697.974246	-72.771842
698.136786	-71.408875
698.299401	-71.996076
698.462092	-72.357234
698.624859	-80.547667
698.787702	-72.973168
698.950621	-74.455110
699.113616	-81.633187
699.276686	-75.695452
699.439833	-74.448971
699.603056	-83.614910
699.766355	-76.122477
699.929731	-71.015235
700.093183	-67.677538
700.256711	-70.851824
700.420315	-75.168960
700.583996	-69.696140
700.747754	-73.061133
700.911588	-74.686052
701.075499	-76.511081
701.239486	-74.389239
701.403550	-76.837936
701.567691	-81.662792
701.731909	-73.300119
701.896203	-72.611666
702.060575	-73.586447
702.225024	-70.727744
702.389549	-72.720275
702.554152	-73.385926
702.718832	-73.882970
702.883589	-76.765425
703.048424	-74.157280
703.213335	-77.832644
703.378324	-69.914226
703.543391	-72.050660
703.708535	-73.392096
703.873757	-74.025014
704.039056	-78.088505
704.204433	-72.450911
704.369887	-70.177364
704.535420	-67.591969
704.701030	-67.530977
704.866718	-68.583223
705.032484	-70.638746
705.198328	-72.415352
705.364250	-75.004951
705.530250	-76.582107
705.696328	-78.769845
705.862485	-70.213862
706.028720	-70.226346
706.195033	-69.262619
706.361424	-68.417878
706.527894	-71.646572
706.694442	-71.137375
706.861069	-73.982069
707.027775	-74.086817
707.194559	-78.941798
707.361422	-74.052362
707.528363	-71.626453
707.695384	-72.265432
707.862483	-76.292955
708.029661	-73.029918
708.196918	-72.696945
708.364254	-69.207475
708.531670	-69.257697
708.699164	-72.755704
708.866738	-71.615462
709.034391	-81.552932
709.202123	-72.174046
709.369935	-74.895666
709.537826	-71.356094
709.705796	-69.037065
709.873847	-70.059165
710.041976	-68.637430
710.210186	-73.042842
710.378475	-80.178844
710.546844	-73.244012
710.715292	-77.611256
710.883821	-73.027674
711.052429	-77.525321
711.221118	-69.766615
711.389887	-67.245971
711.558735	-70.594285
711.727664	-67.638046
711.896673	-70.710263
712.065763	-68.903284
712.234932	-68.098522
712.404183	-71.439580
712.573513	-68.211797
712.742924	-69.952889
712.912416	-69.900636
713.081988	-65.709898
713.251641	-68.173325
713.421375	-64.722439
713.591190	-66.529744
713.761085	-74.879996
713.931061	-68.531736
714.101119	-71.959288
714.271257	-63.499431
714.441476	-65.764957
714.611777	-66.978109
714.782159	-65.855566
714.952622	-67.302640
715.123166	-64.627239
715.293792	-70.026176
715.464499	-69.826809
715.635288	-66.446796
715.806158	-68.685037
715.977110	-67.101154
716.148143	-67.382173
716.319259	-69.594968
716.490456	-65.883992
716.661735	-71.303646
716.833096	-66.022047
717.004538	-67.255389
717.176063	-69.847523
717.347670	-66.272631
717.519359	-68.185980
717.691130	-64.708503
717.862984	-67.000594
718.034920	-68.723489
718.206938	-68.913201
718.379039	-65.824021
718.551222	-66.560007
718.723488	-64.891464
718.895836	-65.623553
719.068267	-66.307277
719.240781	-65.146700
719.413377	-64.670847
719.586057	-61.124783
719.758819	-63.432611
719.931664	-63.900314
720.104593	-63.841648
720.277604	-65.319851
720.450699	-62.777052
720.623876	-65.577549
720.797137	-64.876769
720.970482	-62.961093
721.143910	-66.716767
721.317421	-64.254463
721.491016	-66.597631
721.664694	-66.766795
721.838456	-63.538524
722.012302	-66.528981
722.186231	-64.221153
722.360244	-66.068143
722.534342	-65.145987
722.708523	-62.438448
722.882788	-65.121965
723.057137	-66.113093
723.231570	-63.891430
723.406088	-66.191181
723.580689	-62.116352
723.755375	-60.892047
723.930146	-65.866765
724.105000	-60.752874
724.279940	-62.467848
724.454963	-64.402506
724.630072	-60.662402
724.805265	-65.670296
724.980543	-62.543253
725.155905	-61.243619
725.331353	-64.106810
725.506885	-60.544511
725.682503	-62.856932
725.858205	-66.938300
726.033993	-62.720101
726.209865	-62.846131
726.385823	-61.871426
726.561866	-60.325706
726.737995	-61.808131
726.914209	-64.877850
727.090508	-61.824749
727.266893	-65.030311
727.443364	-63.068492
727.619920	-63.267974
727.796562	-64.654876
727.973290	-61.275302
728.150103	-60.423081
728.327003	-62.356685
728.503988	-62.248470
728.681060	-60.226176
728.858218	-65.261845
729.035461	-60.046591
729.212791	-60.432530
729.390208	-64.604113
729.567710	-59.570020
729.745299	-59.016726
729.922975	-64.755759
730.100737	-62.135287
730.278586	-59.463651
730.456521	-63.836190
730.634543	-60.988670
730.812652	-61.590963
730.990848	-65.670746
731.169130	-60.655305
731.347500	-59.656285
731.525957	-61.918085
731.704500	-62.155642
731.883131	-62.452059
732.061850	-59.810288
732.240655	-59.936961
732.419548	-60.071455
732.598528	-61.079163
732.777596	-62.445089
732.956751	-62.110788
733.135994	-61.125948
733.315325	-60.906931
733.494744	-61.029439
733.674250	-59.436307
733.853844	-62.088708
734.033526	-60.900402
734.213296	-62.161819
734.393154	-60.641052
734.573101	-60.576648
734.753135	-63.955300
734.933258	-60.055867
735.113469	-58.588656
735.293769	-59.384371
735.474157	-62.086868
735.654633	-60.948268
735.835198	-62.721791
736.015852	-60.982031
736.196594	-59.937252
736.377426	-61.533763
736.558346	-59.322744
736.739355	-59.137736
736.920453	-60.843217
737.101640	-63.051799
737.282916	-59.443089
737.464282	-62.997855
737.645736	-59.367729
737.827280	-59.296935
738.008914	-62.183182
738.190637	-60.591151
738.372449	-63.015064
738.554351	-61.160531
738.736342	-60.953985
738.918424	-59.724668
739.100595	-60.661975
739.282855	-60.188878
739.465206	-63.855565
739.647647	-58.832763
739.830178	-59.345211
740.012799	-60.806248
740.195510	-60.861756
740.378311	-61.284257
740.561203	-62.925266
740.744185	-59.953289
740.927258	-59.633053
741.110421	-62.938547
741.293674	-61.509189
741.477018	-60.828792
741.660453	-63.606235
741.843979	-61.746239
742.027596	-60.723510
742.211303	-59.352359
742.395102	-59.536639
742.578991	-61.005057
742.762972	-61.941154
742.947044	-59.056021
743.131207	-58.615831
743.315461	-65.922557
743.499807	-61.071641
743.684244	-63.270923
743.868773	-62.305207
744.053394	-61.556468
744.238106	-59.840196
744.422910	-65.080192
744.607805	-59.210535
744.792793	-61.383314
744.977872	-62.134235
745.163044	-61.582153
745.348307	-59.617511
745.533663	-60.206600
745.719111	-62.882996
745.904651	-61.583207
746.090283	-65.550883
746.276008	-62.409941
746.461826	-61.817491
746.647735	-62.887113
746.833738	-62.012244
747.019833	-61.090277
747.206021	-61.836473
747.392302	-63.447748
747.578676	-59.469555
747.765143	-65.436699
747.951703	-62.828146
748.138356	-61.792327
748.325102	-60.467849
748.511941	-65.478721
748.698874	-63.187097
748.885900	-61.256824
749.073019	-63.437640
749.260232	-62.531220
749.447539	-63.420465
749.634939	-59.672820
749.822433	-62.770450
750.010021	-64.520271
750.197703	-65.258669
750.385479	-62.823731
750.573348	-65.193787
750.761312	-68.173224
750.949370	-61.997892
751.137523	-63.737481
751.325769	-62.042102
751.514110	-66.755640
751.702545	-62.526075
751.891075	-64.511168
752.079700	-68.089389
752.268419	-69.568819
752.457233	-64.229739
752.646142	-63.283504
752.835145	-61.252113
753.024244	-60.992624
753.213437	-65.253423
753.402726	-71.024933
753.592110	-65.726092
753.781589	-68.080720
753.971163	-67.250000
754.160833	-72.279489
754.350598	-64.346647
754.540459	-64.023384
754.730415	-65.169083
754.920467	-64.364398
755.110615	-66.695894
755.300858	-63.854424
755.491198	-79.209149
755.681633	-69.073845
755.872164	-71.026994
756.062792	-66.099145
756.253515	-66.821951
756.444335	-68.834242
756.635252	-64.572507
756.826264	-77.929579
757.017373	-68.612479
757.208579	-77.810119
757.399881	-62.382034
757.591280	-65.116811
757.782776	-71.067341
757.974368	-72.669066
758.166058	-71.050751
758.357844	-86.591853
758.549728	-66.929147
758.741708	-68.888801
758.933786	-66.404187
759.125961	-74.469694
759.318233	-64.963682
759.510603	-72.736398
759.703071	-67.025621
759.895635	-76.415615
760.088298	-62.368717
760.281058	-67.069326
760.473916	-69.117354
760.666872	-68.885279
760.859926	-63.583744
761.053078	-65.220924
761.246328	-73.850197
761.439676	-71.881212
761.633122	-65.730033
761.826667	-71.596432
762.020310	-68.503032
762.214052	-72.104319
762.407892	-66.909947
762.601831	-68.932863
762.795868	-65.796487
762.990004	-67.678066
763.184239	-67.670883
763.378573	-62.107414
763.573006	-67.614457
763.767538	-68.157438
763.962169	-68.556871
764.156900	-67.276884
764.351729	-65.171550
764.546658	-63.757968
764.741687	-64.091879
764.936815	-66.085661
765.132042	-64.168233
765.327370	-62.714555
765.522797	-65.165970
765.718324	-64.664683
765.913950	-62.828447
766.109677	-66.282894
766.305504	-63.699776
766.501431	-65.030346
766.697458	-62.008678
766.893586	-61.313981
767.089814	-60.730418
767.286142	-64.633894
767.482571	-59.984689
767.679100	-63.709630
767.875730	-61.250647
768.072461	-62.623877
768.269293	-59.266734
768.466225	-65.474203
768.663259	-59.912635
768.860393	-60.451618
769.057629	-57.045476
769.254966	-62.272573
769.452404	-61.658072
769.649944	-62.642022
769.847585	-58.803042
770.045328	-60.275420
770.243172	-58.963888
770.441118	-60.548511
770.639166	-57.017191
770.837315	-59.775407
771.035567	-57.625247
771.233920	-60.151328
771.432376	-57.037459
771.630934	-57.841211
771.829594	-58.598339
772.028356	-59.236914
772.227220	-58.106050
772.426188	-56.934259
772.625257	-57.183935
772.824430	-56.835295
773.023705	-56.072050
773.223083	-56.911144
773.422563	-56.437026
773.622147	-57.472461
773.821834	-58.262133
774.021624	-56.493138
774.221517	-55.155655
774.421513	-54.335244
774.621613	-55.835966
774.821816	-55.079290
775.022122	-56.494960
775.222532	-54.384041
775.423046	-55.770845
775.623664	-56.265004
775.824385	-55.329381
776.025211	-54.298322
776.226140	-55.656811
776.427173	-54.159482
776.628311	-53.637236
776.829553	-53.043851
777.030899	-54.451093
777.232350	-53.938298
777.433905	-56.961568
777.635564	-53.502124
777.837328	-53.835039
778.039197	-52.924119
778.241171	-53.954772
778.443250	-52.567522
778.645433	-53.258254
778.847722	-54.001854
779.050116	-54.274195
779.252615	-52.124324
779.455219	-53.637679
779.657929	-52.980794
779.860744	-54.161738
780.063665	-52.167184
780.266691	-53.053838
780.469823	-51.825939
780.673061	-52.497476
780.876405	-51.461718
781.079855	-53.131788
781.283410	-52.304337
781.487072	-53.339790
781.690840	-52.304840
781.894715	-51.869101
782.098695	-50.898360
782.302783	-52.837598
782.506976	-51.390241
782.711277	-51.888794
782.915684	-51.695617
783.120198	-53.189975
783.324818	-51.048953
783.529546	-52.248348
783.734381	-50.245695
783.939322	-51.214614
784.144372	-51.246760
784.349528	-51.838682
784.554792	-50.453785
784.760163	-51.388329
784.965642	-51.156804
785.171228	-52.034344
785.376922	-50.023641
785.582724	-51.506375
785.788634	-49.732483
785.994651	-51.314759
786.200777	-49.641934
786.407011	-50.473605
786.613353	-50.506503
786.819804	-51.097860
787.026363	-50.253229
787.233030	-51.287215
787.439806	-48.796238
787.646691	-50.094798
787.853684	-49.776606
788.060786	-51.043176
788.267997	-49.424919
788.475317	-50.890625
788.682746	-49.269241
788.890285	-50.271892
789.097932	-49.258729
789.305689	-49.397974
789.513555	-48.603485
789.721531	-50.283166
789.929617	-49.076740
790.137812	-50.142006
790.346117	-49.429682
790.554531	-49.889450
790.763056	-47.977096
790.971691	-50.083979
791.180436	-48.568853
791.389291	-48.849771
791.598256	-49.217570
791.807332	-49.235862
792.016518	-48.399652
792.225815	-49.397590
792.435222	-48.188278
792.644740	-48.904792
792.854369	-48.865493
793.064109	-49.066411
793.273960	-47.696919
793.483922	-49.324783
793.693995	-49.294891
793.904180	-47.810670
794.114475	-48.284617
794.324882	-48.535241
794.535401	-47.986271
794.746031	-47.954489
794.956774	-48.115687
795.167627	-48.193782
795.378593	-48.986563
795.589671	-48.721382
795.800861	-48.323213
796.012162	-47.452287
796.223577	-47.983584
796.435103	-47.011884
796.646742	-48.770939
796.858493	-48.204344
797.070357	-47.606101
797.282334	-47.888699
797.494423	-48.609366
797.706626	-46.997551
797.918941	-47.841481
798.131369	-47.212519
798.343911	-48.416301
798.556566	-48.126972
798.769334	-48.465164
798.982215	-47.164323
799.195210	-46.838898
799.408319	-46.890094
799.621541	-48.003683
799.834877	-47.167693
800.048327	-48.548001
800.261890	-47.430659
800.475568	-48.239363
800.689360	-47.214168
800.903266	-46.605296
801.117287	-46.649861
801.331422	-46.669421
801.545671	-47.908752
801.760036	-48.253780
801.974514	-47.769712
802.189108	-46.806054
802.403816	-47.245283
802.618640	-46.545878
802.833578	-47.256774
803.048632	-46.987628
803.263800	-47.128808
803.479085	-47.402280
803.694484	-47.503305
803.909999	-47.190618
804.125630	-47.194674
804.341376	-45.957783
804.557239	-47.275608
804.773217	-46.697670
804.989311	-47.530155
805.205521	-46.988958
805.421847	-47.210000
805.638290	-46.842886
805.854849	-46.817799
806.071524	-46.371858
806.288316	-47.299212
806.505225	-47.070841
806.722250	-46.320947
806.939393	-47.353626
807.156652	-47.055806
807.374028	-46.426585
807.591521	-46.638690
807.809132	-47.003605
808.026859	-46.522808
808.244705	-47.241830
808.462667	-46.682581
808.680748	-47.345247
808.898946	-46.510939
809.117261	-46.452808
809.335695	-45.941935
809.554246	-48.006097
809.772916	-46.931544
809.991704	-46.549531
810.210610	-46.441168
810.429634	-46.605717
810.648777	-46.749359
810.868039	-46.303636
811.087419	-47.204796
811.306918	-46.681065
811.526535	-46.620418
811.746272	-46.942069
811.966127	-46.685012
812.186102	-46.555675
812.406196	-46.719962
812.626409	-46.592540
812.846742	-46.717527
813.067194	-46.626802
813.287766	-47.395484
813.508457	-46.133264
813.729269	-46.916659
813.950200	-46.087957
814.171251	-47.033088
814.392422	-47.028878
814.613714	-46.969224
814.835126	-46.540161
815.056658	-46.451224
815.278311	-47.150065
815.500084	-46.018429
815.721978	-47.548959
815.943993	-46.607447
816.166128	-46.784264
816.388385	-46.458779
816.610762	-46.855934
816.833261	-46.797952
817.055881	-46.569474
817.278623	-46.563872
817.501486	-46.722815
817.724471	-47.151529
817.947577	-46.785289
818.170805	-46.855223
818.394155	-46.552922
818.617627	-46.411398
818.841221	-46.693148
819.064937	-47.184348
819.288775	-46.708449
819.512736	-46.969261
819.736819	-46.520943
819.961025	-46.920042
820.185354	-46.299807
820.409805	-47.170564
820.634379	-46.701772
820.859076	-47.311595
821.083897	-46.873800
821.308840	-46.607209
821.533907	-46.459009
821.759097	-46.780205
821.984411	-47.296480
822.209848	-46.556646
822.435409	-47.750384
822.661093	-46.325536
822.886902	-47.053556
823.112834	-46.613877
823.338891	-47.365867
823.565072	-46.758627
823.791377	-47.211885
824.017807	-46.653494
824.244361	-46.982990
824.471039	-47.130397
824.697843	-46.993391
824.924771	-46.539861
825.151824	-47.109497
825.379002	-47.441347
825.606306	-47.117512
825.833734	-47.416889
826.061288	-46.651180
826.288967	-47.122789
826.516772	-46.770344
826.744703	-47.676050
826.972759	-46.771745
827.200941	-47.581337
827.429249	-47.377950
827.657683	-47.120713
827.886243	-46.922453
828.114930	-46.880153
828.343743	-47.941827
828.572682	-46.597745
828.801748	-47.768043
829.030941	-46.467302
829.260260	-47.467882
829.489706	-47.342905
829.719280	-47.709657
829.948980	-46.905321
830.178808	-47.138005
830.408763	-47.118381
830.638845	-46.691942
830.869055	-48.234555
831.099393	-47.017261
831.329858	-47.279233
831.560451	-46.882401
831.791173	-47.562628
832.022022	-46.501771
832.252999	-47.862003
832.484105	-47.617142
832.715339	-46.578575
832.946702	-47.039992
833.178193	-47.600919
833.409813	-47.248483
833.641561	-46.932855
833.873439	-48.005241
834.105445	-46.615769
834.337581	-47.510069
834.569846	-47.269798
834.802241	-47.052095
835.034764	-47.134755
835.267418	-47.139370
835.500201	-47.074247
835.733114	-47.035168
835.966157	-47.517365
836.199329	-46.230224
836.432632	-47.547044
836.666065	-47.266839
836.899629	-46.612722
837.133323	-46.993458
837.367147	-47.455123
837.601102	-46.556656
837.835188	-46.854197
838.069405	-47.802707
838.303752	-46.210136
838.538231	-46.838934
838.772841	-47.184758
839.007582	-47.050158
839.242455	-46.083382
839.477459	-47.325998
839.712595	-46.576869
839.947863	-46.299870
840.183263	-47.297446
840.418794	-46.577830
840.654458	-46.434447
840.890254	-46.430151
841.126182	-46.903042
841.362242	-45.739031
841.598435	-47.638617
841.834761	-46.460383
842.071220	-46.063120
842.307811	-45.939559
842.544536	-46.578157
842.781393	-45.993547
843.018384	-46.200535
843.255508	-47.045481
843.492765	-45.214302
843.730156	-46.095561
843.967681	-45.994104
844.205339	-46.535764
844.443132	-45.165099
844.681058	-46.719837
844.919118	-45.668859
845.157313	-45.149363
845.395642	-45.492712
845.634105	-45.951117
845.872703	-45.788257
846.111436	-44.846278
846.350303	-45.936627
846.589306	-45.004846
846.828443	-45.078881
847.067716	-45.575304
847.307124	-45.061071
847.546667	-45.340582
847.786345	-44.824504
848.026160	-45.111954
848.266110	-44.332323
848.506195	-45.352346
848.746417	-44.376960
848.986775	-44.789664
849.227269	-45.073214
849.467899	-44.077494
849.708666	-44.418748
849.949569	-44.184956
850.190609	-45.119603
850.431785	-43.637388
850.673099	-45.002851
850.914549	-43.650687
851.156137	-44.102236
851.397861	-43.240215
851.639723	-44.687285
851.881723	-44.045422
852.123860	-43.328128
852.366135	-43.792751
852.608547	-43.709077
852.851098	-43.516538
853.093786	-43.521628
853.336613	-42.869328
853.579578	-44.196215
853.822681	-42.782384
854.065923	-43.110820
854.309304	-42.707595
854.552823	-43.755735
854.796481	-42.145353
855.040278	-43.451555
855.284215	-42.788154
855.528290	-42.841614
855.772505	-42.847602
856.016859	-42.133395
856.261353	-42.399745
856.505987	-42.226123
856.750760	-42.531067
856.995673	-42.427317
857.240727	-42.114105
857.485920	-42.350012
857.731254	-41.721683
857.976729	-42.405673
858.222343	-41.323132
858.468099	-42.028345
858.713995	-41.320795
858.960032	-42.029565
859.206211	-41.627570
859.452530	-41.384304
859.698991	-41.296294
859.945593	-41.220842
860.192336	-41.752231
860.439222	-40.732909
860.686248	-41.363372
860.933417	-40.719176
861.180728	-41.510587
861.428181	-40.397968
861.675776	-41.073888
861.923514	-40.581962
862.171394	-40.821009
862.419417	-40.677418
862.667582	-39.957827
862.915890	-41.169056
863.164342	-39.962433
863.412936	-40.711445
863.661674	-40.090935
863.910555	-40.140002
864.159579	-40.182943
864.408747	-39.773312
864.658059	-40.540541
864.907515	-39.436491
865.157114	-40.214331
865.406858	-39.449683
865.656746	-39.932199
865.906778	-39.449313
866.156955	-39.662722
866.407277	-39.523026
866.657743	-39.121137
866.908354	-39.795853
867.159110	-38.794829
867.410011	-39.664977
867.661057	-38.760226
867.912249	-39.547251
868.163586	-38.651944
868.415069	-38.988313
868.666697	-39.081741
868.918472	-38.455343
869.170392	-39.237664
869.422458	-38.350788
869.674671	-38.720228
869.927030	-38.237800
870.179536	-38.993379
870.432188	-38.261140
870.684987	-38.193937
870.937933	-38.551119
871.191026	-37.972774
871.444266	-38.358114
871.697653	-37.938459
871.951188	-38.538933
872.204870	-37.606404
872.458700	-37.871224
872.712677	-38.506732
872.966803	-37.266455
873.221076	-37.981848
873.475498	-37.708111
873.730068	-38.035255
873.984787	-37.275091
874.239654	-37.264130
874.494669	-38.327612
874.749834	-36.843968
875.005147	-37.773503
875.260610	-37.266300
875.516222	-37.304181
875.771983	-37.208983
876.027894	-37.035008
876.283954	-37.775038
876.540164	-36.678531
876.796524	-37.090335
877.053033	-37.062552
877.309693	-36.980320
877.566503	-36.939266
877.823464	-36.833605
878.080575	-36.835408
878.337837	-36.688032
878.595249	-36.785053
878.852813	-36.570313
879.110528	-36.639926
879.368393	-36.601307
879.626410	-36.505269
879.884579	-36.375662
880.142899	-36.380152
880.401371	-36.505612
880.659994	-35.992013
880.918770	-36.530919
881.177698	-36.209869
881.436778	-36.033650
881.696010	-36.122141
881.955395	-35.901514
882.214933	-36.362306
882.474623	-35.674785
882.734467	-36.051729
882.994463	-35.762367
883.254613	-35.797253
883.514916	-35.877450
883.775372	-35.508960
884.035982	-35.872194
884.296746	-35.447435
884.557664	-35.647117
884.818735	-35.408259
885.079961	-35.586596
885.341341	-35.479516
885.602876	-35.089251
885.864565	-35.527389
886.126409	-35.212218
886.388407	-35.310842
886.650561	-35.072139
886.912870	-35.140610
887.175334	-35.179407
887.437953	-34.831408
887.700728	-35.126089
887.963658	-34.970850
888.226745	-35.059317
888.489987	-34.613907
888.753385	-34.869756
889.016940	-34.988168
889.280651	-34.552404
889.544518	-34.637506
889.808543	-34.721105
890.072723	-34.762345
890.337061	-34.363920
890.601556	-34.557068
890.866208	-34.675308
891.131017	-34.355977
891.395984	-34.273033
891.661109	-34.499191
891.926391	-34.457954
892.191831	-34.139087
892.457429	-34.185878
892.723186	-34.367926
892.989100	-34.215002
893.255173	-34.083027
893.521405	-33.955921
893.787796	-34.215357
894.054345	-34.031150
894.321053	-33.883639
894.587921	-33.956490
894.854948	-33.891130
895.122134	-33.895926
895.389480	-33.696353
895.656986	-33.821265
895.924651	-33.751552
896.192477	-33.705785
896.460463	-33.508132
896.728609	-33.569876
896.996915	-33.743068
897.265382	-33.490299
897.534010	-33.423116
897.802799	-33.380117
898.071749	-33.511111
898.340860	-33.405575
898.610132	-33.266460
898.879566	-33.288393
899.149162	-33.342115
899.418919	-33.273452
899.688838	-33.039337
899.958919	-33.310418
900.229162	-33.177477
900.499568	-33.060752
900.770136	-33.039927
901.040867	-32.960182
901.311761	-33.154268
901.582817	-32.962606
901.854037	-32.839121
902.125420	-32.863012
902.396966	-32.925866
902.668676	-32.885827
902.940550	-32.616688
903.212587	-32.819827
903.484788	-32.820159
903.757153	-32.583519
904.029683	-32.618940
904.302377	-32.599884
904.575236	-32.812095
904.848259	-32.401983
905.121447	-32.438453
905.394800	-32.651801
905.668319	-32.432356
905.942002	-32.483097
906.215852	-32.217527
906.489866	-32.576708
906.764047	-32.364641
907.038393	-32.075078
907.312906	-32.390934
907.587584	-32.250090
907.862429	-32.331646
908.137441	-31.907408
908.412619	-32.111381
908.687964	-32.371380
908.963476	-31.788223
909.239155	-32.112616
909.515002	-31.844887
909.791015	-32.168335
910.067197	-31.840610
910.343546	-31.644920
910.620063	-32.128644
910.896748	-31.738710
911.173601	-31.913243
911.450623	-31.536718
911.727813	-31.904514
912.005171	-31.935008
912.282699	-31.358860
912.560395	-31.904398
912.838261	-31.591704
913.116296	-31.856598
913.394500	-31.437448
913.672874	-31.454101
913.951418	-31.899495
914.230131	-31.365958
914.509015	-31.526925
914.788068	-31.384541
915.067292	-31.591010
915.346687	-31.473713
915.626252	-31.055600
915.905988	-31.540203
916.185895	-31.366741
916.465973	-31.305080
916.746223	-31.110459
917.026644	-31.173637
917.307236	-31.407505
917.588000	-31.044234
917.868937	-31.068658
918.150045	-31.140121
918.431325	-31.222922
918.712778	-30.928544
918.994404	-30.902032
919.276202	-31.094978
919.558173	-31.016963
919.840317	-30.892036
920.122634	-30.721121
920.405125	-30.998371
920.687789	-30.854685
920.970627	-30.649491
921.253639	-30.715740
921.536824	-30.730968
921.820184	-30.762940
922.103718	-30.442247
922.387427	-30.547415
922.671310	-30.695815
922.955368	-30.410236
923.239601	-30.343661
923.524009	-30.381563
923.808592	-30.533752
924.093351	-30.330806
924.378285	-30.114979
924.663396	-30.297228
924.948682	-30.403373
925.234144	-30.104911
925.519782	-30.033148
925.805597	-30.257903
926.091589	-30.221832
926.377757	-30.064765
926.664102	-29.858864
926.950624	-30.167138
927.237323	-30.181624
927.524200	-29.806749
927.811255	-29.913244
928.098487	-30.009986
928.385897	-30.117348
928.673485	-29.674397
928.961251	-29.771450
929.249196	-30.031239
929.537319	-29.783886
929.825621	-29.628358
930.114102	-29.684875
930.402762	-29.913777
930.691601	-29.692487
930.980620	-29.425861
931.269818	-29.700762
931.559196	-29.717771
931.848753	-29.604622
932.138491	-29.342733
932.428409	-29.595066
932.718508	-29.687352
933.008787	-29.403052
933.299246	-29.451288
933.589887	-29.485058
933.880709	-29.515979
934.171712	-29.408287
934.462896	-29.450715
934.754262	-29.469361
935.045810	-29.242227
935.337539	-29.436142
935.629451	-29.468575
935.921545	-29.302889
936.213822	-29.161963
936.506281	-29.332495
936.798922	-29.471324
937.091747	-29.095712
937.384755	-29.049153
937.677946	-29.332368
937.971321	-29.245115
938.264879	-28.959917
938.558621	-28.966425
938.852547	-29.321825
939.146657	-29.012436
939.440952	-28.785514
939.735431	-28.982552
940.030095	-29.175935
940.324943	-28.847325
940.619977	-28.721239
940.915196	-28.947351
941.210600	-28.933910
941.506189	-28.777766
941.801965	-28.793569
942.097926	-28.813576
942.394074	-28.642106
942.690407	-28.790464
942.986927	-28.904501
943.283634	-28.564197
943.580527	-28.514154
943.877608	-28.827862
944.174875	-28.785062
944.472330	-28.474819
944.769972	-28.453761
945.067802	-28.780651
945.365820	-28.568119
945.664026	-28.372768
945.962420	-28.542261
946.261002	-28.557955
946.559773	-28.376656
946.858733	-28.320373
947.157881	-28.521505
947.457219	-28.226120
947.756746	-28.340599
948.056462	-28.346769
948.356368	-28.185536
948.656464	-28.022798
948.956749	-28.368285
949.257225	-28.277474
949.557891	-27.856715
949.858748	-27.993367
950.159796	-28.278681
950.461034	-27.931196
950.762463	-28.014739
951.064084	-27.890644
951.365896	-27.959004
951.667900	-27.792456
951.970095	-28.131744
952.272483	-27.745982
952.575063	-27.650910
952.877835	-27.983105
953.180799	-27.884754
953.483956	-27.593774
953.787307	-27.759645
954.090850	-27.823868
954.394586	-27.686484
954.698516	-27.685019
955.002640	-27.747201
955.306957	-27.448793
955.611469	-27.815404
955.916174	-27.750422
956.221074	-27.433439
956.526169	-27.515134
956.831458	-27.721104
957.136942	-27.600852
957.442622	-27.470613
957.748496	-27.586069
958.054567	-27.370248
958.360833	-27.531482
958.667294	-27.734049
958.973952	-27.240417
959.280806	-27.381171
959.587857	-27.565235
959.895104	-27.375252
960.202548	-27.454881
960.510189	-27.333248
960.818027	-27.304940
961.126062	-27.343565
961.434295	-27.587809
961.742726	-27.051942
962.051355	-27.322279
962.360182	-27.393514
962.669207	-27.212153
962.978431	-27.394597
963.287854	-27.126003
963.597475	-27.097655
963.907296	-27.403264
964.217315	-27.284168
964.527535	-27.089653
964.837954	-27.150848
965.148573	-27.129792
965.459392	-27.187085
965.770411	-27.362133
966.081630	-26.921220
966.393051	-27.075796
966.704672	-27.205458
967.016494	-27.013700
967.328517	-27.258659
967.640742	-26.932920
967.953169	-26.970902
968.265797	-27.205630
968.578627	-26.927753
968.891660	-27.064543
969.204895	-26.963121
969.518332	-26.909573
969.831972	-27.120841
970.145816	-26.896655
970.459862	-26.833293
970.774112	-26.945964
971.088565	-26.912093
971.403223	-26.951171
971.718084	-26.895713
972.033149	-26.609352
972.348419	-26.914601
972.663893	-26.819459
972.979572	-26.880862
973.295456	-26.748610
973.611546	-26.527219
973.927840	-26.808457
974.244340	-26.711619
974.561046	-26.764966
974.877958	-26.642927
975.195076	-26.412953
975.512401	-26.768812
975.829932	-26.502728
976.147670	-26.732245
976.465615	-26.422604
976.783767	-26.436295
977.102126	-26.627681
977.420693	-26.390611
977.739468	-26.612939
978.058451	-26.259502
978.377642	-26.443085
978.697041	-26.491332
979.016649	-26.338355
979.336466	-26.481315
979.656492	-26.113816
979.976727	-26.457894
980.297171	-26.306213
980.617825	-26.400478
980.938689	-26.267226
981.259763	-26.102114
981.581048	-26.370476
981.902542	-26.178564
982.224248	-26.458154
982.546164	-26.042147
982.868291	-26.220119
983.190630	-26.119350
983.513180	-26.279952
983.835942	-26.225072
984.158916	-26.081096
984.482101	-26.115033
984.805500	-26.079593
985.129110	-26.223140
985.452934	-26.114566
985.776970	-26.038135
986.101220	-26.007304
986.425683	-26.077383
986.750359	-26.119842
987.075250	-26.074190
987.400354	-25.928164
987.725673	-25.968162
988.051206	-25.972223
988.376954	-26.116871
988.702916	-25.962794
989.029094	-25.922082
989.355487	-25.860438
989.682095	-25.925969
990.008919	-26.060875
990.335959	-25.895499
990.663216	-25.940577
990.990688	-25.748526
991.318377	-25.961024
991.646283	-25.916724
991.974406	-25.942120
992.302746	-25.835971
992.631304	-25.780326
992.960079	-25.890841
993.289072	-25.883366
993.618283	-25.910983
993.947713	-25.770466
994.277361	-25.761250
994.607227	-25.818707
994.937313	-25.846370
995.267618	-25.870599
995.598142	-25.694656
995.928886	-25.689351
996.259849	-25.716542
996.591033	-25.766642
996.922437	-25.798348
997.254061	-25.595374
997.585906	-25.628617
997.917972	-25.526545
998.250260	-25.682377
998.582768	-25.620188
998.915498	-25.578975
999.248450	-25.448311
999.581624	-25.417340
999.915020	-25.516511
1000.248639	-25.478597
1000.582480	-25.450725
1000.916545	-25.337509
1001.250832	-25.305021
1001.585343	-25.377554
1001.920077	-25.315381
1002.255035	-25.363157
1002.590218	-25.195094
1002.925624	-25.237271
1003.261255	-25.217059
1003.597111	-25.263038
1003.933192	-25.232363
1004.269497	-25.109961
1004.606029	-25.144548
1004.942785	-25.092630
1005.279768	-25.222147
1005.616977	-25.115975
1005.954412	-25.085644
1006.292074	-25.007762
1006.629962	-25.019565
1006.968077	-25.102461
1007.306420	-25.053049
1007.644990	-25.031485
1007.983787	-24.913613
1008.322813	-24.922382
1008.662067	-24.965320
1009.001549	-24.964819
1009.341259	-24.967444
1009.681199	-24.818505
1010.021367	-24.844640
1010.361765	-24.811071
1010.702392	-24.888260
1011.043250	-24.840718
1011.384337	-24.782594
1011.725654	-24.729193
1012.067202	-24.714417
1012.408980	-24.792070
1012.750989	-24.744510
1013.093230	-24.727781
1013.435702	-24.650111
1013.778405	-24.634486
1014.121341	-24.694294
1014.464508	-24.675019
1014.807908	-24.682946
1015.151540	-24.571811
1015.495405	-24.575264
1015.839503	-24.576952
1016.183835	-24.618897
1016.528400	-24.613902
1016.873198	-24.522703
1017.218231	-24.496569
1017.563498	-24.455632
1017.908999	-24.536813
1018.254735	-24.506426
1018.600707	-24.482033
1018.946913	-24.399592
1019.293354	-24.355838
1019.640032	-24.401571
1019.986945	-24.386976
1020.334094	-24.404205
1020.681480	-24.304059
1021.029102	-24.266042
1021.376961	-24.247068
1021.725058	-24.260897
1022.073391	-24.282364
1022.421962	-24.197545
1022.770772	-24.174706
1023.119819	-24.087790
1023.469104	-24.144587
1023.818628	-24.107651
1024.168391	-24.109311
1024.518393	-24.025965
1024.868634	-23.965584
1025.219115	-23.976754
1025.569836	-23.949143
1025.920796	-23.983835
1026.271997	-23.886208
1026.623438	-23.839653
1026.975121	-23.777723
1027.327044	-23.784796
1027.679208	-23.814218
1028.031614	-23.756891
1028.384262	-23.712802
1028.737152	-23.590785
1029.090284	-23.599810
1029.443659	-23.590471
1029.797276	-23.618450
1030.151137	-23.558596
1030.505240	-23.457745
1030.859587	-23.412304
1031.214178	-23.370322
1031.569013	-23.434772
1031.924093	-23.377594
1032.279417	-23.357141
1032.634985	-23.248742
1032.990799	-23.219082
1033.346858	-23.221096
1033.703162	-23.222971
1034.059712	-23.231395
1034.416509	-23.137142
1034.773551	-23.109286
1035.130841	-23.051645
1035.488377	-23.095298
1035.846160	-23.096652
1036.204190	-23.059950
1036.562468	-23.008304
1036.920994	-22.942127
1037.279768	-22.974295
1037.638790	-22.964417
1037.998061	-22.997289
1038.357581	-22.919971
1038.717350	-22.879584
1039.077368	-22.837152
1039.437636	-22.855063
1039.798154	-22.902183
1040.158922	-22.863068
1040.519940	-22.835785
1040.881209	-22.731861
1041.242729	-22.759792
1041.604501	-22.755790
1041.966524	-22.807108
1042.328798	-22.774738
1042.691325	-22.707725
1043.054103	-22.648725
1043.417135	-22.624311
1043.780419	-22.682276
1044.143956	-22.679249
1044.507746	-22.670813
1044.871791	-22.571149
1045.236088	-22.527000
1045.600641	-22.503322
1045.965447	-22.532593
1046.330508	-22.559898
1046.695824	-22.492785
1047.061395	-22.436519
1047.427222	-22.343933
1047.793304	-22.363178
1048.159642	-22.356465
1048.526237	-22.377517
1048.893088	-22.306116
1049.260196	-22.225122
1049.627561	-22.169839
1049.995183	-22.151682
1050.363063	-22.178100
1050.731201	-22.139350
1051.099597	-22.104245
1051.468251	-21.987378
1051.837164	-21.961003
1052.206336	-21.937590
1052.575767	-21.962436
1052.945458	-21.931320
1053.315409	-21.857498
1053.685619	-21.778687
1054.056090	-21.722463
1054.426821	-21.746717
1054.797814	-21.739472
1055.169067	-21.735176
1055.540582	-21.633961
1055.912359	-21.565838
1056.284398	-21.522255
1056.656698	-21.543191
1057.029262	-21.563143
1057.402088	-21.527670
1057.775177	-21.468118
1058.148530	-21.371093
1058.522146	-21.358809
1058.896027	-21.368115
1059.270171	-21.407416
1059.644580	-21.382783
1060.019254	-21.313882
1060.394193	-21.239728
1060.769397	-21.214872
1061.144867	-21.251954
1061.520602	-21.273030
1061.896604	-21.271695
1062.272872	-21.185303
1062.649407	-21.138883
1063.026210	-21.104279
1063.403279	-21.152037
1063.780616	-21.163599
1064.158221	-21.165596
1064.536094	-21.090332
1064.914235	-21.029927
1065.292645	-21.025078
1065.671325	-21.050248
1066.050273	-21.087157
1066.429491	-21.051323
1066.808979	-21.008828
1067.188738	-20.931857
1067.568766	-20.937052
1067.949066	-20.962603
1068.329636	-20.990154
1068.710478	-20.952620
1069.091592	-20.883193
1069.472977	-20.828133
1069.854635	-20.806488
1070.236565	-20.842584
1070.618768	-20.846299
1071.001243	-20.806260
1071.383993	-20.710570
1071.767016	-20.657626
1072.150313	-20.628670
1072.533884	-20.656298
1072.917730	-20.653491
1073.301850	-20.593909
1073.686246	-20.506480
1074.070917	-20.426473
1074.455864	-20.423833
1074.841087	-20.425228
1075.226586	-20.432929
1075.612362	-20.354792
1075.998415	-20.271031
1076.384745	-20.185511
1076.771353	-20.184044
1077.158238	-20.184101
1077.545401	-20.180468
1077.932843	-20.106460
1078.320564	-20.002039
1078.708564	-19.941577
1079.096842	-19.912809
1079.485401	-19.939580
1079.874240	-19.914163
1080.263358	-19.853914
1080.652757	-19.752145
1081.042438	-19.701484
1081.432399	-19.685336
1081.822641	-19.718845
1082.213166	-19.708833
1082.603972	-19.656272
1082.995061	-19.584928
1083.386433	-19.536924
1083.778087	-19.556035
1084.170025	-19.580651
1084.562246	-19.605676
1084.954751	-19.549841
1085.347541	-19.508656
1085.740615	-19.465344
1086.133973	-19.489960
1086.527617	-19.527475
1086.921546	-19.533283
1087.315761	-19.507798
1087.710262	-19.443828
1088.105050	-19.427457
1088.500124	-19.423541
1088.895485	-19.478775
1089.291134	-19.457788
1089.687070	-19.455465
1090.083294	-19.369442
1090.479806	-19.376312
1090.876607	-19.352779
1091.273696	-19.419568
1091.671075	-19.390027
1092.068744	-19.390496
1092.466702	-19.310699
1092.864950	-19.303103
1093.263489	-19.297202
1093.662319	-19.330570
1094.061440	-19.322830
1094.460852	-19.281929
1094.860555	-19.218229
1095.260551	-19.166784
1095.660840	-19.167710
1096.061421	-19.156729
1096.462295	-19.146464
1096.863462	-19.065970
1097.264923	-18.993017
1097.666678	-18.913441
1098.068727	-18.900836
1098.471071	-18.869435
1098.873710	-18.842861
1099.276644	-18.759329
1099.679874	-18.673976
1100.083400	-18.611931
1100.487222	-18.590098
1100.891340	-18.580750
1101.295756	-18.550766
1101.700468	-18.496724
1102.105478	-18.425631
1102.510787	-18.401138
1102.916393	-18.399660
1103.322298	-18.418647
1103.728502	-18.409624
1104.135005	-18.383496
1104.541807	-18.343053
1104.948909	-18.348685
1105.356312	-18.373476
1105.764015	-18.405001
1106.172019	-18.417127
1106.580324	-18.396725
1106.988931	-18.380379
1107.397840	-18.386709
1107.807051	-18.424416
1108.216564	-18.444481
1108.626380	-18.458757
1109.036500	-18.426722
1109.446923	-18.406825
1109.857649	-18.401065
1110.268680	-18.425576
1110.680016	-18.429347
1111.091657	-18.426830
1111.503602	-18.382050
1111.915854	-18.344573
1112.328411	-18.328307
1112.741275	-18.333832
1113.154445	-18.328929
1113.567922	-18.304455
1113.981706	-18.257945
1114.395798	-18.202622
1114.810198	-18.186142
1115.224906	-18.175884
1115.639923	-18.164760
1116.055249	-18.124545
1116.470884	-18.072676
1116.886829	-18.008580
1117.303084	-17.986491
1117.719650	-17.963806
1118.136526	-17.937592
1118.553713	-17.880120
1118.971212	-17.816979
1119.389022	-17.745406
1119.807145	-17.707382
1120.225580	-17.674580
1120.644328	-17.623762
1121.063389	-17.555302
1121.482763	-17.479273
1121.902452	-17.408492
1122.322454	-17.361177
1122.742771	-17.326118
1123.163404	-17.267273
1123.584351	-17.201670
1124.005614	-17.132629
1124.427193	-17.083190
1124.849089	-17.046074
1125.271301	-17.031754
1125.693830	-16.988801
1126.116677	-16.945828
1126.539842	-16.905861
1126.963324	-16.891054
1127.387126	-16.885654
1127.811246	-16.899841
1128.235685	-16.886935
1128.660444	-16.871232
1129.085522	-16.861987
1129.510922	-16.881079
1129.936641	-16.902505
1130.362682	-16.931059
1130.789044	-16.938290
1131.215728	-16.930918
1131.642734	-16.938778
1132.070063	-16.966685
1132.497714	-16.993981
1132.925689	-17.008701
1133.353987	-17.008561
1133.782610	-16.990202
1134.211556	-16.988621
1134.640827	-17.000635
1135.070424	-17.011875
1135.500345	-16.991417
1135.930593	-16.967548
1136.361166	-16.927996
1136.792067	-16.907250
1137.223294	-16.895589
1137.654848	-16.882775
1138.086730	-16.835348
1138.518940	-16.787883
1138.951479	-16.738931
1139.384346	-16.709639
1139.817543	-16.680591
1140.251069	-16.655423
1140.684925	-16.598598
1141.119111	-16.546311
1141.553628	-16.505497
1141.988475	-16.479781
1142.423655	-16.444322
1142.859166	-16.412013
1143.295009	-16.366325
1143.731185	-16.328659
1144.167694	-16.297265
1144.604536	-16.274603
1145.041711	-16.236956
1145.479221	-16.207664
1145.917065	-16.188153
1146.355245	-16.165287
1146.793759	-16.131211
1147.232609	-16.102643
1147.671795	-16.083576
1148.111317	-16.076541
1148.551177	-16.064656
1148.991373	-16.029477
1149.431907	-15.994588
1149.872779	-15.993342
1150.313989	-16.009971
1150.755538	-15.986863
1151.197426	-15.939910
1151.639653	-15.920062
1152.082220	-15.938600
1152.525128	-15.946147
1152.968376	-15.914198
1153.411966	-15.869860
1153.855897	-15.865827
1154.300169	-15.884012
1154.744784	-15.878721
1155.189742	-15.836572
1155.635042	-15.815547
1156.080687	-15.817067
1156.526674	-15.807400
1156.973007	-15.779436
1157.419683	-15.770552
1157.866705	-15.761602
1158.314072	-15.738918
1158.761786	-15.707483
1159.209845	-15.695038
1159.658251	-15.678697
1160.107004	-15.665332
1160.556104	-15.645275
1161.005553	-15.620428
1161.455349	-15.587388
1161.905494	-15.574741
1162.355989	-15.553706
1162.806832	-15.523154
1163.258026	-15.494475
1163.709570	-15.489083
1164.161464	-15.463922
1164.613710	-15.430878
1165.066307	-15.400456
1165.519256	-15.376260
1165.972558	-15.342952
1166.426212	-15.337376
1166.880219	-15.330969
1167.334580	-15.303330
1167.789295	-15.253612
1168.244364	-15.224052
1168.699788	-15.204526
1169.155567	-15.204642
1169.611702	-15.208093
1170.068193	-15.195590
1170.525041	-15.140120
1170.982245	-15.097726
1171.439807	-15.084821
1171.897726	-15.107301
1172.356004	-15.125451
1172.814640	-15.115211
1173.273635	-15.058362
1173.732989	-15.006970
1174.192703	-14.996066
1174.652778	-15.042419
1175.113213	-15.080524
1175.574009	-15.060894
1176.035167	-14.989633
1176.496687	-14.937809
1176.958569	-14.940407
1177.420814	-15.000858
1177.883422	-15.043314
1178.346394	-15.009826
1178.809730	-14.918902
1179.273430	-14.872016
1179.737496	-14.902592
1180.201927	-14.970306
1180.666723	-14.982572
1181.131886	-14.922841
1181.597416	-14.839876
1182.063312	-14.812864
1182.529576	-14.860533
1182.996209	-14.912896
1183.463209	-14.884870
1183.930579	-14.802793
1184.398317	-14.745512
1184.866426	-14.760470
1185.334904	-14.799834
1185.803754	-14.800620
1186.272974	-14.745166
1186.742566	-14.676125
1187.212529	-14.654639
1187.682865	-14.683989
1188.153574	-14.696543
1188.624656	-14.650572
1189.096112	-14.583358
1189.567942	-14.554603
1190.040147	-14.568047
1190.512726	-14.568106
1190.985681	-14.538607
1191.459012	-14.482081
1191.932720	-14.444117
1192.406804	-14.435875
1192.881265	-14.441833
1193.356104	-14.417795
1193.831322	-14.362864
1194.306918	-14.321384
1194.782893	-14.314727
1195.259248	-14.308221
1195.735982	-14.281272
1196.213097	-14.237591
1196.690593	-14.209698
1197.168471	-14.186662
1197.646730	-14.170083
1198.125371	-14.148584
1198.604395	-14.119921
1199.083803	-14.088228
1199.563594	-14.064116
1200.043769	-14.047693
1200.524329	-14.024444
1201.005273	-13.996122
1201.486604	-13.977298
1201.968320	-13.960521
1202.450422	-13.934447
1202.932912	-13.904201
1203.415789	-13.892739
1203.899054	-13.883508
1204.382707	-13.862746
1204.866748	-13.831567
1205.351179	-13.813425
1205.836000	-13.807030
1206.321211	-13.795254
1206.806812	-13.779157
1207.292805	-13.756577
1207.779189	-13.739811
1208.265965	-13.727994
1208.753134	-13.727524
1209.240696	-13.715946
1209.728651	-13.693319
1210.217000	-13.672147
1210.705744	-13.672839
1211.194883	-13.673576
1211.684417	-13.657136
1212.174347	-13.633527
1212.664673	-13.624929
1213.155396	-13.624798
1213.646516	-13.616500
1214.138034	-13.600336
1214.629951	-13.586722
1215.122266	-13.576837
1215.614980	-13.567246
1216.108095	-13.560279
1216.601609	-13.548964
1217.095524	-13.531636
1217.589841	-13.514936
1218.084559	-13.509668
1218.579679	-13.502310
1219.075202	-13.483947
1219.571128	-13.461370
1220.067458	-13.452229
1220.564191	-13.444607
1221.061330	-13.427532
1221.558874	-13.404522
1222.056823	-13.390806
1222.555178	-13.379009
1223.053940	-13.361737
1223.553109	-13.341703
1224.052686	-13.325869
1224.552671	-13.309742
1225.053065	-13.289840
1225.553867	-13.273037
1226.055079	-13.257559
1226.556702	-13.238532
1227.058735	-13.215734
1227.561179	-13.200668
1228.064035	-13.186039
1228.567303	-13.166308
1229.070983	-13.141640
1229.575077	-13.126859
1230.079585	-13.113714
1230.584506	-13.093756
1231.089842	-13.069083
1231.595594	-13.054453
1232.101761	-13.042378
1232.608345	-13.022729
1233.115345	-12.999440
1233.622762	-12.984501
1234.130597	-12.973536
1234.638851	-12.954411
1235.147523	-12.933705
1235.656615	-12.917910
1236.166126	-12.908177
1236.676058	-12.890689
1237.186411	-12.872635
1237.697185	-12.857433
1238.208381	-12.847707
1238.719999	-12.832320
1239.232040	-12.818015
1239.744505	-12.804479
1240.257394	-12.792753
1240.770708	-12.781476
1241.284446	-12.770155
1241.798610	-12.759678
1242.313201	-12.747387
1242.828218	-12.738072
1243.343662	-12.730960
1243.859534	-12.723802
1244.375834	-12.711572
1244.892563	-12.704783
1245.409721	-12.699930
1245.927309	-12.695949
1246.445327	-12.687246
1246.963777	-12.680988
1247.482657	-12.678486
1248.001970	-12.674425
1248.521716	-12.672366
1249.041894	-12.667631
1249.562506	-12.663223
1250.083553	-12.659796
1250.605034	-12.663731
1251.126950	-12.663338
1251.649302	-12.652813
1252.172091	-12.649300
1252.695316	-12.659855
1253.218979	-12.661363
1253.743079	-12.645989
1254.267619	-12.641373
1254.792597	-12.656731
1255.318015	-12.656856
1255.843874	-12.638937
1256.370173	-12.635199
1256.896913	-12.648838
1257.424095	-12.645316
1257.951720	-12.630414
1258.479787	-12.627943
1259.008298	-12.630731
1259.537254	-12.626865
1260.066654	-12.619173
1260.596499	-12.611656
1261.126790	-12.602536
1261.657527	-12.604718
1262.188711	-12.600270
1262.720342	-12.579444
1263.252422	-12.571282
1263.784950	-12.577314
1264.317928	-12.566140
1264.851355	-12.538355
1265.385232	-12.539816
1265.919560	-12.534819
1266.454340	-12.519107
1266.989572	-12.504815
1267.525256	-12.489313
1268.061394	-12.480277
1268.597985	-12.480376
1269.135031	-12.454158
1269.672531	-12.429115
1270.210487	-12.434387
1270.748899	-12.419853
1271.287768	-12.401222
1271.827094	-12.377040
1272.366877	-12.365146
1272.907119	-12.365074
1273.447820	-12.341934
1273.988981	-12.315949
1274.530601	-12.301535
1275.072683	-12.298838
1275.615226	-12.280619
1276.158230	-12.252253
1276.701697	-12.236787
1277.245627	-12.229438
1277.790021	-12.216813
1278.334879	-12.186311
1278.880202	-12.170325
1279.425991	-12.162798
1279.972245	-12.148396
1280.518966	-12.123985
1281.066155	-12.101549
1281.613811	-12.097945
1282.161936	-12.083418
1282.710529	-12.060549
1283.259593	-12.040293
1283.809126	-12.031630
1284.359131	-12.023534
1284.909607	-12.001500
1285.460555	-11.983961
1286.011976	-11.973312
1286.563870	-11.964222
1287.116237	-11.949774
1287.669080	-11.934516
1288.222397	-11.924539
1288.776191	-11.912069
1289.330460	-11.900983
1289.885207	-11.894332
1290.440431	-11.885360
1290.996133	-11.870622
1291.552314	-11.858775
1292.108975	-11.859379
1292.666115	-11.856717
1293.223737	-11.839402
1293.781839	-11.826752
1294.340424	-11.830944
1294.899491	-11.833864
1295.459041	-11.818712
1296.019075	-11.804764
1296.579593	-11.811336
1297.140597	-11.816847
1297.702086	-11.803980
1298.264061	-11.792519
1298.826524	-11.800014
1299.389474	-11.805843
1299.952912	-11.795163
1300.516839	-11.787223
1301.081255	-11.794836
1301.646162	-11.800326
1302.211559	-11.792233
1302.777448	-11.788230
1303.343829	-11.794760
1303.910702	-11.797362
1304.478069	-11.794017
1305.045930	-11.795406
1305.614285	-11.799244
1306.183136	-11.796926
1306.752483	-11.797718
1307.322326	-11.806506
1307.892666	-11.808470
1308.463504	-11.800672
1309.034841	-11.803429
1309.606677	-11.818529
1310.179012	-11.820213
1310.751849	-11.809371
1311.325186	-11.813194
1311.899025	-11.830098
1312.473366	-11.831889
1313.048211	-11.822092
1313.623559	-11.826841
1314.199412	-11.841015
1314.775770	-11.842173
1315.352634	-11.837002
1315.930004	-11.841970
1316.507881	-11.849773
1317.086266	-11.850190
1317.665159	-11.852287
1318.244562	-11.856439
1318.824474	-11.854371
1319.404897	-11.854573
1319.985831	-11.864837
1320.567276	-11.867707
1321.149234	-11.855827
1321.731706	-11.854767
1322.314691	-11.869838
1322.898190	-11.872112
1323.482205	-11.856249
1324.066736	-11.852618
1324.651783	-11.865168
1325.237347	-11.866256
1325.823430	-11.854945
1326.410031	-11.850477
1326.997151	-11.852738
1327.584791	-11.851089
1328.172952	-11.849591
1328.761634	-11.846900
1329.350839	-11.836407
1329.940566	-11.831771
1330.530817	-11.838762
1331.121592	-11.837458
1331.712891	-11.819299
1332.304716	-11.812444
1332.897068	-11.822130
1333.489946	-11.819404
1334.083352	-11.802261
1334.677287	-11.794765
1335.271750	-11.798555
1335.866744	-11.793945
1336.462268	-11.784546
1337.058323	-11.777566
1337.654910	-11.768760
1338.252029	-11.763873
1338.849682	-11.764351
1339.447869	-11.756733
1340.046591	-11.737945
1340.645848	-11.732373
1341.245641	-11.738660
1341.845972	-11.729597
1342.446840	-11.710109
1343.048246	-11.703234
1343.650191	-11.705289
1344.252677	-11.697436
1344.855702	-11.685457
1345.459269	-11.676410
1346.063379	-11.667115
1346.668030	-11.663106
1347.273226	-11.661390
1347.878965	-11.648285
1348.485250	-11.630839
1349.092080	-11.629619
1349.699456	-11.632892
1350.307380	-11.618531
1350.915851	-11.601386
1351.524871	-11.598054
1352.134441	-11.597160
1352.744560	-11.589057
1353.355231	-11.578799
1353.966453	-11.567467
1354.578227	-11.559111
1355.190555	-11.560077
1355.803436	-11.556913
1356.416872	-11.539001
1357.030863	-11.527004
1357.645411	-11.530700
1358.260515	-11.529103
1358.876177	-11.515009
1359.492397	-11.504193
1360.109176	-11.500437
1360.726516	-11.497498
1361.344416	-11.494350
1361.962877	-11.485415
1362.581901	-11.471861
1363.201487	-11.469362
1363.821637	-11.473245
1364.442352	-11.464192
1365.063632	-11.449323
1365.685478	-11.446901
1366.307891	-11.448217
1366.930871	-11.441601
1367.554420	-11.432980
1368.178538	-11.425806
1368.803226	-11.420795
1369.428485	-11.421492
1370.054315	-11.417804
1370.680717	-11.403823
1371.307693	-11.397129
1371.935242	-11.402096
1372.563366	-11.398440
1373.192065	-11.385799
1373.821341	-11.379786
1374.451193	-11.378876
1375.081623	-11.376993
1375.712632	-11.373518
1376.344221	-11.363738
1376.976389	-11.354936
1377.609139	-11.357642
1378.242470	-11.358471
1378.876384	-11.346106
1379.510881	-11.336661
1380.145963	-11.337529
1380.781629	-11.336310
1381.417881	-11.330175
1382.054720	-11.322411
1382.692147	-11.314503
1383.330161	-11.314001
1383.968765	-11.315612
1384.607959	-11.305698
1385.247743	-11.294529
1385.888119	-11.295250
1386.529087	-11.296092
1387.170648	-11.288973
1387.812804	-11.281375
1388.455554	-11.276235
1389.098899	-11.274789
1389.742842	-11.275522
1390.387381	-11.268395
1391.032519	-11.257802
1391.678256	-11.257424
1392.324592	-11.258621
1392.971529	-11.251348
1393.619068	-11.244193
1394.267208	-11.239891
1394.915952	-11.236571
1395.565300	-11.236000
1396.215253	-11.230683
1396.865812	-11.220638
1397.516977	-11.218954
1398.168749	-11.220086
1398.821130	-11.212823
1399.474120	-11.206145
1400.127719	-11.203834
1400.781930	-11.200061
1401.436752	-11.198038
1402.092186	-11.195115
1402.748234	-11.187555
1403.404897	-11.185804
1404.062174	-11.187553
1404.720067	-11.182487
1405.378577	-11.178166
1406.037705	-11.177501
1406.697451	-11.174618
1407.357817	-11.173610
1408.018803	-11.172859
1408.680410	-11.167737
1409.342639	-11.166248
1410.005492	-11.168628
1410.668968	-11.166658
1411.333068	-11.164254
1411.997795	-11.163676
1412.663147	-11.163369
1413.329127	-11.166435
1413.995736	-11.165694
1414.662973	-11.159454
1415.330840	-11.161672
1415.999339	-11.167864
1416.668469	-11.165687
1417.338232	-11.162117
1418.008628	-11.163093
1418.679659	-11.168022
1419.351325	-11.174689
1420.023628	-11.172826
1420.696568	-11.167850
1421.370145	-11.176232
1422.044362	-11.186948
1422.719219	-11.185026
1423.394717	-11.180401
1424.070856	-11.183951
1424.747638	-11.195507
1425.425064	-11.203654
1426.103134	-11.197836
1426.781850	-11.195134
1427.461212	-11.211744
1428.141221	-11.228319
1428.821878	-11.228231
1429.503185	-11.223578
1430.185141	-11.232447
1430.867749	-11.255630
1431.551008	-11.266838
1432.234920	-11.255759
1432.919486	-11.255313
1433.604707	-11.277780
1434.290583	-11.294612
1434.977116	-11.292588
1435.664307	-11.287847
1436.352156	-11.301405
1437.040664	-11.329056
1437.729833	-11.341628
1438.419663	-11.339105
1439.110156	-11.350002
1439.801312	-11.374644
1440.493132	-11.393652
1441.185617	-11.400082
1441.878768	-11.402706
1442.572586	-11.415416
1443.267072	-11.432999
1443.962228	-11.441246
1444.658053	-11.446413
1445.354549	-11.456055
1446.051717	-11.468390
1446.749558	-11.485494
1447.448073	-11.504622
1448.147263	-11.523167
1448.847128	-11.543243
1449.547671	-11.562662
1450.248891	-11.588451
1450.950789	-11.620939
1451.653368	-11.641046
1452.356627	-11.650538
1453.060568	-11.668215
1453.765192	-11.692807
1454.470500	-11.710062
1455.176492	-11.711934
1455.883170	-11.713856
1456.590534	-11.734559
1457.298586	-11.758182
1458.007327	-11.769220
1458.716758	-11.782684
1459.426880	-11.812557
1460.137693	-11.854226
1460.849199	-11.890535
1461.561398	-11.919939
1462.274293	-11.962212
1462.987883	-12.011270
1463.702170	-12.046493
1464.417155	-12.074701
1465.132838	-12.103409
1465.849222	-12.126133
1466.566306	-12.137366
1467.284093	-12.138730
1468.002582	-12.140418
1468.721775	-12.139529
1469.441674	-12.129396
1470.162278	-12.123835
1470.883590	-12.128447
1471.605609	-12.135385
1472.328338	-12.145902
1473.051777	-12.167415
1473.775928	-12.205712
1474.500790	-12.249236
1475.226367	-12.288872
1475.952657	-12.341425
1476.679663	-12.403203
1477.407386	-12.450789
1478.135826	-12.488048
1478.864985	-12.525229
1479.594863	-12.553729
1480.325463	-12.558402
1481.056784	-12.542783
1481.788828	-12.527064
1482.521597	-12.503086
1483.255090	-12.456457
1483.989309	-12.409763
1484.724256	-12.379763
1485.459931	-12.354592
1486.196336	-12.331010
1486.933471	-12.330530
1487.671337	-12.368886
1488.409937	-12.421801
1489.149270	-12.492510
1489.889337	-12.608808
1490.630141	-12.757548
1491.371682	-12.927718
1492.113961	-13.116611
1492.856979	-13.345987
1493.600738	-13.599302
1494.345238	-13.847580
1495.090481	-14.105642
1495.836467	-14.384034
1496.583198	-14.639029
1497.330675	-14.861513
1498.078899	-15.072457
1498.827872	-15.257443
1499.577593	-15.389195
1500.328065	-15.480880
1501.079289	-15.561510
1501.831265	-15.620134
1502.583995	-15.647867
1503.337480	-15.695374
1504.091721	-15.778680
1504.846719	-15.876681
1505.602475	-16.023939
1506.358991	-16.253754
1507.116268	-16.560086
1507.874306	-16.944269
1508.633108	-17.442482
1509.392673	-18.088331
1510.153004	-18.861129
1510.914101	-19.792337
1511.675965	-20.959880
1512.438599	-22.357150
1513.202002	-23.971906
1513.966176	-25.807688
1514.731122	-27.503229
1515.496842	-28.086702
1516.263336	-27.143091
1517.030607	-25.351620
1517.798654	-23.442143
1518.567479	-21.765253
1519.337083	-20.349135
1520.107468	-19.120191
1520.878634	-18.063733
1521.650584	-17.174815
1522.423317	-16.385340
1523.196836	-15.670195
1523.971141	-15.035348
1524.746233	-14.450371
1525.522115	-13.885910
1526.298786	-13.340305
1527.076249	-12.817164
1527.854504	-12.291273
1528.633553	-11.756862
1529.413397	-11.232921
1530.194037	-10.709703
1530.975474	-10.181351
1531.757709	-9.663143
1532.540745	-9.163872
1533.324581	-8.675709
1534.109220	-8.205830
1534.894662	-7.771847
1535.680909	-7.366455
1536.467961	-6.990938
1537.255821	-6.660869
1538.044489	-6.374490
1538.833967	-6.128005
1539.624256	-5.931296
1540.415357	-5.789560
1541.207271	-5.694037
1542.000000	-5.650810
1542.793545	-5.668786
1543.587907	-5.737213
1544.383087	-5.859805
1545.179088	-6.045853
1545.975909	-6.287335
1546.773552	-6.583824
1547.572019	-6.946420
1548.371311	-7.371419
1549.171428	-7.853367
1549.972373	-8.409466
1550.774147	-9.037964
1551.576751	-9.731965
1552.380185	-10.516286
1553.184453	-11.389836
1553.989554	-12.347068
1554.795490	-13.416721
1555.602263	-14.591648
1556.409873	-15.846967
1557.218322	-17.175109
1558.027612	-18.459831
1558.837743	-19.498015
1559.648717	-20.080086
1560.460536	-19.997333
1561.273200	-19.383403
1562.086710	-18.496785
1562.901069	-17.513830
1563.716278	-16.592708
1564.532337	-15.762452
1565.349249	-15.027566
1566.167014	-14.415433
1566.985634	-13.895982
1567.805111	-13.463642
1568.625444	-13.130370
1569.446637	-12.862628
1570.268690	-12.667675
1571.091605	-12.547616
1571.915382	-12.474980
1572.740024	-12.466684
1573.565532	-12.511692
1574.391907	-12.594714
1575.219150	-12.732962
1576.047262	-12.906347
1576.876246	-13.111450
1577.706103	-13.358551
1578.536833	-13.625295
1579.368439	-13.915224
1580.200922	-14.230689
1581.034282	-14.549553
1581.868522	-14.881975
1582.703643	-15.221209
1583.539646	-15.548415
1584.376532	-15.882871
1585.214304	-16.203411
1586.052962	-16.507625
1586.892508	-16.812208
1587.732943	-17.087397
1588.574269	-17.355198
1589.416487	-17.606889
1590.259599	-17.828779
1591.103605	-18.046835
1591.948508	-18.228284
1592.794309	-18.390379
1593.641009	-18.530471
1594.488609	-18.627961
1595.337112	-18.708950
1596.186518	-18.744283
1597.036829	-18.749830
1597.888047	-18.727197
1598.740172	-18.660866
1599.593207	-18.579078
1600.447153	-18.460710
1601.302010	-18.325795
1602.157782	-18.177370
1603.014469	-18.007340
1603.872072	-17.841517
1604.730593	-17.662775
1605.590034	-17.489878
1606.450397	-17.321034
1607.311681	-17.152418
1608.173890	-17.000497
1609.037024	-16.848762
1609.901085	-16.711688
1610.766075	-16.582289
1611.631995	-16.458246
1612.498846	-16.347686
1613.366630	-16.236173
1614.235349	-16.134962
1615.105004	-16.034060
1615.975596	-15.933729
1616.847128	-15.836951
1617.719600	-15.732490
1618.593014	-15.630246
1619.467372	-15.519848
1620.342675	-15.405820
1621.218924	-15.288174
1622.096122	-15.162358
1622.974270	-15.037401
1623.853369	-14.905315
1624.733420	-14.774914
1625.614427	-14.643321
1626.496389	-14.512385
1627.379308	-14.386756
1628.263187	-14.261884
1629.148026	-14.146098
1630.033828	-14.033510
1630.920593	-13.930273
1631.808324	-13.833874
1632.697022	-13.744600
1633.586688	-13.664410
1634.477324	-13.588056
1635.368932	-13.520639
1636.261514	-13.454524
1637.155070	-13.394365
1638.049602	-13.334368
1638.945113	-13.276180
1639.841603	-13.218451
1640.739075	-13.158528
1641.637529	-13.100131
1642.536968	-13.037414
1643.437393	-12.977170
1644.338806	-12.912962
1645.241209	-12.851369
1646.144602	-12.788454
1647.048988	-12.727570
1647.954368	-12.669142
1648.860744	-12.611468
1649.768118	-12.559496
1650.676491	-12.507186
1651.585865	-12.462340
1652.496241	-12.416659
1653.407621	-12.377733
1654.320008	-12.338213
1655.233401	-12.302904
1656.147804	-12.268570
1657.063218	-12.235274
1657.979645	-12.204668
1658.897085	-12.171833
1659.815542	-12.143107
1660.735016	-12.110557
1661.655509	-12.083119
1662.577023	-12.051935
1663.499560	-12.025400
1664.423121	-11.996670
1665.347709	-11.971844
1666.273324	-11.947636
1667.199969	-11.926039
1668.127645	-11.906909
1669.056353	-11.888675
1669.986097	-11.874238
1670.916877	-11.859696
1671.848695	-11.849000
1672.781553	-11.836968
1673.715452	-11.828471
1674.650395	-11.818293
1675.586383	-11.811795
1676.523418	-11.803192
1677.461501	-11.798225
1678.400635	-11.791052
1679.340821	-11.788012
1680.282061	-11.783264
1681.224357	-11.782252
1682.167710	-11.780105
1683.112122	-11.780981
1684.057595	-11.782112
1685.004132	-11.784906
1685.951732	-11.788762
1686.900400	-11.792767
1687.850135	-11.798533
1688.800940	-11.803629
1689.752818	-11.810417
1690.705768	-11.816259
1691.659795	-11.823582
1692.614898	-11.830555
1693.571081	-11.838654
1694.528345	-11.846723
1695.486691	-11.855840
1696.446122	-11.864947
1697.406640	-11.875248
1698.368245	-11.884830
1699.330941	-11.895938
1700.294729	-11.905579
1701.259611	-11.917193
1702.225588	-11.927035
1703.192664	-11.939025
1704.160838	-11.949601
1705.130114	-11.962103
1706.100493	-11.973692
1707.071977	-11.986530
1708.044568	-11.998932
1709.018268	-12.012042
1709.993079	-12.025007
1710.969003	-12.038621
1711.946041	-12.052083
1712.924196	-12.066585
1713.903469	-12.080683
1714.883862	-12.096211
1715.865378	-12.110876
1716.848017	-12.126975
1717.831783	-12.142039
1718.816677	-12.158170
1719.802701	-12.173604
1720.789857	-12.189601
1721.778147	-12.205683
1722.767573	-12.221786
1723.758136	-12.238596
1724.749840	-12.254874
1725.742685	-12.272047
1726.736673	-12.288450
1727.731808	-12.305795
1728.728090	-12.322634
1729.725521	-12.340394
1730.724105	-12.357943
1731.723842	-12.376438
1732.724735	-12.394644
1733.726785	-12.413894
1734.729995	-12.432489
1735.734366	-12.452563
1736.739902	-12.471631
1737.746603	-12.492705
1738.754472	-12.512622
1739.763510	-12.534776
1740.773721	-12.555638
1741.785105	-12.578264
1742.797665	-12.599734
1743.811403	-12.622144
1744.826321	-12.643817
1745.842422	-12.665866
1746.859706	-12.687841
1747.878177	-12.709741
1748.897835	-12.732111
1749.918685	-12.753794
1750.940726	-12.775960
1751.963963	-12.797018
1752.988395	-12.818426
1754.014027	-12.838580
1755.040860	-12.858995
1756.068895	-12.878384
1757.098135	-12.898108
1758.128583	-12.916999
1759.160240	-12.936238
1760.193109	-12.955063
1761.227191	-12.974215
1762.262488	-12.993335
1763.299004	-13.012644
1764.336740	-13.032083
1765.375697	-13.051438
1766.415880	-13.070981
1767.457288	-13.090297
1768.499926	-13.109877
1769.543794	-13.129242
1770.588895	-13.149221
1771.635231	-13.169134
1772.682805	-13.189877
1773.731619	-13.210645
1774.781674	-13.232074
1775.832973	-13.253409
1776.885519	-13.274843
1777.939312	-13.296189
1778.994357	-13.317053
1780.050654	-13.337891
1781.108207	-13.358163
1782.167017	-13.378777
1783.227087	-13.399200
1784.288418	-13.420056
1785.351013	-13.441128
1786.414875	-13.462295
1787.480006	-13.483563
1788.546407	-13.504410
1789.614082	-13.525195
1790.683032	-13.545259
1791.753259	-13.565356
1792.824767	-13.584976
1793.897557	-13.604902
1794.971632	-13.624638
1796.046994	-13.644501
1797.123645	-13.664578
1798.201588	-13.684202
1799.280824	-13.704203
1800.361357	-13.723145
1801.443188	-13.742320
1802.526320	-13.760375
1803.610756	-13.778297
1804.696497	-13.796216
1805.783546	-13.813735
1806.871906	-13.832278
1807.961578	-13.850140
1809.052565	-13.869032
1810.144870	-13.887295
1811.238494	-13.905465
1812.333441	-13.923886
1813.429713	-13.941252
1814.527311	-13.959622
1815.626239	-13.976882
1816.726499	-13.995027
1817.828094	-14.012801
1818.931025	-14.030358
1820.035295	-14.048556
1821.140906	-14.065631
1822.247862	-14.083590
1823.356165	-14.100365
1824.465816	-14.117381
1825.576819	-14.133572
1826.689175	-14.148855
1827.802888	-14.164033
1828.917960	-14.178024
1830.034394	-14.192294
1831.152191	-14.205597
1832.271354	-14.218815
1833.391887	-14.230873
1834.513790	-14.242004
1835.637068	-14.252399
1836.761722	-14.261887
1837.887755	-14.271243
1839.015169	-14.280015
1840.143968	-14.289320
1841.274153	-14.298116
1842.405727	-14.306989
1843.538693	-14.315423
1844.673053	-14.323549
1845.808810	-14.331581
1846.945966	-14.338987
1848.084525	-14.346781
1849.224488	-14.353803
1850.365858	-14.360776
1851.508638	-14.367173
1852.652831	-14.373525
1853.798438	-14.379985
1854.945463	-14.386055
1856.093909	-14.392145
1857.243777	-14.397211
1858.395071	-14.401785
1859.547794	-14.405728
1860.701947	-14.409800
1861.857533	-14.414119
1863.014556	-14.418553
1864.173018	-14.423140
1865.332922	-14.427143
1866.494270	-14.430455
1867.657065	-14.432847
1868.821309	-14.434826
1869.987006	-14.436661
1871.154158	-14.438552
1872.322768	-14.440543
1873.492839	-14.442099
1874.664373	-14.442825
1875.837373	-14.442555
1877.011841	-14.441556
1878.187782	-14.440127
1879.365197	-14.438453
1880.544089	-14.436720
1881.724460	-14.434806
1882.906315	-14.432440
1884.089655	-14.429531
1885.274483	-14.425941
1886.460803	-14.421608
1887.648616	-14.416563
1888.837927	-14.410830
1890.028736	-14.404408
1891.221049	-14.397050
1892.414866	-14.388877
1893.610192	-14.379990
1894.807028	-14.370538
1896.005379	-14.360766
1897.205246	-14.350757
1898.406633	-14.340597
1899.609542	-14.329955
1900.813977	-14.318939
1902.019940	-14.307748
1903.227434	-14.296351
1904.436462	-14.285181
1905.647028	-14.274331
1906.859133	-14.263889
1908.072781	-14.253326
1909.287976	-14.242086
1910.504719	-14.230154
1911.723013	-14.217664
1912.942863	-14.205418
1914.164270	-14.193738
1915.387238	-14.182554
1916.611770	-14.171541
1917.837868	-14.160178
1919.065536	-14.148561
1920.294777	-14.136641
1921.525594	-14.124944
1922.757989	-14.113806
1923.991967	-14.103155
1925.227529	-14.093115
1926.464679	-14.083173
1927.703420	-14.073108
1928.943755	-14.062528
1930.185688	-14.051329
1931.429221	-14.039900
1932.674356	-14.028220
1933.921099	-14.016657
1935.169451	-14.005123
1936.419415	-13.993500
1937.670996	-13.981793
1938.924195	-13.969685
1940.179017	-13.957361
1941.435463	-13.944680
1942.693538	-13.931676
1943.953245	-13.918354
1945.214586	-13.904722
1946.477566	-13.891330
1947.742186	-13.877993
1949.008451	-13.864508
1950.276363	-13.850388
1951.545926	-13.835239
1952.817143	-13.819399
1954.090017	-13.803371
1955.364551	-13.788038
1956.640749	-13.773273
1957.918615	-13.758547
1959.198150	-13.743324
1960.479359	-13.727357
1961.762244	-13.711286
1963.046810	-13.695534
1964.333059	-13.680517
1965.620995	-13.666161
1966.910621	-13.651965
1968.201940	-13.637647
1969.494956	-13.622904
1970.789672	-13.608093
1972.086091	-13.593873
1973.384217	-13.580627
1974.684053	-13.568219
1975.985602	-13.556240
1977.288869	-13.544558
1978.593855	-13.533256
1979.900566	-13.522449
1981.209003	-13.511771
1982.519171	-13.500997
1983.831073	-13.490336
1985.144712	-13.479809
1986.460093	-13.469619
1987.777217	-13.459818
1989.096089	-13.450088
1990.416713	-13.440674
1991.739092	-13.431508
1993.063228	-13.422001
1994.389127	-13.412214
1995.716791	-13.402517
1997.046223	-13.392799
1998.377428	-13.383004
1999.710409	-13.372911
2001.045169	-13.362135
2002.381713	-13.350933
2003.720043	-13.339652
2005.060163	-13.328088
2006.402077	-13.316123
2007.745788	-13.303816
2009.091301	-13.290904
2010.438618	-13.277235
2011.787743	-13.263285
2013.138680	-13.249308
2014.491433	-13.235106
2015.846005	-13.220877
2017.202399	-13.207146
2018.560621	-13.194076
2019.920673	-13.181699
2021.282558	-13.169705
2022.646281	-13.157668
2024.011846	-13.145877
2025.379256	-13.135013
2026.748515	-13.125237
2028.119626	-13.116331
2029.492594	-13.107841
2030.867422	-13.099361
2032.244114	-13.091222
2033.622673	-13.083437
2035.003104	-13.076800
2036.385411	-13.071763
2037.769597	-13.067483
2039.155665	-13.063654
2040.543621	-13.059818
2041.933467	-13.056623
2043.325208	-13.054231
2044.718847	-13.052814
2046.114389	-13.051610
2047.511837	-13.050533
2048.911195	-13.049787
2050.312467	-13.049914
2051.715657	-13.050707
2053.120769	-13.051537
2054.527807	-13.051822
2055.936775	-13.051687
2057.347677	-13.051697
2058.760516	-13.051968
2060.175297	-13.051984
2061.592025	-13.050864
2063.010701	-13.048891
2064.431332	-13.046821
2065.853921	-13.045284
2067.278472	-13.043875
2068.704988	-13.041628
2070.133475	-13.038013
2071.563936	-13.033388
2072.996375	-13.029603
2074.430796	-13.026901
2075.867204	-13.025161
2077.305603	-13.022018
2078.745996	-13.018631
2080.188389	-13.014939
2081.632784	-13.013742
2083.079187	-13.012727
2084.527601	-13.012156
2085.978030	-13.010035
2087.430480	-13.008700
2088.884954	-13.009105
2090.341455	-13.010530
2091.799990	-13.013150
2093.260561	-13.014429
2094.723173	-13.018096
2096.187831	-13.022522
2097.654538	-13.029708
2099.123300	-13.036400
2100.594119	-13.042747
2102.067001	-13.050979
2103.541950	-13.059940
2105.018971	-13.071802
2106.498067	-13.081818
2107.979243	-13.092868
2109.462503	-13.104084
2110.947853	-13.116695
2112.435295	-13.131254
2113.924836	-13.143971
2115.416478	-13.157771
2116.910227	-13.169492
2118.406087	-13.182963
2119.904063	-13.196649
2121.404158	-13.208003
2122.906378	-13.219371
2124.410727	-13.228135
2125.917210	-13.239706
2127.425831	-13.250508
2128.936594	-13.260457
2130.449505	-13.271747
2131.964567	-13.281553
2133.481786	-13.293603
2135.001166	-13.303668
2136.522711	-13.313125
2138.046427	-13.325059
2139.572317	-13.336004
2141.100388	-13.349579
2142.630642	-13.361954
2144.163085	-13.374108
2145.697722	-13.389842
2147.234558	-13.404318
2148.773596	-13.420640
2150.314842	-13.436829
2151.858301	-13.451685
2153.403977	-13.469549
2154.951875	-13.485629
2156.502000	-13.502893
2158.054357	-13.520903
2159.608950	-13.537199
2161.165785	-13.556947
2162.724866	-13.577478
2164.286198	-13.600342
2165.849786	-13.626979
2167.415635	-13.652078
2168.983749	-13.679832
2170.554134	-13.710279
2172.126795	-13.741156
2173.701737	-13.774427
2175.278964	-13.805914
2176.858481	-13.836606
2178.440294	-13.868666
2180.024408	-13.896592
2181.610827	-13.923218
2183.199557	-13.948119
2184.790602	-13.967788
2186.383968	-13.986347
2187.979660	-14.001297
2189.577683	-14.012451
2191.178041	-14.024184
2192.780741	-14.033937
2194.385787	-14.045502
2195.993185	-14.060952
2197.602939	-14.078770
2199.215054	-14.103779
2200.829537	-14.132766
2202.446392	-14.163988
2204.065624	-14.203272
2205.687239	-14.247182
2207.311242	-14.294991
2208.937638	-14.346735
2210.566433	-14.397761
2212.197631	-14.451765
2213.831239	-14.508804
2215.467261	-14.563930
2217.105703	-14.620010
2218.746570	-14.675418
2220.389867	-14.729019
2222.035601	-14.782947
2223.683776	-14.832721
2225.334398	-14.881117
2226.987472	-14.931019
2228.643004	-14.977623
2230.300999	-15.023530
2231.961463	-15.068476
2233.624402	-15.109276
2235.289820	-15.149811
2236.957723	-15.186437
2238.628118	-15.219653
2240.301009	-15.255712
2241.976402	-15.289216
2243.654303	-15.320495
2245.334717	-15.354241
2247.017650	-15.387402
2248.703108	-15.423433
2250.391096	-15.462704
2252.081620	-15.502848
2253.774686	-15.550113
2255.470300	-15.601452
2257.168467	-15.654529
2258.869193	-15.714272
2260.572484	-15.774834
2262.278345	-15.835708
2263.986783	-15.899304
2265.697804	-15.959275
2267.411412	-16.020157
2269.127615	-16.080366
2270.846417	-16.132910
2272.567826	-16.186875
2274.291846	-16.239571
2276.018484	-16.285265
2277.747745	-16.333213
2279.479637	-16.380335
2281.214164	-16.428995
2282.951333	-16.482880
2284.691149	-16.533956
2286.433619	-16.591988
2288.178750	-16.659176
2289.926546	-16.723803
2291.677014	-16.796777
2293.430161	-16.876487
2295.185992	-16.954841
2296.944513	-17.040013
2298.705732	-17.123656
2300.469653	-17.206698
2302.236283	-17.296791
2304.005629	-17.380752
2305.777696	-17.466504
2307.552492	-17.557592
2309.330022	-17.640065
2311.110292	-17.726668
2312.893310	-17.812529
2314.679080	-17.888839
2316.467611	-17.969764
2318.258907	-18.046231
2320.052976	-18.118286
2321.849824	-18.193461
2323.649457	-18.258483
2325.451883	-18.326487
2327.257106	-18.400818
2329.065135	-18.465428
2330.875975	-18.534647
2332.689633	-18.605266
2334.506116	-18.672609
2336.325430	-18.745883
2338.147581	-18.815253
2339.972578	-18.890159
2341.800425	-18.971763
2343.631130	-19.045979
2345.464700	-19.129155
2347.301141	-19.217350
2349.140461	-19.300726
2350.982665	-19.397014
2352.827760	-19.491277
2354.675754	-19.583121
2356.526653	-19.687857
2358.380464	-19.790140
2360.237195	-19.894752
2362.096851	-20.003946
2363.959440	-20.113188
2365.824968	-20.232425
2367.693444	-20.346688
2369.564873	-20.460179
2371.439263	-20.587538
2373.316620	-20.704026
2375.196953	-20.818968
2377.080267	-20.936866
2378.966570	-21.046993
2380.855869	-21.160622
2382.748171	-21.266540
2384.643484	-21.370411
2386.541815	-21.474608
2388.443170	-21.567286
2390.347557	-21.668107
2392.254984	-21.760963
2394.165457	-21.847043
2396.078984	-21.943578
2397.995572	-22.027170
2399.915229	-22.114614
2401.837961	-22.210270
2403.763777	-22.300924
2405.692684	-22.397685
2407.624689	-22.493419
2409.559800	-22.603247
2411.498023	-22.707235
2413.439368	-22.809764
2415.383840	-22.932534
2417.331449	-23.044589
2419.282201	-23.164388
2421.236104	-23.289177
2423.193165	-23.404591
2425.153393	-23.532201
2427.116795	-23.662850
2429.083378	-23.794017
2431.053151	-23.931859
2433.026121	-24.076152
2435.002297	-24.225944
2436.981685	-24.373993
2438.964293	-24.538563
2440.950131	-24.698715
2442.939204	-24.856156
2444.931522	-25.018253
2446.927092	-25.161574
2448.925923	-25.318995
2450.928022	-25.461077
2452.933397	-25.593124
2454.942056	-25.722612
2456.954008	-25.834401
2458.969260	-25.957351
2460.987821	-26.065497
2463.009699	-26.161941
2465.034902	-26.271286
2467.063437	-26.364633
2469.095315	-26.453024
2471.130542	-26.572340
2473.169127	-26.649403
2475.211078	-26.765961
2477.256404	-26.888136
2479.305112	-26.968827
2481.357212	-27.126366
2483.412713	-27.225396
2485.471621	-27.363870
2487.533946	-27.518524
2489.599696	-27.617452
2491.668880	-27.806604
2493.741507	-27.916862
2495.817585	-28.082259
2497.897122	-28.247669
2499.980127	-28.392077
2502.066609	-28.605112
2504.156578	-28.723808
2506.250040	-28.972618
2508.347006	-29.133740
2510.447483	-29.362172
2512.551482	-29.570601
2514.659010	-29.765836
2516.770076	-30.016275
2518.884690	-30.179199
2521.002861	-30.443857
2523.124597	-30.559541
2525.249907	-30.778404
2527.378801	-30.873505
2529.511287	-31.077307
2531.647375	-31.145318
2533.787074	-31.271555
2535.930393	-31.349044
2538.077340	-31.454121
2540.227927	-31.550348
2542.382160	-31.623042
2544.540051	-31.717841
2546.701608	-31.811143
2548.866840	-31.937321
2551.035757	-32.022454
2553.208369	-32.144116
2555.384684	-32.230406
2557.564713	-32.371819
2559.748465	-32.495809
2561.935948	-32.634976
2564.127174	-32.765184
2566.322152	-32.889941
2568.520890	-33.087411
2570.723399	-33.234939
2572.929689	-33.434782
2575.139769	-33.610216
2577.353649	-33.825755
2579.571340	-34.034197
2581.792849	-34.305334
2584.018189	-34.546655
2586.247368	-34.861048
2588.480396	-35.157951
2590.717284	-35.528514
2592.958041	-35.814409
2595.202678	-36.112120
2597.451204	-36.406598
2599.703630	-36.680673
2601.959966	-36.881180
2604.220222	-37.072684
2606.484408	-37.192620
2608.752535	-37.363386
2611.024612	-37.464592
2613.300651	-37.546405
2615.580661	-37.610604
2617.864653	-37.739227
2620.152638	-37.809228
2622.444625	-37.793993
2624.740626	-37.871277
2627.040651	-37.965014
2629.344710	-37.970348
2631.652814	-38.014701
2633.964974	-38.090539
2636.281200	-38.150007
2638.601504	-38.192567
2640.925896	-38.282449
2643.254386	-38.370698
2645.586987	-38.480626
2647.923707	-38.573220
2650.264559	-38.644617
2652.609554	-38.902992
2654.958702	-39.056269
2657.312015	-39.174539
2659.669503	-39.539300
2662.031178	-39.883883
2664.397051	-40.189669
2666.767132	-40.576833
2669.141434	-41.097231
2671.519968	-41.541432
2673.902745	-42.058893
2676.289776	-42.457086
2678.681072	-42.926938
2681.076646	-43.436421
2683.476508	-43.590615
2685.880671	-44.086801
2688.289145	-44.418074
2690.701942	-44.520130
2693.119075	-44.994788
2695.540554	-45.100888
2697.966391	-45.279438
2700.396599	-45.443173
2702.831189	-45.499770
2705.270172	-45.492359
2707.713561	-45.349637
2710.161368	-45.532644
2712.613605	-45.459531
2715.070283	-45.254031
2717.531416	-45.213778
2719.997014	-45.211752
2722.467090	-44.836159
2724.941657	-44.891647
2727.420726	-44.685465
2729.904310	-44.540362
2732.392421	-44.589117
2734.885072	-44.453102
2737.382275	-44.535638
2739.884042	-44.629867
2742.390387	-44.815091
2744.901321	-45.027222
2747.416857	-45.476761
2749.937008	-45.758119
2752.461787	-46.376309
2754.991206	-46.819334
2757.525279	-47.135178
2760.064017	-47.814663
2762.607434	-48.211949
2765.155544	-48.497234
2767.708358	-49.108850
2770.265890	-49.683270
2772.828153	-50.105855
2775.395160	-50.751594
2777.966924	-51.357432
2780.543459	-52.230863
2783.124778	-52.594892
2785.710894	-53.347639
2788.301821	-54.314211
2790.897572	-54.582487
2793.498160	-55.208836
2796.103599	-56.530367
2798.713903	-56.108706
2801.329085	-56.142178
2803.949159	-55.905188
2806.574139	-55.372647
2809.204038	-54.583602
2811.838871	-53.383160
2814.478650	-52.896742
2817.123391	-52.711051
2819.773107	-51.727232
2822.427812	-51.495371
2825.087521	-51.626436
2827.752247	-51.446024
2830.422005	-51.424495
2833.096808	-51.813778
2835.776672	-52.242970
2838.461611	-52.645236
2841.151638	-52.469948
2843.846769	-52.900179
2846.547019	-53.550796
2849.252401	-53.285403
2851.962930	-53.229027
2854.678621	-53.816395
2857.399489	-54.217413
2860.125549	-54.566247
2862.856815	-54.621338
2865.593302	-54.567585
2868.335026	-55.176868
2871.082002	-56.004496
2873.834244	-55.954069
2876.591767	-55.806331
2879.354588	-56.990304
2882.122721	-58.890382
2884.896181	-59.136062
2887.674984	-60.506671
2890.459146	-62.813499
2893.248681	-65.196938
2896.043606	-70.591476
2898.843937	-74.871950
2901.649687	-74.759861
2904.460875	-68.173605
2907.277515	-65.605471
2910.099623	-63.737106
2912.927215	-62.113268
2915.760308	-61.886783
2918.598916	-61.910746
2921.443057	-61.936026
2924.292747	-61.818982
2927.148002	-61.707346
2930.008837	-61.902126
2932.875270	-61.794067
2935.747318	-62.410506
2938.624995	-62.932116
2941.508320	-62.382981
2944.397308	-62.079352
2947.291977	-61.637494
2950.192343	-62.406020
2953.098423	-62.044631
2956.010234	-61.976731
2958.927792	-61.918771
2961.851116	-61.278153
2964.780221	-60.373235
2967.715126	-59.406645
2970.655847	-59.807876
2973.602402	-59.914942
2976.554808	-60.626128
2979.513083	-60.812562
2982.477243	-61.890618
2985.447308	-62.537734
2988.423293	-63.641104
2991.405218	-65.042517
2994.393099	-66.304138
2997.386955	-69.899191
