# 2022-03-21_14.53.39
# shape = sech2
# FWHM_ps = 0.1
# carrier_nm = 1542
# frep_MHz = 12126
# pow_mW = 8000
# GDD = 0.0
# propa_len = 0.16
# untap_len = 0.01
# taper_len = 0.1
# waist_len = 0.02
# uptap_len = 0.02
# untap_scale = 1.0
# waist_scale = 0.1
# workingDir = NL_20110305_12 (Spirou)
# axis = slow
# window_ps = 10.0
# steps = 200
# points = 13000
# 
# wavelength [nm]	 power spectral density [dB]
1000.248639	-23.797385
1000.582480	-23.755551
1000.916545	-23.742051
1001.250832	-23.610643
1001.585343	-23.676136
1001.920077	-23.637120
1002.255035	-23.553548
1002.590218	-23.534350
1002.925624	-23.520985
1003.261255	-23.522456
1003.597111	-23.385132
1003.933192	-23.397050
1004.269497	-23.430537
1004.606029	-23.324243
1004.942785	-23.305351
1005.279768	-23.235962
1005.616977	-23.357243
1005.954412	-23.156074
1006.292074	-23.200966
1006.629962	-23.154738
1006.968077	-23.180401
1007.306420	-23.085862
1007.644990	-23.022450
1007.983787	-23.144087
1008.322813	-22.983017
1008.662067	-23.007418
1009.001549	-22.925056
1009.341259	-23.011366
1009.681199	-22.905410
1010.021367	-22.831455
1010.361765	-22.915212
1010.702392	-22.837534
1011.043250	-22.827281
1011.384337	-22.731613
1011.725654	-22.835975
1012.067202	-22.764529
1012.408980	-22.674057
1012.750989	-22.730233
1013.093230	-22.704152
1013.435702	-22.708068
1013.778405	-22.588664
1014.121341	-22.678614
1014.464508	-22.662067
1014.807908	-22.579829
1015.151540	-22.578388
1015.495405	-22.614050
1015.839503	-22.618034
1016.183835	-22.507263
1016.528400	-22.554521
1016.873198	-22.622866
1017.218231	-22.501308
1017.563498	-22.540676
1017.908999	-22.523304
1018.254735	-22.596590
1018.600707	-22.469514
1018.946913	-22.506964
1019.293354	-22.578760
1019.640032	-22.498151
1019.986945	-22.486187
1020.334094	-22.494847
1020.681480	-22.555547
1021.029102	-22.456364
1021.376961	-22.422948
1021.725058	-22.540053
1022.073391	-22.415407
1022.421962	-22.410582
1022.770772	-22.385851
1023.119819	-22.439615
1023.469104	-22.331290
1023.818628	-22.280212
1024.168391	-22.366463
1024.518393	-22.270025
1024.868634	-22.228494
1025.219115	-22.191413
1025.569836	-22.244230
1025.920796	-22.163881
1026.271997	-22.045748
1026.623438	-22.175263
1026.975121	-22.069268
1027.327044	-22.037973
1027.679208	-21.993942
1028.031614	-22.035310
1028.384262	-21.987894
1028.737152	-21.884382
1029.090284	-21.981363
1029.443659	-21.918333
1029.797276	-21.854165
1030.151137	-21.865475
1030.505240	-21.861516
1030.859587	-21.883283
1031.214178	-21.731415
1031.569013	-21.846162
1031.924093	-21.797936
1032.279417	-21.724227
1032.634985	-21.750264
1032.990799	-21.748034
1033.346858	-21.734336
1033.703162	-21.629004
1034.059712	-21.700945
1034.416509	-21.696197
1034.773551	-21.593985
1035.130841	-21.637422
1035.488377	-21.626637
1035.846160	-21.600976
1036.204190	-21.538002
1036.562468	-21.590628
1036.920994	-21.616370
1037.279768	-21.472876
1037.638790	-21.576418
1037.998061	-21.547319
1038.357581	-21.508529
1038.717350	-21.495503
1039.077368	-21.532278
1039.437636	-21.559720
1039.798154	-21.436778
1040.158922	-21.532705
1040.519940	-21.531985
1040.881209	-21.480229
1041.242729	-21.514569
1041.604501	-21.524493
1041.966524	-21.546665
1042.328798	-21.478615
1042.691325	-21.534124
1043.054103	-21.582349
1043.417135	-21.488811
1043.780419	-21.559738
1044.143956	-21.564639
1044.507746	-21.551422
1044.871791	-21.537838
1045.236088	-21.550977
1045.600641	-21.615375
1045.965447	-21.494764
1046.330508	-21.572375
1046.695824	-21.588290
1047.061395	-21.531874
1047.427222	-21.531425
1047.793304	-21.527333
1048.159642	-21.557797
1048.526237	-21.454411
1048.893088	-21.490350
1049.260196	-21.515504
1049.627561	-21.384310
1049.995183	-21.402483
1050.363063	-21.412455
1050.731201	-21.344391
1051.099597	-21.285859
1051.468251	-21.278393
1051.837164	-21.274809
1052.206336	-21.128733
1052.575767	-21.163508
1052.945458	-21.168789
1053.315409	-21.009888
1053.685619	-21.021892
1054.056090	-21.010376
1054.426821	-20.940111
1054.797814	-20.879250
1055.169067	-20.879220
1055.540582	-20.886159
1055.912359	-20.744520
1056.284398	-20.805028
1056.656698	-20.793823
1057.029262	-20.694947
1057.402088	-20.717520
1057.775177	-20.726349
1058.148530	-20.698371
1058.522146	-20.652611
1058.896027	-20.697086
1059.270171	-20.699499
1059.644580	-20.606018
1060.019254	-20.702216
1060.394193	-20.686258
1060.769397	-20.637799
1061.144867	-20.697929
1061.520602	-20.690204
1061.896604	-20.679158
1062.272872	-20.670478
1062.649407	-20.710968
1063.026210	-20.723305
1063.403279	-20.656949
1063.780616	-20.735074
1064.158221	-20.721677
1064.536094	-20.678640
1064.914235	-20.716577
1065.292645	-20.706040
1065.671325	-20.703530
1066.050273	-20.675243
1066.429491	-20.706250
1066.808979	-20.691115
1067.188738	-20.621937
1067.568766	-20.686403
1067.949066	-20.640169
1068.329636	-20.574388
1068.710478	-20.629338
1069.091592	-20.576339
1069.472977	-20.527348
1069.854635	-20.516954
1070.236565	-20.514191
1070.618768	-20.464163
1071.001243	-20.403112
1071.383993	-20.443164
1071.767016	-20.381956
1072.150313	-20.314471
1072.533884	-20.364344
1072.917730	-20.288907
1073.301850	-20.254080
1073.686246	-20.260699
1074.070917	-20.220185
1074.455864	-20.183409
1074.841087	-20.149345
1075.226586	-20.163508
1075.612362	-20.097291
1075.998415	-20.069050
1076.384745	-20.100498
1076.771353	-20.017555
1077.158238	-20.005850
1077.545401	-20.024309
1077.932843	-19.963601
1078.320564	-19.952841
1078.708564	-19.942242
1079.096842	-19.927770
1079.485401	-19.885711
1079.874240	-19.870377
1080.263358	-19.881746
1080.652757	-19.806206
1081.042438	-19.798150
1081.432399	-19.820425
1081.822641	-19.726872
1082.213166	-19.729686
1082.603972	-19.729767
1082.995061	-19.653773
1083.386433	-19.655283
1083.778087	-19.638387
1084.170025	-19.604655
1084.562246	-19.564302
1084.954751	-19.573122
1085.347541	-19.560688
1085.740615	-19.500499
1086.133973	-19.524541
1086.527617	-19.510135
1086.921546	-19.460229
1087.315761	-19.492975
1087.710262	-19.462090
1088.105050	-19.423712
1088.500124	-19.440328
1088.895485	-19.418543
1089.291134	-19.387337
1089.687070	-19.370723
1090.083294	-19.366604
1090.479806	-19.337541
1090.876607	-19.299718
1091.273696	-19.323346
1091.671075	-19.273486
1092.068744	-19.241822
1092.466702	-19.275985
1092.864950	-19.212383
1093.263489	-19.196221
1093.662319	-19.226751
1094.061440	-19.163400
1094.460852	-19.148925
1094.860555	-19.151474
1095.260551	-19.118360
1095.660840	-19.073582
1096.061421	-19.055557
1096.462295	-19.039697
1096.863462	-18.960058
1097.264923	-18.946175
1097.666678	-18.918141
1098.068727	-18.828100
1098.471071	-18.815302
1098.873710	-18.788259
1099.276644	-18.682713
1099.679874	-18.693045
1100.083400	-18.654115
1100.487222	-18.573231
1100.891340	-18.580386
1101.295756	-18.546758
1101.700468	-18.495783
1102.105478	-18.485961
1102.510787	-18.474976
1102.916393	-18.428447
1103.322298	-18.412906
1103.728502	-18.416981
1104.135005	-18.355222
1104.541807	-18.330187
1104.948909	-18.345727
1105.356312	-18.262497
1105.764015	-18.232950
1106.172019	-18.248947
1106.580324	-18.148849
1106.988931	-18.133514
1107.397840	-18.129037
1107.807051	-18.040241
1108.216564	-18.035279
1108.626380	-18.027369
1109.036500	-17.956902
1109.446923	-17.961621
1109.857649	-17.960843
1110.268680	-17.922617
1110.680016	-17.927332
1111.091657	-17.944385
1111.503602	-17.927810
1111.915854	-17.926619
1112.328411	-17.957210
1112.741275	-17.938745
1113.154445	-17.934681
1113.567922	-17.971919
1113.981706	-17.927324
1114.395798	-17.914580
1114.810198	-17.946562
1115.224906	-17.869647
1115.639923	-17.843941
1116.055249	-17.851475
1116.470884	-17.761745
1116.886829	-17.730190
1117.303084	-17.708170
1117.719650	-17.617609
1118.136526	-17.589261
1118.553713	-17.553780
1118.971212	-17.478400
1119.389022	-17.447862
1119.807145	-17.421030
1120.225580	-17.362143
1120.644328	-17.341356
1121.063389	-17.328657
1121.482763	-17.288878
1121.902452	-17.265446
1122.322454	-17.272909
1122.742771	-17.242421
1123.163404	-17.221094
1123.584351	-17.234129
1124.005614	-17.192757
1124.427193	-17.180446
1124.849089	-17.193372
1125.271301	-17.123292
1125.693830	-17.110562
1126.116677	-17.112488
1126.539842	-17.033634
1126.963324	-17.009895
1127.387126	-16.992874
1127.811246	-16.906331
1128.235685	-16.894723
1128.660444	-16.851375
1129.085522	-16.770366
1129.510922	-16.773149
1129.936641	-16.719991
1130.362682	-16.658039
1130.789044	-16.664737
1131.215728	-16.628541
1131.642734	-16.582559
1132.070063	-16.597694
1132.497714	-16.577000
1132.925689	-16.558422
1133.353987	-16.578812
1133.782610	-16.570459
1134.211556	-16.569050
1134.640827	-16.599358
1135.070424	-16.592649
1135.500345	-16.594769
1135.930593	-16.633803
1136.361166	-16.619990
1136.792067	-16.615318
1137.223294	-16.649513
1137.654848	-16.623663
1138.086730	-16.607358
1138.518940	-16.619015
1138.951479	-16.579743
1139.384346	-16.556339
1139.817543	-16.543979
1140.251069	-16.479918
1140.684925	-16.455963
1141.119111	-16.424916
1141.553628	-16.339921
1141.988475	-16.318420
1142.423655	-16.276452
1142.859166	-16.186415
1143.295009	-16.166437
1143.731185	-16.114494
1144.167694	-16.042207
1144.604536	-16.021489
1145.041711	-15.963526
1145.479221	-15.911645
1145.917065	-15.902648
1146.355245	-15.840585
1146.793759	-15.809808
1147.232609	-15.808143
1147.671795	-15.749747
1148.111317	-15.735912
1148.551177	-15.737503
1148.991373	-15.688959
1149.431907	-15.690725
1149.872779	-15.683762
1150.313989	-15.648325
1150.755538	-15.659192
1151.197426	-15.643958
1151.639653	-15.615052
1152.082220	-15.635601
1152.525128	-15.608000
1152.968376	-15.583275
1153.411966	-15.608915
1153.855897	-15.566284
1154.300169	-15.551768
1154.744784	-15.567863
1155.189742	-15.518492
1155.635042	-15.516138
1156.080687	-15.513977
1156.526674	-15.463750
1156.973007	-15.473194
1157.419683	-15.447934
1157.866705	-15.403045
1158.314072	-15.418945
1158.761786	-15.379079
1159.209845	-15.340177
1159.658251	-15.354404
1160.107004	-15.303818
1160.556104	-15.277887
1161.005553	-15.284169
1161.455349	-15.224792
1161.905494	-15.218220
1162.355989	-15.207407
1162.806832	-15.147516
1163.258026	-15.157441
1163.709570	-15.126458
1164.161464	-15.077613
1164.613710	-15.091719
1165.066307	-15.045190
1165.519256	-15.013057
1165.972558	-15.024426
1166.426212	-14.967450
1166.880219	-14.953897
1167.334580	-14.953366
1167.789295	-14.898043
1168.244364	-14.896996
1168.699788	-14.880804
1169.155567	-14.837539
1169.611702	-14.841966
1170.068193	-14.809873
1170.525041	-14.782960
1170.982245	-14.786802
1171.439807	-14.742702
1171.897726	-14.730897
1172.356004	-14.727489
1172.814640	-14.681683
1173.273635	-14.680127
1173.732989	-14.664084
1174.192703	-14.625313
1174.652778	-14.627844
1175.113213	-14.594708
1175.574009	-14.570056
1176.035167	-14.573581
1176.496687	-14.527220
1176.958569	-14.515605
1177.420814	-14.512398
1177.883422	-14.464248
1178.346394	-14.459190
1178.809730	-14.447606
1179.273430	-14.405928
1179.737496	-14.403982
1180.201927	-14.382529
1180.666723	-14.355187
1181.131886	-14.344303
1181.597416	-14.323980
1182.063312	-14.307469
1182.529576	-14.283057
1182.996209	-14.273659
1183.463209	-14.260488
1183.930579	-14.221165
1184.398317	-14.231233
1184.866426	-14.211172
1185.334904	-14.163251
1185.803754	-14.193221
1186.272974	-14.155239
1186.742566	-14.109016
1187.212529	-14.155283
1187.682865	-14.092446
1188.153574	-14.063146
1188.624656	-14.109400
1189.096112	-14.029532
1189.567942	-14.019637
1190.040147	-14.056125
1190.512726	-13.967248
1190.985681	-13.979671
1191.459012	-13.996730
1191.932720	-13.910103
1192.406804	-13.939652
1192.881265	-13.936684
1193.356104	-13.863108
1193.831322	-13.901398
1194.306918	-13.883866
1194.782893	-13.828022
1195.259248	-13.868389
1195.735982	-13.841456
1196.213097	-13.805928
1196.690593	-13.843077
1197.168471	-13.814465
1197.646730	-13.794524
1198.125371	-13.828278
1198.604395	-13.799599
1199.083803	-13.792251
1199.563594	-13.819413
1200.043769	-13.789392
1200.524329	-13.794358
1201.005273	-13.804823
1201.486604	-13.781310
1201.968320	-13.786450
1202.450422	-13.781365
1202.932912	-13.765884
1203.415789	-13.758372
1203.899054	-13.750608
1204.382707	-13.727582
1204.866748	-13.720645
1205.351179	-13.692448
1205.836000	-13.685006
1206.321211	-13.653259
1206.806812	-13.634257
1207.292805	-13.614734
1207.779189	-13.584625
1208.265965	-13.559839
1208.753134	-13.543321
1209.240696	-13.506153
1209.728651	-13.487037
1210.217000	-13.470153
1210.705744	-13.428210
1211.194883	-13.421779
1211.684417	-13.395841
1212.174347	-13.362076
1212.664673	-13.361399
1213.155396	-13.327254
1213.646516	-13.306455
1214.138034	-13.307099
1214.629951	-13.266767
1215.122266	-13.262173
1215.614980	-13.255985
1216.108095	-13.218504
1216.601609	-13.223609
1217.095524	-13.210300
1217.589841	-13.177812
1218.084559	-13.193906
1218.579679	-13.165410
1219.075202	-13.147968
1219.571128	-13.162412
1220.067458	-13.128404
1220.564191	-13.121131
1221.061330	-13.132893
1221.558874	-13.090978
1222.056823	-13.101681
1222.555178	-13.095065
1223.053940	-13.060199
1223.553109	-13.079117
1224.052686	-13.057214
1224.552671	-13.029832
1225.053065	-13.052697
1225.553867	-13.012916
1226.055079	-13.007175
1226.556702	-13.014621
1227.058735	-12.971333
1227.561179	-12.980859
1228.064035	-12.969449
1228.567303	-12.932520
1229.070983	-12.949739
1229.575077	-12.917301
1230.079585	-12.901257
1230.584506	-12.905380
1231.089842	-12.869074
1231.595594	-12.867277
1232.101761	-12.854271
1232.608345	-12.827065
1233.115345	-12.825464
1233.622762	-12.801907
1234.130597	-12.788037
1234.638851	-12.775350
1235.147523	-12.754214
1235.656615	-12.744624
1236.166126	-12.722717
1236.676058	-12.710296
1237.186411	-12.692286
1237.697185	-12.674629
1238.208381	-12.663069
1238.719999	-12.638304
1239.232040	-12.628827
1239.744505	-12.607922
1240.257394	-12.590382
1240.770708	-12.579710
1241.284446	-12.550770
1241.798610	-12.547596
1242.313201	-12.522588
1242.828218	-12.502057
1243.343662	-12.502081
1243.859534	-12.463123
1244.375834	-12.464559
1244.892563	-12.446917
1245.409721	-12.414493
1245.927309	-12.427139
1246.445327	-12.389076
1246.963777	-12.381824
1247.482657	-12.381180
1248.001970	-12.340864
1248.521716	-12.357116
1249.041894	-12.327895
1249.562506	-12.314181
1250.083553	-12.323490
1250.605034	-12.284097
1251.126950	-12.299977
1251.649302	-12.279895
1252.172091	-12.261651
1252.695316	-12.280951
1253.218979	-12.240437
1253.743079	-12.256593
1254.267619	-12.247668
1254.792597	-12.221091
1255.318015	-12.249662
1255.843874	-12.213094
1256.370173	-12.220371
1256.896913	-12.227150
1257.424095	-12.193937
1257.951720	-12.222285
1258.479787	-12.195079
1259.008298	-12.195074
1259.537254	-12.207173
1260.066654	-12.173775
1260.596499	-12.201643
1261.126790	-12.175916
1261.657527	-12.173839
1262.188711	-12.190499
1262.720342	-12.150647
1263.252422	-12.181791
1263.784950	-12.158421
1264.317928	-12.148660
1264.851355	-12.171462
1265.385232	-12.129518
1265.919560	-12.156529
1266.454340	-12.137828
1266.989572	-12.125726
1267.525256	-12.144865
1268.061394	-12.107953
1268.597985	-12.132535
1269.135031	-12.110461
1269.672531	-12.103038
1270.210487	-12.120580
1270.748899	-12.080854
1271.287768	-12.108897
1271.827094	-12.086160
1272.366877	-12.077259
1272.907119	-12.095875
1273.447820	-12.058407
1273.988981	-12.083267
1274.530601	-12.060814
1275.072683	-12.057966
1275.615226	-12.067412
1276.158230	-12.037369
1276.701697	-12.061063
1277.245627	-12.033414
1277.790021	-12.038885
1278.334879	-12.041080
1278.880202	-12.014456
1279.425991	-12.036105
1279.972245	-12.009845
1280.518966	-12.014185
1281.066155	-12.012049
1281.613811	-11.993821
1282.161936	-12.004002
1282.710529	-11.983197
1283.259593	-11.988757
1283.809126	-11.976565
1284.359131	-11.968081
1284.909607	-11.969863
1285.460555	-11.951933
1286.011976	-11.953590
1286.563870	-11.943691
1287.116237	-11.933419
1287.669080	-11.930069
1288.222397	-11.921102
1288.776191	-11.910973
1289.330460	-11.908559
1289.885207	-11.896032
1290.440431	-11.890399
1290.996133	-11.882906
1291.552314	-11.872968
1292.108975	-11.871366
1292.666115	-11.854648
1293.223737	-11.856675
1293.781839	-11.843809
1294.340424	-11.834746
1294.899491	-11.838585
1295.459041	-11.815746
1296.019075	-11.824221
1296.579593	-11.807143
1297.140597	-11.803633
1297.702086	-11.802024
1298.264061	-11.785387
1298.826524	-11.793698
1299.389474	-11.771708
1299.952912	-11.777141
1300.516839	-11.768724
1301.081255	-11.754592
1301.646162	-11.766901
1302.211559	-11.738930
1302.777448	-11.751231
1303.343829	-11.734341
1303.910702	-11.730917
1304.478069	-11.732869
1305.045930	-11.710952
1305.614285	-11.727642
1306.183136	-11.696889
1306.752483	-11.712555
1307.322326	-11.696471
1307.892666	-11.691058
1308.463504	-11.695497
1309.034841	-11.677630
1309.606677	-11.684783
1310.179012	-11.673512
1310.751849	-11.670753
1311.325186	-11.674067
1311.899025	-11.658376
1312.473366	-11.671985
1313.048211	-11.655755
1313.623559	-11.659207
1314.199412	-11.664323
1314.775770	-11.648083
1315.352634	-11.668703
1315.930004	-11.648499
1316.507881	-11.664956
1317.086266	-11.657522
1317.665159	-11.657033
1318.244562	-11.671822
1318.824474	-11.651304
1319.404897	-11.682922
1319.985831	-11.657742
1320.567276	-11.682918
1321.149234	-11.672763
1321.731706	-11.680916
1322.314691	-11.687286
1322.898190	-11.684188
1323.482205	-11.699261
1324.066736	-11.693984
1324.651783	-11.706091
1325.237347	-11.708877
1325.823430	-11.712240
1326.410031	-11.720870
1326.997151	-11.726975
1327.584791	-11.728949
1328.172952	-11.745604
1328.761634	-11.738670
1329.350839	-11.764498
1329.940566	-11.751924
1330.530817	-11.781149
1331.121592	-11.772430
1331.712891	-11.792458
1332.304716	-11.798253
1332.897068	-11.806578
1333.489946	-11.821886
1334.083352	-11.826314
1334.677287	-11.843597
1335.271750	-11.848146
1335.866744	-11.863972
1336.462268	-11.872661
1337.058323	-11.886330
1337.654910	-11.892909
1338.252029	-11.914253
1338.849682	-11.909827
1339.447869	-11.940469
1340.046591	-11.932055
1340.645848	-11.963257
1341.245641	-11.955818
1341.845972	-11.983641
1342.446840	-11.982504
1343.048246	-12.000362
1343.650191	-12.011838
1344.252677	-12.020548
1344.855702	-12.034044
1345.459269	-12.048474
1346.063379	-12.054181
1346.668030	-12.073417
1347.273226	-12.078373
1347.878965	-12.096614
1348.485250	-12.102731
1349.092080	-12.118843
1349.699456	-12.130836
1350.307380	-12.134529
1350.915851	-12.159966
1351.524871	-12.153820
1352.134441	-12.181017
1352.744560	-12.179669
1353.355231	-12.198657
1353.966453	-12.203840
1354.578227	-12.217944
1355.190555	-12.225202
1355.803436	-12.237616
1356.416872	-12.244209
1357.030863	-12.260690
1357.645411	-12.258415
1358.260515	-12.285826
1358.876177	-12.273886
1359.492397	-12.305168
1360.109176	-12.294735
1360.726516	-12.318986
1361.344416	-12.317135
1361.962877	-12.333264
1362.581901	-12.337541
1363.201487	-12.348848
1363.821637	-12.354455
1364.442352	-12.367773
1365.063632	-12.366719
1365.685478	-12.388665
1366.307891	-12.377860
1366.930871	-12.406743
1367.554420	-12.393063
1368.178538	-12.419696
1368.803226	-12.412147
1369.428485	-12.429753
1370.054315	-12.430867
1370.680717	-12.441717
1371.307693	-12.446086
1371.935242	-12.456833
1372.563366	-12.457457
1373.192065	-12.475285
1373.821341	-12.466419
1374.451193	-12.494600
1375.081623	-12.477684
1375.712632	-12.509186
1376.344221	-12.495075
1376.976389	-12.519334
1377.609139	-12.514241
1378.242470	-12.529699
1378.876384	-12.532682
1379.510881	-12.541388
1380.145963	-12.548753
1380.781629	-12.558322
1381.417881	-12.560226
1382.054720	-12.578705
1382.692147	-12.573104
1383.330161	-12.596281
1383.968765	-12.590470
1384.607959	-12.611294
1385.247743	-12.611291
1385.888119	-12.623319
1386.529087	-12.635283
1387.170648	-12.635326
1387.812804	-12.656607
1388.455554	-12.651966
1389.098899	-12.673149
1389.742842	-12.672428
1390.387381	-12.688604
1391.032519	-12.694492
1391.678256	-12.705181
1392.324592	-12.716056
1392.971529	-12.727100
1393.619068	-12.733060
1394.267208	-12.753933
1394.915952	-12.748478
1395.565300	-12.780186
1396.215253	-12.765934
1396.865812	-12.804222
1397.516977	-12.787176
1398.168749	-12.822829
1398.821130	-12.814239
1399.474120	-12.837794
1400.127719	-12.841794
1400.781930	-12.854541
1401.436752	-12.866991
1402.092186	-12.874792
1402.748234	-12.890057
1403.404897	-12.900395
1404.062174	-12.910724
1404.720067	-12.928198
1405.378577	-12.933785
1406.037705	-12.951985
1406.697451	-12.960296
1407.357817	-12.971600
1408.018803	-12.988839
1408.680410	-12.988200
1409.342639	-13.019114
1410.005492	-13.005719
1410.668968	-13.045347
1411.333068	-13.028893
1411.997795	-13.065499
1412.663147	-13.055210
1413.329127	-13.081242
1413.995736	-13.083387
1414.662973	-13.095137
1415.330840	-13.111344
1415.999339	-13.113309
1416.668469	-13.136063
1417.338232	-13.136603
1418.008628	-13.158829
1418.679659	-13.160592
1419.351325	-13.179492
1420.023628	-13.183103
1420.696568	-13.199436
1421.370145	-13.201691
1422.044362	-13.222194
1422.719219	-13.219035
1423.394717	-13.245910
1424.070856	-13.239361
1424.747638	-13.267278
1425.425064	-13.261492
1426.103134	-13.282745
1426.781850	-13.285255
1427.461212	-13.290381
1428.141221	-13.308937
1428.821878	-13.298141
1429.503185	-13.331499
1430.185141	-13.313206
1430.867749	-13.354191
1431.551008	-13.337796
1432.234920	-13.373317
1432.919486	-13.368670
1433.604707	-13.385919
1434.290583	-13.395830
1434.977116	-13.393728
1435.664307	-13.416004
1436.352156	-13.401764
1437.040664	-13.432736
1437.729833	-13.418809
1438.419663	-13.450715
1439.110156	-13.447981
1439.801312	-13.473111
1440.493132	-13.480995
1441.185617	-13.494246
1441.878768	-13.507575
1442.572586	-13.506282
1443.267072	-13.519352
1443.962228	-13.510032
1444.658053	-13.520990
1445.354549	-13.512373
1446.051717	-13.526481
1446.749558	-13.525229
1447.448073	-13.543157
1448.147263	-13.552048
1448.847128	-13.570262
1449.547671	-13.582465
1450.248891	-13.593549
1450.950789	-13.602114
1451.653368	-13.597927
1452.356627	-13.600383
1453.060568	-13.583470
1453.765192	-13.583623
1454.470500	-13.564252
1455.176492	-13.570643
1455.883170	-13.562460
1456.590534	-13.576716
1457.298586	-13.589368
1458.007327	-13.605205
1458.716758	-13.633226
1459.426880	-13.640950
1460.137693	-13.668653
1460.849199	-13.658835
1461.561398	-13.669340
1462.274293	-13.643848
1462.987883	-13.628581
1463.702170	-13.601392
1464.417155	-13.570396
1465.132838	-13.558335
1465.849222	-13.531421
1466.566306	-13.547021
1467.284093	-13.542615
1468.002582	-13.582214
1468.721775	-13.608106
1469.441674	-13.653040
1470.162278	-13.695880
1470.883590	-13.722251
1471.605609	-13.756715
1472.328338	-13.744806
1473.051777	-13.747774
1473.775928	-13.700888
1474.500790	-13.664739
1475.226367	-13.606341
1475.952657	-13.548586
1476.679663	-13.505907
1477.407386	-13.455928
1478.135826	-13.449123
1478.864985	-13.431892
1479.594863	-13.460972
1480.325463	-13.485147
1481.056784	-13.530230
1481.788828	-13.575900
1482.521597	-13.602698
1483.255090	-13.626692
1483.989309	-13.595708
1484.724256	-13.551558
1485.459931	-13.444137
1486.196336	-13.312138
1486.933471	-13.143872
1487.671337	-12.951536
1488.409937	-12.762535
1489.149270	-12.565104
1489.889337	-12.402579
1490.630141	-12.253315
1491.371682	-12.153118
1492.113961	-12.088847
1492.856979	-12.070826
1493.600738	-12.102814
1494.345238	-12.171535
1495.090481	-12.288516
1495.836467	-12.427870
1496.583198	-12.597318
1497.330675	-12.770175
1498.078899	-12.939315
1498.827872	-13.090666
1499.577593	-13.204760
1500.328065	-13.281857
1501.079289	-13.309420
1501.831265	-13.296472
1502.583995	-13.249551
1503.337480	-13.181177
1504.091721	-13.112154
1504.846719	-13.053213
1505.602475	-13.023926
1506.358991	-13.039332
1507.116268	-13.103833
1507.874306	-13.238447
1508.633108	-13.433723
1509.392673	-13.703660
1510.153004	-14.033289
1510.914101	-14.409526
1511.675965	-14.812869
1512.438599	-15.175986
1513.202002	-15.465378
1513.966176	-15.575234
1514.731122	-15.471586
1515.496842	-15.130105
1516.263336	-14.567555
1517.030607	-13.877129
1517.798654	-13.091550
1518.567479	-12.299342
1519.337083	-11.515408
1520.107468	-10.772672
1520.878634	-10.086910
1521.650584	-9.449833
1522.423317	-8.885786
1523.196836	-8.371004
1523.971141	-7.927373
1524.746233	-7.537041
1525.522115	-7.210024
1526.298786	-6.942378
1527.076249	-6.729654
1527.854504	-6.581043
1528.633553	-6.481739
1529.413397	-6.446558
1530.194037	-6.459540
1530.975474	-6.531373
1531.757709	-6.651635
1532.540745	-6.821996
1533.324581	-7.040364
1534.109220	-7.298879
1534.894662	-7.600874
1535.680909	-7.933972
1536.467961	-8.301607
1537.255821	-8.693044
1538.044489	-9.109021
1538.833967	-9.544260
1539.624256	-9.995310
1540.415357	-10.464536
1541.207271	-10.948549
1542.000000	-11.452598
1542.793545	-11.978976
1543.587907	-12.529012
1544.383087	-13.115776
1545.179088	-13.729725
1545.975909	-14.395026
1546.773552	-15.088546
1547.572019	-15.832760
1548.371311	-16.590130
1549.171428	-17.358432
1549.972373	-18.078540
1550.774147	-18.688362
1551.576751	-19.117718
1552.380185	-19.278291
1553.184453	-19.183916
1553.989554	-18.825876
1554.795490	-18.333522
1555.602263	-17.728606
1556.409873	-17.129791
1557.218322	-16.530649
1558.027612	-15.994010
1558.837743	-15.507063
1559.648717	-15.084294
1560.460536	-14.731329
1561.273200	-14.432913
1562.086710	-14.205951
1562.901069	-14.027940
1563.716278	-13.912347
1564.532337	-13.847059
1565.349249	-13.831437
1566.167014	-13.866508
1566.985634	-13.940978
1567.805111	-14.057969
1568.625444	-14.210857
1569.446637	-14.387539
1570.268690	-14.593072
1571.091605	-14.803617
1571.915382	-15.022128
1572.740024	-15.231823
1573.565532	-15.412603
1574.391907	-15.573135
1575.219150	-15.673991
1576.047262	-15.733628
1576.876246	-15.731840
1577.706103	-15.667113
1578.536833	-15.562793
1579.368439	-15.396566
1580.200922	-15.207843
1581.034282	-14.987346
1581.868522	-14.750799
1582.703643	-14.514626
1583.539646	-14.270330
1584.376532	-14.043259
1585.214304	-13.822294
1586.052962	-13.618998
1586.892508	-13.437223
1587.732943	-13.271168
1588.574269	-13.130825
1589.416487	-13.010603
1590.259599	-12.910564
1591.103605	-12.835911
1591.948508	-12.776245
1592.794309	-12.738408
1593.641009	-12.717487
1594.488609	-12.706913
1595.337112	-12.715370
1596.186518	-12.724017
1597.036829	-12.745910
1597.888047	-12.767325
1598.740172	-12.786110
1599.593207	-12.810288
1600.447153	-12.819950
1601.302010	-12.834260
1602.157782	-12.835840
1603.014469	-12.833774
1603.872072	-12.829959
1604.730593	-12.815830
1605.590034	-12.807573
1606.450397	-12.793626
1607.311681	-12.785520
1608.173890	-12.782979
1609.037024	-12.784508
1609.901085	-12.799434
1610.766075	-12.822421
1611.631995	-12.856498
1612.498846	-12.906274
1613.366630	-12.963704
1614.235349	-13.037216
1615.105004	-13.121157
1615.975596	-13.213352
1616.847128	-13.321949
1617.719600	-13.430204
1618.593014	-13.552799
1619.467372	-13.676903
1620.342675	-13.801729
1621.218924	-13.934707
1622.096122	-14.057233
1622.974270	-14.186864
1623.853369	-14.306999
1624.733420	-14.423334
1625.614427	-14.538403
1626.496389	-14.640946
1627.379308	-14.744408
1628.263187	-14.838157
1629.148026	-14.928614
1630.033828	-15.017525
1630.920593	-15.101120
1631.808324	-15.187136
1632.697022	-15.274216
1633.586688	-15.359825
1634.477324	-15.453625
1635.368932	-15.546023
1636.261514	-15.640940
1637.155070	-15.741678
1638.049602	-15.834412
1638.945113	-15.934741
1639.841603	-16.024666
1640.739075	-16.112491
1641.637529	-16.196700
1642.536968	-16.265112
1643.437393	-16.334319
1644.338806	-16.385105
1645.241209	-16.430487
1646.144602	-16.465909
1647.048988	-16.488320
1647.954368	-16.508033
1648.860744	-16.515624
1649.768118	-16.519816
1650.676491	-16.520274
1651.585865	-16.514696
1652.496241	-16.508215
1653.407621	-16.500648
1654.320008	-16.487137
1655.233401	-16.476610
1656.147804	-16.459955
1657.063218	-16.440282
1657.979645	-16.420462
1658.897085	-16.388715
1659.815542	-16.360100
1660.735016	-16.319303
1661.655509	-16.275909
1662.577023	-16.230121
1663.499560	-16.174087
1664.423121	-16.122824
1665.347709	-16.063353
1666.273324	-16.006527
1667.199969	-15.949691
1668.127645	-15.890908
1669.056353	-15.836130
1669.986097	-15.778904
1670.916877	-15.722095
1671.848695	-15.665511
1672.781553	-15.606046
1673.715452	-15.545724
1674.650395	-15.485636
1675.586383	-15.420879
1676.523418	-15.359831
1677.461501	-15.295263
1678.400635	-15.231657
1679.340821	-15.171080
1680.282061	-15.105987
1681.224357	-15.048286
1682.167710	-14.985826
1683.112122	-14.926725
1684.057595	-14.869170
1685.004132	-14.807407
1685.951732	-14.751516
1686.900400	-14.690594
1687.850135	-14.632746
1688.800940	-14.575077
1689.752818	-14.516714
1690.705768	-14.461481
1691.659795	-14.405651
1692.614898	-14.351430
1693.571081	-14.298914
1694.528345	-14.246204
1695.486691	-14.194491
1696.446122	-14.145297
1697.406640	-14.093645
1698.368245	-14.046839
1699.330941	-13.998488
1700.294729	-13.951352
1701.259611	-13.908133
1702.225588	-13.861291
1703.192664	-13.821008
1704.160838	-13.777926
1705.130114	-13.737814
1706.100493	-13.700117
1707.071977	-13.659365
1708.044568	-13.624220
1709.018268	-13.585365
1709.993079	-13.549436
1710.969003	-13.514712
1711.946041	-13.479610
1712.924196	-13.448081
1713.903469	-13.416315
1714.883862	-13.386374
1715.865378	-13.356918
1716.848017	-13.328162
1717.831783	-13.299513
1718.816677	-13.273108
1719.802701	-13.245461
1720.789857	-13.220932
1721.778147	-13.196577
1722.767573	-13.171922
1723.758136	-13.151557
1724.749840	-13.127824
1725.742685	-13.108845
1726.736673	-13.088437
1727.731808	-13.068171
1728.728090	-13.051297
1729.725521	-13.030416
1730.724105	-13.014207
1731.723842	-12.995536
1732.724735	-12.977805
1733.726785	-12.962264
1734.729995	-12.944773
1735.734366	-12.930751
1736.739902	-12.915813
1737.746603	-12.901980
1738.754472	-12.888464
1739.763510	-12.874793
1740.773721	-12.861070
1741.785105	-12.848297
1742.797665	-12.835545
1743.811403	-12.823596
1744.826321	-12.813736
1745.842422	-12.802241
1746.859706	-12.794132
1747.878177	-12.784040
1748.897835	-12.775166
1749.918685	-12.767331
1750.940726	-12.757365
1751.963963	-12.750730
1752.988395	-12.741533
1754.014027	-12.734811
1755.040860	-12.727695
1756.068895	-12.720470
1757.098135	-12.715913
1758.128583	-12.708485
1759.160240	-12.704550
1760.193109	-12.699333
1761.227191	-12.693562
1762.262488	-12.690769
1763.299004	-12.685558
1764.336740	-12.682194
1765.375697	-12.680895
1766.415880	-12.677878
1767.457288	-12.677247
1768.499926	-12.678077
1769.543794	-12.676059
1770.588895	-12.678448
1771.635231	-12.679565
1772.682805	-12.679797
1773.731619	-12.685166
1774.781674	-12.685987
1775.832973	-12.690357
1776.885519	-12.695620
1777.939312	-12.698077
1778.994357	-12.704920
1780.050654	-12.709593
1781.108207	-12.714871
1782.167017	-12.721116
1783.227087	-12.726354
1784.288418	-12.731592
1785.351013	-12.737455
1786.414875	-12.743646
1787.480006	-12.749144
1788.546407	-12.757164
1789.614082	-12.763382
1790.683032	-12.770319
1791.753259	-12.777780
1792.824767	-12.783516
1793.897557	-12.791482
1794.971632	-12.798499
1796.046994	-12.806723
1797.123645	-12.815272
1798.201588	-12.823767
1799.280824	-12.832711
1800.361357	-12.841280
1801.443188	-12.851299
1802.526320	-12.860221
1803.610756	-12.871193
1804.696497	-12.881516
1805.783546	-12.892028
1806.871906	-12.904472
1807.961578	-12.914254
1809.052565	-12.927036
1810.144870	-12.938043
1811.238494	-12.949431
1812.333441	-12.962751
1813.429713	-12.973928
1814.527311	-12.988432
1815.626239	-13.001214
1816.726499	-13.015069
1817.828094	-13.029844
1818.931025	-13.042927
1820.035295	-13.058863
1821.140906	-13.073098
1822.247862	-13.089398
1823.356165	-13.106355
1824.465816	-13.122689
1825.576819	-13.141313
1826.689175	-13.158561
1827.802888	-13.177197
1828.917960	-13.195779
1830.034394	-13.213942
1831.152191	-13.233594
1832.271354	-13.252230
1833.391887	-13.272091
1834.513790	-13.291937
1835.637068	-13.311540
1836.761722	-13.332019
1837.887755	-13.352059
1839.015169	-13.372602
1840.143968	-13.393335
1841.274153	-13.414133
1842.405727	-13.435139
1843.538693	-13.456822
1844.673053	-13.478350
1845.808810	-13.500601
1846.945966	-13.523074
1848.084525	-13.545533
1849.224488	-13.568976
1850.365858	-13.591313
1851.508638	-13.614595
1852.652831	-13.637640
1853.798438	-13.660255
1854.945463	-13.684402
1856.093909	-13.707093
1857.243777	-13.731006
1858.395071	-13.754154
1859.547794	-13.776631
1860.701947	-13.800086
1861.857533	-13.822009
1863.014556	-13.845374
1864.173018	-13.868139
1865.332922	-13.890221
1866.494270	-13.912859
1867.657065	-13.933284
1868.821309	-13.955219
1869.987006	-13.976994
1871.154158	-13.999204
1872.322768	-14.022687
1873.492839	-14.044810
1874.664373	-14.067922
1875.837373	-14.090182
1877.011841	-14.112689
1878.187782	-14.136553
1879.365197	-14.159977
1880.544089	-14.184951
1881.724460	-14.209147
1882.906315	-14.232986
1884.089655	-14.256992
1885.274483	-14.280141
1886.460803	-14.305013
1887.648616	-14.329805
1888.837927	-14.354981
1890.028736	-14.380256
1891.221049	-14.404424
1892.414866	-14.429139
1893.610192	-14.452777
1894.807028	-14.476524
1896.005379	-14.500618
1897.205246	-14.524291
1898.406633	-14.548760
1899.609542	-14.571611
1900.813977	-14.593175
1902.019940	-14.613282
1903.227434	-14.631728
1904.436462	-14.650584
1905.647028	-14.668492
1906.859133	-14.686454
1908.072781	-14.703276
1909.287976	-14.717855
1910.504719	-14.731900
1911.723013	-14.744117
1912.942863	-14.756502
1914.164270	-14.768541
1915.387238	-14.779288
1916.611770	-14.789763
1917.837868	-14.797776
1919.065536	-14.805189
1920.294777	-14.811181
1921.525594	-14.815487
1922.757989	-14.819959
1923.991967	-14.822575
1925.227529	-14.824999
1926.464679	-14.825979
1927.703420	-14.825378
1928.943755	-14.824821
1930.185688	-14.823014
1931.429221	-14.822556
1932.674356	-14.822069
1933.921099	-14.821279
1935.169451	-14.820251
1936.419415	-14.817032
1937.670996	-14.814337
1938.924195	-14.811298
1940.179017	-14.808580
1941.435463	-14.805961
1942.693538	-14.801268
1943.953245	-14.796094
1945.214586	-14.789363
1946.477566	-14.782273
1947.742186	-14.775247
1949.008451	-14.766870
1950.276363	-14.758081
1951.545926	-14.747426
1952.817143	-14.736120
1954.090017	-14.724228
1955.364551	-14.710877
1956.640749	-14.697148
1957.918615	-14.681960
1959.198150	-14.665969
1960.479359	-14.648965
1961.762244	-14.630400
1963.046810	-14.610646
1964.333059	-14.589331
1965.620995	-14.567542
1966.910621	-14.544734
1968.201940	-14.520577
1969.494956	-14.495177
1970.789672	-14.467969
1972.086091	-14.439930
1973.384217	-14.410971
1974.684053	-14.381189
1975.985602	-14.350678
1977.288869	-14.319106
1978.593855	-14.287103
1979.900566	-14.254726
1981.209003	-14.222261
1982.519171	-14.189803
1983.831073	-14.157206
1985.144712	-14.125041
1986.460093	-14.093176
1987.777217	-14.061717
1989.096089	-14.030253
1990.416713	-13.999122
1991.739092	-13.968869
1993.063228	-13.939133
1994.389127	-13.909600
1995.716791	-13.879711
1997.046223	-13.850134
1998.377428	-13.821111
1999.710409	-13.792222
2001.045169	-13.763665
2002.381713	-13.734950
2003.720043	-13.707189
2005.060163	-13.679919
2006.402077	-13.652541
2007.745788	-13.624855
2009.091301	-13.596548
2010.438618	-13.568970
2011.787743	-13.541698
2013.138680	-13.514548
2014.491433	-13.486436
2015.846005	-13.457054
2017.202399	-13.427362
2018.560621	-13.397295
2019.920673	-13.367384
2021.282558	-13.336531
2022.646281	-13.304833
2024.011846	-13.272668
2025.379256	-13.240387
2026.748515	-13.207960
2028.119626	-13.174995
2029.492594	-13.142112
2030.867422	-13.109336
2032.244114	-13.077104
2033.622673	-13.045249
2035.003104	-13.013371
2036.385411	-12.981934
2037.769597	-12.950739
2039.155665	-12.920013
2040.543621	-12.889631
2041.933467	-12.860307
2043.325208	-12.832701
2044.718847	-12.806185
2046.114389	-12.780383
2047.511837	-12.754406
2048.911195	-12.729504
2050.312467	-12.706356
2051.715657	-12.685040
2053.120769	-12.664380
2054.527807	-12.644437
2055.936775	-12.626183
2057.347677	-12.608830
2058.760516	-12.591445
2060.175297	-12.573375
2061.592025	-12.556041
2063.010701	-12.540017
2064.431332	-12.525181
2065.853921	-12.511165
2067.278472	-12.497058
2068.704988	-12.482695
2070.133475	-12.467536
2071.563936	-12.450999
2072.996375	-12.432880
2074.430796	-12.413652
2075.867204	-12.393849
2077.305603	-12.373541
2078.745996	-12.353788
2080.188389	-12.334965
2081.632784	-12.317487
2083.079187	-12.299534
2084.527601	-12.280985
2085.978030	-12.262797
2087.430480	-12.246140
2088.884954	-12.230821
2090.341455	-12.215865
2091.799990	-12.201659
2093.260561	-12.189495
2094.723173	-12.179149
2096.187831	-12.168793
2097.654538	-12.157557
2099.123300	-12.147080
2100.594119	-12.138358
2102.067001	-12.131659
2103.541950	-12.126294
2105.018971	-12.122648
2106.498067	-12.120536
2107.979243	-12.119998
2109.462503	-12.119645
2110.947853	-12.117966
2112.435295	-12.112861
2113.924836	-12.103878
2115.416478	-12.092148
2116.910227	-12.080154
2118.406087	-12.068874
2119.904063	-12.058870
2121.404158	-12.052440
2122.906378	-12.052564
2124.410727	-12.059530
2125.917210	-12.070108
2127.425831	-12.082580
2128.936594	-12.096526
2130.449505	-12.111688
2131.964567	-12.125086
2133.481786	-12.136078
2135.001166	-12.144553
2136.522711	-12.150889
2138.046427	-12.154415
2139.572317	-12.156007
2141.100388	-12.156762
2142.630642	-12.157118
2144.163085	-12.157761
2145.697722	-12.159274
2147.234558	-12.163251
2148.773596	-12.168707
2150.314842	-12.175543
2151.858301	-12.183531
2153.403977	-12.192961
2154.951875	-12.202365
2156.502000	-12.211317
2158.054357	-12.221104
2159.608950	-12.231126
2161.165785	-12.241144
2162.724866	-12.250586
2164.286198	-12.262352
2165.849786	-12.275618
2167.415635	-12.290088
2168.983749	-12.306688
2170.554134	-12.326127
2172.126795	-12.349409
2173.701737	-12.374852
2175.278964	-12.403884
2176.858481	-12.434823
2178.440294	-12.466724
2180.024408	-12.498662
2181.610827	-12.528510
2183.199557	-12.554951
2184.790602	-12.576524
2186.383968	-12.595146
2187.979660	-12.611864
2189.577683	-12.625852
2191.178041	-12.639750
2192.780741	-12.655058
2194.385787	-12.672947
2195.993185	-12.692442
2197.602939	-12.714917
2199.215054	-12.737998
