# 2022-03-22_13.21.58
# shape = sech2
# FWHM_ps = 0.11
# carrier_nm = 1542
# frep_MHz = 12126
# pow_mW = 8000
# GDD = 0.0
# propa_len = 0.16
# untap_len = 0.01
# taper_len = 0.1
# waist_len = 0.02
# uptap_len = 0.02
# untap_scale = 1.0
# waist_scale = 0.22631578947368425
# workingDir = NL_20110305_12 (Spirou)
# axis = slow
# window_ps = 10.0
# steps = 200
# points = 21700
# 
# wavelength [nm]	 power spectral density [dB]
600.043425	-95.798803
600.163550	-95.875885
600.283723	-96.091612
600.403943	-96.433466
600.524212	-96.879118
600.644529	-97.374800
600.764895	-97.831333
600.885308	-98.211151
601.005770	-98.551927
601.126280	-98.879285
601.246839	-99.214017
601.367446	-99.561802
601.488101	-99.894297
601.608804	-100.189554
601.729557	-100.392260
601.850357	-100.448370
601.971206	-100.311031
602.092104	-99.911891
602.213050	-99.296291
602.334045	-98.644803
602.455089	-98.113759
602.576181	-97.711451
602.697322	-97.342417
602.818511	-96.893821
602.939749	-96.303888
603.061036	-95.632148
603.182372	-94.993522
603.303757	-94.458639
603.425191	-94.088682
603.546673	-93.907231
603.668204	-93.883138
603.789785	-93.973938
603.911414	-94.144677
604.033092	-94.345145
604.154820	-94.525178
604.276596	-94.686961
604.398422	-94.833358
604.520297	-94.958022
604.642220	-95.106844
604.764193	-95.284403
604.886216	-95.452408
605.008287	-95.588851
605.130408	-95.659984
605.252578	-95.645096
605.374798	-95.540830
605.497066	-95.401395
605.619385	-95.298907
605.741752	-95.271204
605.864169	-95.309476
605.986636	-95.368326
606.109152	-95.391877
606.231718	-95.312456
606.354333	-95.116614
606.476998	-94.882966
606.599712	-94.729080
606.722476	-94.707811
606.845290	-94.836418
606.968154	-95.039383
607.091067	-95.085896
607.214030	-94.792501
607.337043	-94.176768
607.460106	-93.414677
607.583219	-92.678039
607.706381	-92.087574
607.829594	-91.680100
607.952856	-91.424254
608.076169	-91.293159
608.199531	-91.258606
608.322944	-91.290222
608.446407	-91.342951
608.569920	-91.375044
608.693483	-91.383972
608.817096	-91.386151
608.940759	-91.405077
609.064473	-91.467112
609.188237	-91.562397
609.312051	-91.611336
609.435916	-91.562501
609.559831	-91.443091
609.683796	-91.321451
609.807812	-91.251564
609.931878	-91.271488
610.055995	-91.366402
610.180162	-91.457728
610.304380	-91.467812
610.428648	-91.379738
610.552967	-91.234818
610.677337	-91.093442
610.801757	-90.991797
610.926228	-90.977870
611.050750	-91.126435
611.175323	-91.483335
611.299946	-92.030881
611.424620	-92.690894
611.549345	-93.344363
611.674121	-93.874956
611.798948	-94.243488
611.923826	-94.553343
612.048755	-94.994698
612.173734	-95.690738
612.298765	-96.646979
612.423847	-97.741331
612.548980	-98.668925
612.674165	-99.259190
612.799400	-99.639421
612.924687	-100.034915
613.050025	-100.589204
613.175414	-101.197574
613.300854	-101.528939
613.426346	-101.197900
613.551889	-100.235652
613.677484	-98.992232
613.803130	-97.857732
613.928827	-97.019737
614.054576	-96.530732
614.180377	-96.368418
614.306229	-96.475682
614.432132	-96.720727
614.558087	-96.932292
614.684094	-97.043278
614.810153	-97.142627
614.936263	-97.415537
615.062425	-98.012752
615.188639	-98.971425
615.314904	-100.163776
615.441222	-101.156462
615.567591	-101.521784
615.694012	-101.429669
615.820486	-101.291314
615.947011	-101.412912
616.073588	-101.853533
616.200217	-102.265608
616.326898	-102.194966
616.453632	-101.289837
616.580417	-99.769427
616.707255	-98.239023
616.834144	-96.997329
616.961086	-96.166783
617.088081	-95.783111
617.215127	-95.804728
617.342226	-96.058119
617.469378	-96.275059
617.596581	-96.278540
617.723837	-96.163253
617.851146	-96.153449
617.978507	-96.450691
618.105920	-97.141448
618.233386	-98.130335
618.360905	-99.184435
618.488476	-99.996922
618.616100	-100.512719
618.743777	-100.972705
618.871506	-101.624757
618.999288	-102.487999
619.127123	-103.310609
619.255011	-103.510268
619.382951	-102.457781
619.510945	-100.541248
619.638991	-98.554853
619.767090	-96.900491
619.895243	-95.661008
620.023448	-94.747070
620.151706	-93.968695
620.280017	-93.129397
620.408382	-92.181194
620.536799	-91.208310
620.665270	-90.376721
620.793794	-89.776029
620.922371	-89.407734
621.051002	-89.226956
621.179686	-89.155453
621.308423	-89.094240
621.437213	-88.990891
621.566057	-88.846975
621.694954	-88.677878
621.823905	-88.524108
621.952909	-88.424222
622.081967	-88.428293
622.211079	-88.561213
622.340244	-88.832803
622.469462	-89.225536
622.598735	-89.654332
622.728061	-90.045349
622.857441	-90.411691
622.986874	-90.842729
623.116361	-91.417142
623.245903	-92.213532
623.375498	-93.134294
623.505147	-93.930009
623.634850	-94.334541
623.764606	-94.409000
623.894417	-94.424152
624.024282	-94.593198
624.154201	-94.986292
624.284174	-95.514264
624.414202	-95.948918
624.544283	-96.072081
624.674419	-95.808773
624.804609	-95.343563
624.934853	-94.902388
625.065151	-94.627500
625.195504	-94.587178
625.325911	-94.696668
625.456373	-94.705826
625.586889	-94.464427
625.717460	-94.017186
625.848085	-93.599097
625.978764	-93.448917
626.109498	-93.707272
626.240287	-94.355217
626.371131	-95.277897
626.502029	-96.246826
626.632982	-97.065840
626.763989	-97.673367
626.895052	-98.173005
627.026169	-98.821620
627.157341	-99.813135
627.288568	-101.165863
627.419850	-102.709388
627.551187	-104.009107
627.682579	-104.269050
627.814026	-103.515361
627.945528	-102.608308
628.077085	-102.135331
628.208697	-102.268303
628.340364	-102.656460
628.472087	-102.518479
628.603865	-101.414869
628.735698	-99.763881
628.867586	-98.176204
628.999530	-96.897651
629.131529	-95.927284
629.263584	-95.186543
629.395694	-94.521031
629.527859	-93.820520
629.660080	-93.052634
629.792357	-92.235719
629.924689	-91.404747
630.057077	-90.634963
630.189520	-89.979293
630.322019	-89.480063
630.454574	-89.145233
630.587184	-88.968846
630.719851	-88.882338
630.852573	-88.804892
630.985351	-88.681581
631.118185	-88.514850
631.251075	-88.359526
631.384021	-88.311469
631.517023	-88.436305
631.650081	-88.720071
631.783195	-89.086740
631.916365	-89.438245
632.049592	-89.700972
632.182874	-89.854118
632.316213	-89.965677
632.449608	-90.121760
632.583059	-90.373072
632.716567	-90.694974
632.850131	-91.031423
632.983751	-91.274075
633.117428	-91.412486
633.251161	-91.526256
633.384951	-91.714270
633.518797	-92.085032
633.652700	-92.692182
633.786660	-93.437611
633.920676	-94.066579
634.054749	-94.262339
634.188879	-93.944068
634.323065	-93.438983
634.457308	-93.094779
634.591608	-93.049312
634.725965	-93.313623
634.860379	-93.778708
634.994850	-94.286523
635.129377	-94.703096
635.263962	-94.930057
635.398604	-94.949895
635.533303	-94.868839
635.668058	-94.723508
635.802872	-94.475095
635.937742	-94.158405
636.072669	-93.879451
636.207654	-93.687656
636.342696	-93.657020
636.477796	-93.844705
636.612953	-94.269915
636.748167	-94.922701
636.883439	-95.669000
637.018768	-96.247225
637.154155	-96.568938
637.289599	-96.766826
637.425101	-97.044426
637.560660	-97.579041
637.696277	-98.335056
637.831952	-98.764088
637.967685	-98.364821
638.103475	-97.303929
638.239324	-96.140059
638.375230	-95.144686
638.511194	-94.481068
638.647215	-94.110549
638.783295	-93.904479
638.919433	-93.766405
639.055629	-93.639550
639.191883	-93.496355
639.328195	-93.399553
639.464565	-93.420255
639.600994	-93.648711
639.737481	-94.111744
639.874025	-94.718634
640.010629	-95.310016
640.147290	-95.766984
640.284010	-96.139470
640.420789	-96.495382
640.557625	-96.919667
640.694521	-97.421245
640.831474	-97.969786
640.968487	-98.473652
641.105558	-98.871991
641.242687	-98.975841
641.379876	-98.617305
641.517123	-97.812446
641.654429	-96.728925
641.791793	-95.502168
641.929216	-94.341018
642.066699	-93.358964
642.204240	-92.578455
642.341840	-91.982402
642.479499	-91.505927
642.617217	-91.086185
642.754994	-90.700536
642.892830	-90.375367
643.030726	-90.162086
643.168680	-90.035927
643.306694	-89.908925
643.444767	-89.680378
643.582899	-89.314474
643.721091	-88.864464
643.859342	-88.441959
643.997652	-88.154967
644.136022	-88.021477
644.274451	-88.010621
644.412940	-88.089717
644.551488	-88.211213
644.690096	-88.306240
644.828763	-88.368713
644.967490	-88.440877
645.106277	-88.593247
645.245124	-88.894816
645.384030	-89.381799
645.522997	-90.064891
645.662023	-90.880893
645.801109	-91.639172
645.940255	-92.153174
646.079460	-92.292948
646.218726	-92.003247
646.358052	-91.358735
646.497438	-90.517687
646.636884	-89.574581
646.776391	-88.665623
646.915957	-87.901831
647.055584	-87.319567
647.195271	-86.897827
647.335019	-86.612582
647.474826	-86.362578
647.614695	-86.063762
647.754623	-85.702100
647.894612	-85.346538
648.034662	-85.076185
648.174772	-84.962479
648.314943	-85.022750
648.455174	-85.243423
648.595466	-85.585688
648.735819	-86.014892
648.876233	-86.517199
649.016707	-87.139673
649.157242	-87.859539
649.297838	-88.583491
649.438495	-89.179738
649.579213	-89.497547
649.719992	-89.446654
649.860832	-89.027584
650.001733	-88.295871
650.142695	-87.344508
650.283718	-86.319884
650.424803	-85.323415
650.565949	-84.439936
650.707156	-83.691477
650.848424	-83.087792
650.989754	-82.636001
651.131145	-82.289937
651.272597	-81.983529
651.414111	-81.689367
651.555687	-81.392920
651.697324	-81.121751
651.839022	-80.908223
651.980782	-80.739572
652.122604	-80.602162
652.264488	-80.493502
652.406433	-80.425060
652.548441	-80.435302
652.690510	-80.549545
652.832640	-80.776380
652.974833	-81.140339
653.117088	-81.638474
653.259405	-82.232650
653.401784	-82.860156
653.544224	-83.442680
653.686727	-83.928716
653.829293	-84.329574
653.971920	-84.597659
654.114609	-84.693155
654.257361	-84.643149
654.400175	-84.528336
654.543052	-84.432173
654.685991	-84.420535
654.828992	-84.439798
654.972056	-84.477930
655.115183	-84.505656
655.258372	-84.533782
655.401623	-84.598212
655.544937	-84.713699
655.688314	-84.851604
655.831754	-85.005980
655.975256	-85.162359
656.118822	-85.313403
656.262450	-85.482888
656.406141	-85.675936
656.549894	-85.947216
656.693711	-86.350235
656.837591	-86.912721
656.981534	-87.675117
657.125540	-88.702523
657.269610	-90.034512
657.413742	-91.460006
657.557938	-92.250438
657.702196	-91.647452
657.846519	-90.106456
657.990904	-88.369489
658.135353	-86.815706
658.279866	-85.547286
658.424441	-84.575636
658.569081	-83.837383
658.713784	-83.255265
658.858550	-82.808740
659.003381	-82.486690
659.148274	-82.302099
659.293232	-82.265781
659.438253	-82.363437
659.583339	-82.547285
659.728488	-82.772886
659.873701	-82.982498
660.018978	-83.212389
660.164318	-83.528763
660.309723	-83.960722
660.455192	-84.457812
660.600725	-84.968151
660.746323	-85.470236
660.891984	-86.006287
661.037710	-86.661473
661.183500	-87.571373
661.329354	-88.832436
661.475272	-90.322507
661.621255	-91.472440
661.767303	-91.475997
661.913415	-90.447901
662.059591	-89.103359
662.205833	-87.858289
662.352138	-86.853272
662.498509	-86.075367
662.644944	-85.576932
662.791443	-85.393104
662.938008	-85.512135
663.084638	-85.854000
663.231332	-86.324886
663.378091	-86.864105
663.524915	-87.497299
663.671804	-88.176239
663.818759	-88.762412
663.965778	-88.975228
664.112863	-88.499797
664.260012	-87.376767
664.407227	-86.045044
664.554507	-84.870068
664.701853	-83.964440
664.849264	-83.323309
664.996740	-82.892582
665.144282	-82.625018
665.291889	-82.495547
665.439561	-82.495200
665.587300	-82.632982
665.735103	-82.889378
665.882973	-83.201579
666.030908	-83.515265
666.178909	-83.815095
666.326976	-84.012209
666.475109	-84.088185
666.623307	-84.081632
666.771571	-84.043745
666.919902	-83.974982
667.068298	-83.884647
667.216761	-83.811617
667.365289	-83.848711
667.513884	-84.053328
667.662545	-84.481295
667.811272	-85.120808
667.960065	-85.927562
668.108925	-86.827413
668.257851	-87.845262
668.406843	-88.946643
668.555902	-89.989393
668.705027	-90.841168
668.854219	-91.242589
669.003478	-90.910991
669.152803	-90.028164
669.302195	-89.103729
669.451653	-88.408981
669.601179	-88.003467
669.750771	-87.849767
669.900430	-87.827419
670.050156	-87.831435
670.199949	-87.840510
670.349808	-87.791682
670.499735	-87.493095
670.649729	-86.945073
670.799790	-86.236116
670.949918	-85.484913
671.100114	-84.757761
671.250377	-84.114259
671.400707	-83.529081
671.551104	-82.969591
671.701569	-82.444067
671.852101	-81.990340
672.002700	-81.632561
672.153368	-81.442809
672.304102	-81.425066
672.454905	-81.510240
672.605775	-81.627513
672.756713	-81.773740
672.907718	-81.956846
673.058791	-82.182891
673.209933	-82.478253
673.361142	-82.795361
673.512419	-83.104273
673.663764	-83.368939
673.815177	-83.501237
673.966658	-83.415733
674.118207	-83.168848
674.269825	-82.817883
674.421510	-82.423654
674.573264	-82.094201
674.725086	-81.897837
674.876977	-81.892800
675.028936	-82.108619
675.180963	-82.498296
675.333059	-83.030428
675.485224	-83.734278
675.637457	-84.623766
675.789758	-85.567193
675.942129	-86.413010
676.094568	-86.949619
676.247075	-87.059017
676.399652	-86.784635
676.552298	-86.272357
676.705012	-85.712471
676.857795	-85.284102
677.010648	-84.975115
677.163569	-84.811355
677.316560	-84.859426
677.469619	-85.132675
677.622748	-85.567304
677.775946	-86.039716
677.929214	-86.421224
678.082551	-86.703410
678.235957	-86.866989
678.389432	-86.813257
678.542977	-86.544888
678.696592	-86.218767
678.850276	-85.999694
679.004030	-85.979004
679.157853	-86.166711
679.311746	-86.594622
679.465709	-87.341244
679.619742	-88.453468
679.773844	-90.048393
679.928017	-92.293633
680.082259	-94.969104
680.236571	-95.708112
680.390954	-92.930263
680.545406	-89.781658
680.699929	-87.262411
680.854522	-85.319285
681.009185	-83.845053
681.163918	-82.800622
681.318722	-82.110090
681.473596	-81.723805
681.628540	-81.581896
681.783555	-81.631406
681.938641	-81.867445
682.093797	-82.297784
682.249023	-82.963529
682.404321	-83.884143
682.559689	-85.117261
682.715128	-86.460318
682.870637	-87.337031
683.026218	-87.071511
683.181869	-85.867399
683.337591	-84.320422
683.493385	-82.841122
683.649249	-81.563532
683.805185	-80.560615
683.961191	-79.838004
684.117269	-79.336802
684.273418	-78.992771
684.429639	-78.785322
684.585930	-78.729611
684.742294	-78.846852
684.898728	-79.198900
685.055234	-79.842795
685.211812	-80.810124
685.368461	-82.107023
685.525182	-83.730236
685.681975	-85.643633
685.838839	-87.966717
685.995775	-90.829850
686.152783	-93.492136
686.309863	-93.379940
686.467014	-90.747930
686.624238	-88.061707
686.781534	-85.919198
686.938902	-84.221304
687.096342	-82.887173
687.253854	-81.855749
687.411438	-81.034618
687.569095	-80.393198
687.726824	-79.912203
687.884626	-79.529065
688.042499	-79.192691
688.200446	-78.902070
688.358465	-78.710611
688.516556	-78.668763
688.674720	-78.829952
688.832957	-79.161627
688.991266	-79.647880
689.149649	-80.239562
689.308104	-80.928373
689.466632	-81.683478
689.625233	-82.537014
689.783906	-83.429586
689.942653	-84.200575
690.101473	-84.580202
690.260367	-84.456021
690.419333	-84.001366
690.578372	-83.377567
690.737485	-82.695439
690.896672	-82.024661
691.055931	-81.480141
691.215264	-81.066405
691.374671	-80.744357
691.534151	-80.440376
691.693704	-80.181524
691.853332	-79.982786
692.013033	-79.921290
692.172807	-80.048518
692.332656	-80.449769
692.492578	-81.141603
692.652575	-82.111547
692.812645	-83.333991
692.972789	-84.886225
693.133007	-86.985202
693.293300	-89.952768
693.453666	-94.385867
693.614107	-100.543511
693.774622	-99.043178
693.935211	-93.820046
694.095875	-90.440989
694.256613	-88.192630
694.417426	-86.604185
694.578313	-85.514057
694.739274	-84.860926
694.900311	-84.633239
695.061421	-84.709298
695.222607	-85.049737
695.383868	-85.665288
695.545203	-86.707335
695.706613	-88.278019
695.868098	-90.561612
696.029658	-93.837037
696.191293	-98.695730
696.353003	-99.245118
696.514789	-93.786438
696.676649	-89.772686
696.838585	-86.947612
697.000596	-84.865233
697.162682	-83.281600
697.324844	-82.042063
697.487081	-81.010089
697.649394	-80.156765
697.811782	-79.526152
697.974246	-79.131215
698.136786	-78.972342
698.299401	-78.999365
698.462092	-79.210181
698.624859	-79.583231
698.787702	-80.123618
698.950621	-80.784335
699.113616	-81.539766
699.276686	-82.282408
699.439833	-82.836283
699.603056	-82.966177
699.766355	-82.570041
699.929731	-81.698976
700.093183	-80.541678
700.256711	-79.315715
700.420315	-78.171347
700.583996	-77.159588
700.747754	-76.289955
700.911588	-75.560640
701.075499	-74.985221
701.239486	-74.561804
701.403550	-74.296379
701.567691	-74.190530
701.731909	-74.270307
701.896203	-74.546309
702.060575	-75.031782
702.225024	-75.727129
702.389549	-76.639340
702.554152	-77.756672
702.718832	-79.055446
702.883589	-80.450797
703.048424	-81.660911
703.213335	-82.026952
703.378324	-81.119265
703.543391	-79.535812
703.708535	-77.948372
703.873757	-76.626555
704.039056	-75.594244
704.204433	-74.840252
704.369887	-74.312930
704.535420	-73.984801
704.701030	-73.824773
704.866718	-73.840272
705.032484	-74.045696
705.198328	-74.463047
705.364250	-75.118219
705.530250	-76.035689
705.696328	-77.230811
705.862485	-78.716468
706.028720	-80.542910
706.195033	-82.852548
706.361424	-85.928154
706.527894	-89.951259
706.694442	-92.462335
706.861069	-89.387284
707.027775	-85.959199
707.194559	-83.531856
707.361422	-81.841469
707.528363	-80.601694
707.695384	-79.667434
707.862483	-78.950737
708.029661	-78.415587
708.196918	-78.015784
708.364254	-77.710679
708.531670	-77.494997
708.699164	-77.403079
708.866738	-77.483194
709.034391	-77.773047
709.202123	-78.284403
709.369935	-79.027891
709.537826	-80.006099
709.705796	-81.268055
709.873847	-82.883436
710.041976	-84.971594
710.210186	-87.477581
710.378475	-89.595042
710.546844	-89.642438
710.715292	-88.009955
710.883821	-86.229021
711.052429	-84.840748
711.221118	-83.950371
711.389887	-83.611138
711.558735	-83.845125
711.727664	-84.677781
711.896673	-86.119237
712.065763	-88.077316
712.234932	-90.101197
712.404183	-90.621501
712.573513	-88.665401
712.742924	-86.003093
712.912416	-83.660733
713.081988	-81.766289
713.251641	-80.243267
713.421375	-79.093749
713.591190	-78.289623
713.761085	-77.775026
713.931061	-77.465123
714.101119	-77.268288
714.271257	-77.148471
714.441476	-77.144050
714.611777	-77.323086
714.782159	-77.626595
714.952622	-77.845103
715.123166	-77.817899
715.293792	-77.610143
715.464499	-77.353864
715.635288	-77.063808
715.806158	-76.682302
715.977110	-76.155438
716.148143	-75.519566
716.319259	-74.855739
716.490456	-74.263021
716.661735	-73.801788
716.833096	-73.512484
717.004538	-73.397743
717.176063	-73.439658
717.347670	-73.605101
717.519359	-73.921824
717.691130	-74.482349
717.862984	-75.377779
718.034920	-76.674446
718.206938	-78.414173
718.379039	-80.674839
718.551222	-83.648084
718.723488	-87.828134
718.895836	-93.237995
719.068267	-91.323656
719.240781	-86.465630
719.413377	-83.360871
719.586057	-81.253745
719.758819	-79.689570
719.931664	-78.463311
720.104593	-77.518736
720.277604	-76.798727
720.450699	-76.262948
720.623876	-75.868733
720.797137	-75.612313
720.970482	-75.499081
721.143910	-75.583805
721.317421	-75.941896
721.491016	-76.668178
721.664694	-77.832833
721.838456	-79.537538
722.012302	-82.004372
722.186231	-85.917580
722.360244	-93.486128
722.534342	-96.032195
722.708523	-87.410572
722.882788	-83.320828
723.057137	-80.889046
723.231570	-79.309968
723.406088	-78.266271
723.580689	-77.591496
723.755375	-77.172070
723.930146	-76.904578
724.105000	-76.683825
724.279940	-76.420351
724.454963	-76.106126
724.630072	-75.776738
724.805265	-75.506860
724.980543	-75.351595
725.155905	-75.395175
725.331353	-75.738817
725.506885	-76.514500
725.682503	-77.873121
725.858205	-79.934997
726.033993	-82.512328
726.209865	-83.853590
726.385823	-82.147458
726.561866	-79.433823
726.737995	-77.092551
726.914209	-75.276578
727.090508	-73.981563
727.266893	-73.154792
727.443364	-72.749494
727.619920	-72.713409
727.796562	-73.026525
727.973290	-73.657284
728.150103	-74.551637
728.327003	-75.588631
728.503988	-76.604380
728.681060	-77.444570
728.858218	-77.916123
729.035461	-77.827112
729.212791	-77.238614
729.390208	-76.555454
729.567710	-76.076477
729.745299	-75.922408
729.922975	-76.031119
730.100737	-76.348639
730.278586	-76.806557
730.456521	-77.397217
730.634543	-78.092386
730.812652	-78.846440
730.990848	-79.593203
731.169130	-80.296855
731.347500	-80.946898
731.525957	-81.458134
731.704500	-81.562647
731.883131	-80.988449
732.061850	-79.793754
732.240655	-78.343735
732.419548	-76.926754
732.598528	-75.728073
732.777596	-74.823779
732.956751	-74.274722
733.135994	-74.086481
733.315325	-74.246909
733.494744	-74.710814
733.674250	-75.520847
733.853844	-76.791769
734.033526	-78.672999
734.213296	-81.042707
734.393154	-82.943894
734.573101	-82.968516
734.753135	-81.722277
734.933258	-80.446000
735.113469	-79.467378
735.293769	-78.774978
735.474157	-78.299915
735.654633	-77.973423
735.835198	-77.632338
736.015852	-77.167342
736.196594	-76.567071
736.377426	-75.957499
736.558346	-75.427723
736.739355	-75.039269
736.920453	-74.817961
737.101640	-74.811017
737.282916	-75.009646
737.464282	-75.309532
737.645736	-75.405895
737.827280	-74.962080
738.008914	-74.036802
738.190637	-73.005557
738.372449	-72.091779
738.554351	-71.376753
738.736342	-70.899943
738.918424	-70.693830
739.100595	-70.763782
739.282855	-71.109964
739.465206	-71.733965
739.647647	-72.634765
739.830178	-73.788276
740.012799	-75.112090
740.195510	-76.392817
740.378311	-77.325192
740.561203	-77.657634
740.744185	-77.373996
740.927258	-76.736602
741.110421	-76.019236
741.293674	-75.348756
741.477018	-74.743164
741.660453	-74.218054
741.843979	-73.831411
742.027596	-73.680309
742.211303	-73.873381
742.395102	-74.493420
742.578991	-75.541973
742.762972	-76.822660
742.947044	-77.682886
743.131207	-77.133420
743.315461	-75.307623
743.499807	-73.246485
743.684244	-71.509226
743.868773	-70.230963
744.053394	-69.437300
744.238106	-69.139366
744.422910	-69.353051
744.607805	-70.117422
744.792793	-71.514532
744.977872	-73.746229
745.163044	-77.320306
745.348307	-83.519908
745.533663	-86.595978
745.719111	-80.025817
745.904651	-76.537024
746.090283	-74.909705
746.276008	-74.529003
746.461826	-75.300757
746.647735	-77.525112
746.833738	-82.422827
747.019833	-89.008976
747.206021	-79.691793
747.392302	-74.389739
747.578676	-71.290454
747.765143	-69.388430
747.951703	-68.312732
748.138356	-67.917241
748.325102	-68.163081
748.511941	-69.091924
748.698874	-70.848694
748.885900	-73.781512
749.073019	-78.606634
749.260232	-82.962380
749.447539	-77.820379
749.634939	-73.642581
749.822433	-71.200513
750.010021	-69.844832
750.197703	-69.274686
750.385479	-69.344445
750.573348	-70.000276
750.761312	-71.260054
750.949370	-73.202001
751.137523	-75.925094
751.325769	-79.181663
751.514110	-80.984114
751.702545	-79.813341
751.891075	-78.272665
752.079700	-77.637589
752.268419	-78.057394
752.457233	-79.649250
752.646142	-82.831083
752.835145	-88.981902
753.024244	-93.146068
753.213437	-85.592750
753.402726	-81.923845
753.592110	-80.400670
753.781589	-80.312512
753.971163	-81.508793
754.160833	-84.346390
754.350598	-90.424700
754.540459	-100.024589
754.730415	-88.837164
754.920467	-84.673102
755.110615	-82.658796
755.300858	-81.233412
755.491198	-79.632818
755.681633	-77.680960
755.872164	-75.653496
756.062792	-73.934340
756.253515	-72.770239
756.444335	-72.279106
756.635252	-72.488079
756.826264	-73.403074
757.017373	-74.890206
757.208579	-75.913717
757.399881	-74.507178
757.591280	-71.661494
757.782776	-69.082098
757.974368	-67.124818
758.166058	-65.769022
758.357844	-64.989371
758.549728	-64.788526
758.741708	-65.182827
758.933786	-66.238877
759.125961	-68.139712
759.318233	-71.318770
759.510603	-76.551859
759.703071	-78.823801
759.895635	-73.466244
760.088298	-69.973202
760.281058	-68.064986
760.473916	-67.219124
760.666872	-67.232406
760.859926	-68.047240
761.053078	-69.651601
761.246328	-71.955577
761.439676	-74.204429
761.633122	-74.527289
761.826667	-73.186875
762.020310	-72.085808
762.214052	-71.894741
762.407892	-72.695086
762.601831	-74.196349
762.795868	-74.753811
762.990004	-72.671288
763.184239	-69.860557
763.378573	-67.677646
763.573006	-66.277879
763.767538	-65.611587
763.962169	-65.651637
764.156900	-66.424556
764.351729	-68.050601
764.546658	-70.818908
764.741687	-75.412897
764.936815	-82.139373
765.132042	-79.158814
765.327370	-74.825539
765.522797	-72.954713
765.718324	-72.795086
765.913950	-74.249306
766.109677	-77.926707
766.305504	-86.080074
766.501431	-81.465163
766.697458	-74.866962
766.893586	-71.440664
767.089814	-69.553430
767.286142	-68.641327
767.482571	-68.441367
767.679100	-68.795330
767.875730	-69.476685
768.072461	-70.013028
768.269293	-69.926109
768.466225	-69.322446
768.663259	-68.638790
768.860393	-68.179656
769.057629	-68.078468
769.254966	-68.337614
769.452404	-68.826467
769.649944	-69.365161
769.847585	-69.887368
770.045328	-70.523119
770.243172	-71.539197
770.441118	-73.376702
770.639166	-76.625109
770.837315	-79.587845
771.035567	-75.565999
771.233920	-71.103819
771.432376	-68.167278
771.630934	-66.359988
771.829594	-65.454980
772.028356	-65.389754
772.227220	-66.206825
772.426188	-68.067524
772.625257	-71.288847
772.824430	-75.262369
773.023705	-73.832772
773.223083	-70.020683
773.422563	-67.687568
773.622147	-66.654192
773.821834	-66.689835
774.021624	-67.799673
774.221517	-70.216123
774.421513	-74.329224
774.621613	-77.898941
774.821816	-74.685729
775.022122	-71.617324
775.222532	-70.437801
775.423046	-71.065719
775.623664	-74.071294
775.824385	-81.953873
776.025211	-76.609695
776.226140	-69.450416
776.427173	-65.607355
776.628311	-63.373241
776.829553	-62.193573
777.030899	-61.842396
777.232350	-62.253122
777.433905	-63.475143
777.635564	-65.656446
777.837328	-69.063119
778.039197	-73.630731
778.241171	-75.088712
778.443250	-72.369377
778.645433	-70.749681
778.847722	-70.864482
779.050116	-72.940102
779.252615	-78.530957
779.455219	-90.702869
779.657929	-75.682729
779.860744	-70.750543
780.063665	-68.442384
780.266691	-67.653176
780.469823	-68.071620
780.673061	-69.598754
780.876405	-71.923378
781.079855	-72.992864
781.283410	-70.862636
781.487072	-68.274431
781.690840	-66.532942
781.894715	-65.636137
782.098695	-65.465776
782.302783	-65.923785
782.506976	-66.855177
782.711277	-68.073797
782.915684	-69.499647
783.120198	-71.301185
783.324818	-74.015686
783.529546	-79.044245
783.734381	-82.725560
783.939322	-74.427723
784.144372	-69.519429
784.349528	-66.688386
784.554792	-65.142805
784.760163	-64.556853
784.965642	-64.796454
785.171228	-65.745719
785.376922	-67.050091
785.582724	-67.832788
785.788634	-67.365632
785.994651	-66.248580
786.200777	-65.436459
786.407011	-65.394491
786.613353	-66.294526
786.819804	-68.184789
787.026363	-70.653201
787.233030	-71.399182
787.439806	-69.485983
787.646691	-67.763580
787.853684	-67.348372
788.060786	-68.588594
788.267997	-72.522641
788.475317	-86.106664
788.682746	-73.417008
788.890285	-66.900153
789.097932	-63.680476
789.305689	-62.015015
789.513555	-61.396883
789.721531	-61.612915
789.929617	-62.477147
790.137812	-63.596714
790.346117	-64.237829
790.554531	-63.935935
790.763056	-63.235875
790.971691	-62.923070
791.180436	-63.439123
791.389291	-65.041466
791.598256	-67.928932
791.807332	-71.209778
792.016518	-70.212678
792.225815	-67.257095
792.435222	-65.648622
792.644740	-65.546550
792.854369	-66.939820
793.064109	-69.930709
793.273960	-72.079091
793.483922	-68.554787
793.693995	-64.908717
793.904180	-62.642180
794.114475	-61.435492
794.324882	-61.012902
794.535401	-61.131557
794.746031	-61.490667
794.956774	-61.802875
795.167627	-61.983438
795.378593	-62.241514
795.589671	-62.942984
795.800861	-64.518107
796.012162	-67.443822
796.223577	-71.341537
796.435103	-70.289529
796.646742	-66.371299
796.858493	-63.843189
797.070357	-62.579328
797.282334	-62.190406
797.494423	-62.286832
797.706626	-62.420477
797.918941	-62.183673
798.131369	-61.536174
798.343911	-60.816781
798.556566	-60.350102
798.769334	-60.230985
798.982215	-60.366824
799.195210	-60.538516
799.408319	-60.555548
799.621541	-60.486850
799.834877	-60.676774
800.048327	-61.519291
800.261890	-63.463313
800.475568	-67.334374
800.689360	-74.512338
800.903266	-70.636708
801.117287	-64.977993
801.331422	-61.993503
801.545671	-60.342171
801.760036	-59.435529
801.974514	-58.894870
802.189108	-58.427222
802.403816	-57.925434
802.618640	-57.486522
802.833578	-57.323596
803.048632	-57.633843
803.263800	-58.514477
803.479085	-59.839407
803.694484	-61.056001
803.909999	-61.375977
804.125630	-60.907112
804.341376	-60.585893
804.557239	-61.086043
804.773217	-62.819419
804.989311	-66.254536
805.205521	-70.118312
805.421847	-66.958073
805.638290	-62.945032
805.854849	-60.550124
806.071524	-59.233167
806.288316	-58.546734
806.505225	-58.106836
806.722250	-57.624025
806.939393	-57.098153
807.156652	-56.782838
807.374028	-56.945722
807.591521	-57.798316
807.809132	-59.497620
808.026859	-62.023818
808.244705	-64.410593
808.462667	-64.411699
808.680748	-62.880198
808.898946	-61.784507
809.117261	-61.444724
809.335695	-61.547088
809.554246	-61.566395
809.772916	-61.060944
809.991704	-60.125230
810.210610	-59.190276
810.429634	-58.503330
810.648777	-57.992611
810.868039	-57.501246
811.087419	-56.985621
811.306918	-56.584616
811.526535	-56.534562
811.746272	-57.041832
811.966127	-58.226766
812.186102	-60.118963
812.406196	-62.476139
812.626409	-64.222375
812.846742	-64.148918
813.067194	-63.043171
813.287766	-61.818202
813.508457	-60.571430
813.729269	-59.335702
813.950200	-58.287562
814.171251	-57.663057
814.392422	-57.618362
814.613714	-58.173871
814.835126	-59.104811
815.056658	-59.666936
815.278311	-59.087194
815.500084	-57.887456
815.721978	-57.005276
815.943993	-56.847415
816.166128	-57.536183
816.388385	-59.066431
816.610762	-61.208224
816.833261	-63.052023
817.055881	-63.366398
817.278623	-62.699644
817.501486	-62.095726
817.724471	-61.449045
817.947577	-60.278223
818.170805	-58.773394
818.394155	-57.523457
818.617627	-56.920661
818.841221	-57.132874
819.064937	-58.194406
819.288775	-59.877301
819.512736	-61.181181
819.736819	-60.766410
819.961025	-59.402307
820.185354	-58.382551
820.409805	-58.074251
820.634379	-58.438387
820.859076	-59.315059
821.083897	-60.394177
821.308840	-61.279333
821.533907	-61.650590
821.759097	-61.342899
821.984411	-60.308241
822.209848	-58.880765
822.435409	-57.554076
822.661093	-56.666792
822.886902	-56.354333
823.112834	-56.629630
823.338891	-57.407648
823.565072	-58.505057
823.791377	-59.631411
824.017807	-60.466996
824.244361	-60.853016
824.471039	-60.845460
824.697843	-60.561264
824.924771	-60.110156
825.151824	-59.734936
825.379002	-59.699867
825.606306	-60.116370
825.833734	-60.686501
826.061288	-60.496705
826.288967	-59.093916
826.516772	-57.373204
826.744703	-56.104552
826.972759	-55.523222
827.200941	-55.632716
827.429249	-56.376344
827.657683	-57.667789
827.886243	-59.368752
828.114930	-61.188212
828.343743	-62.595750
828.572682	-62.778563
828.801748	-61.472143
829.030941	-59.590449
829.260260	-57.985051
829.489706	-57.008933
829.719280	-56.739158
829.948980	-57.101678
830.178808	-57.829223
830.408763	-58.318488
830.638845	-57.997237
830.869055	-57.158836
831.099393	-56.487862
831.329858	-56.375313
831.560451	-56.993678
831.791173	-58.444674
832.022022	-60.766064
832.252999	-63.321297
832.484105	-63.488877
832.715339	-61.040768
832.946702	-58.539470
833.178193	-56.685166
833.409813	-55.466723
833.641561	-54.836312
833.873439	-54.776415
834.105445	-55.296452
834.337581	-56.402914
834.569846	-57.992233
834.802241	-59.551096
835.034764	-60.031915
835.267418	-59.205232
835.500201	-58.057069
835.733114	-57.258560
835.966157	-56.995835
836.199329	-57.230629
836.432632	-57.752481
836.666065	-58.127906
836.899629	-57.805900
837.133323	-56.754826
837.367147	-55.578042
837.601102	-54.815197
837.835188	-54.721441
838.069405	-55.393265
838.303752	-56.832247
838.538231	-58.768446
838.772841	-60.006856
839.007582	-59.221500
839.242455	-57.456106
839.477459	-55.858795
839.712595	-54.670342
839.947863	-53.902744
840.183263	-53.615799
840.418794	-53.885169
840.654458	-54.698391
840.890254	-55.743002
841.126182	-56.176710
841.362242	-55.477486
841.598435	-54.429507
841.834761	-53.842715
842.071220	-53.978808
842.307811	-54.776222
842.544536	-55.897765
842.781393	-56.688665
843.018384	-56.606403
843.255508	-55.851975
843.492765	-54.891498
843.730156	-53.955756
843.967681	-53.236632
844.205339	-52.936899
844.443132	-53.187435
844.681058	-53.906660
844.919118	-54.653166
845.157313	-54.670493
845.395642	-53.800956
845.634105	-52.711944
845.872703	-51.925877
846.111436	-51.580890
846.350303	-51.682446
846.589306	-52.245085
846.828443	-53.292762
847.067716	-54.647011
847.307124	-55.480071
847.546667	-54.788607
847.786345	-53.239016
848.026160	-51.982215
848.266110	-51.398282
848.506195	-51.446406
848.746417	-51.901087
848.986775	-52.437004
849.227269	-52.754987
849.467899	-52.760420
849.708666	-52.533754
849.949569	-52.176659
850.190609	-51.834536
850.431785	-51.729345
850.673099	-52.075971
850.914549	-52.885009
851.156137	-53.676809
851.397861	-53.474941
851.639723	-52.197549
851.881723	-50.820051
852.123860	-49.951046
852.366135	-49.719136
852.608547	-50.077647
852.851098	-50.914222
853.093786	-52.018270
853.336613	-52.964975
853.579578	-53.180267
853.822681	-52.552185
854.065923	-51.595639
854.309304	-50.823149
854.552823	-50.450301
854.796481	-50.470770
855.040278	-50.689643
855.284215	-50.774076
855.528290	-50.486161
855.772505	-49.927086
856.016859	-49.415429
856.261353	-49.212309
856.505987	-49.450242
856.750760	-50.162331
856.995673	-51.245201
857.240727	-52.232102
857.485920	-52.277455
857.731254	-51.247771
857.976729	-49.985510
858.222343	-49.097033
858.468099	-48.769139
858.713995	-48.963477
858.960032	-49.472457
859.206211	-49.952274
859.452530	-50.095173
859.698991	-49.833506
859.945593	-49.319294
860.192336	-48.790073
860.439222	-48.453334
860.686248	-48.475884
860.933417	-48.926294
861.180728	-49.637824
861.428181	-50.079487
861.675776	-49.808327
861.923514	-49.124181
862.171394	-48.610836
862.419417	-48.536157
862.667582	-48.856001
862.915890	-49.318002
863.164342	-49.630652
863.412936	-49.595713
863.661674	-49.153223
863.910555	-48.432819
864.159579	-47.757851
864.408747	-47.436905
864.658059	-47.616430
864.907515	-48.233042
865.157114	-48.964912
865.406858	-49.324646
865.656746	-49.130182
865.906778	-48.647651
866.156955	-48.180859
866.407277	-47.896255
866.657743	-47.909456
866.908354	-48.231850
867.159110	-48.640792
867.410011	-48.680377
867.661057	-48.178599
867.912249	-47.560647
868.163586	-47.289239
868.415069	-47.480766
868.666697	-47.947323
868.918472	-48.368265
869.170392	-48.506539
869.422458	-48.297896
869.674671	-47.775117
869.927030	-47.101177
870.179536	-46.600757
870.432188	-46.575721
870.684987	-47.094097
870.937933	-47.862421
871.191026	-48.229731
871.444266	-47.860717
871.697653	-47.183423
871.951188	-46.650162
872.204870	-46.375705
872.458700	-46.340756
872.712677	-46.529115
872.966803	-46.855877
873.221076	-47.054710
873.475498	-46.882998
873.730068	-46.498235
873.984787	-46.286979
874.239654	-46.451964
874.494669	-46.882840
874.749834	-47.204630
875.005147	-47.126161
875.260610	-46.688774
875.516222	-46.085173
875.771983	-45.514017
876.027894	-45.210469
876.283954	-45.366364
876.540164	-46.021870
876.796524	-46.906915
877.053033	-47.411862
877.309693	-47.223903
877.566503	-46.754660
877.823464	-46.405068
878.080575	-46.188293
878.337837	-45.989110
878.595249	-45.795106
878.852813	-45.642860
879.110528	-45.483882
879.368393	-45.264562
879.626410	-45.132710
879.884579	-45.372378
880.142899	-46.116512
880.401371	-47.096686
880.659994	-47.519850
880.918770	-46.883994
881.177698	-45.784101
881.436778	-44.852745
881.696010	-44.271600
881.955395	-44.072863
882.214933	-44.282741
882.474623	-44.849022
882.734467	-45.500391
882.994463	-45.850207
883.254613	-45.831251
883.514916	-45.772451
883.775372	-45.854614
884.035982	-45.890356
884.296746	-45.610706
884.557664	-45.044032
884.818735	-44.406591
885.079961	-43.853874
885.341341	-43.511164
885.602876	-43.561675
885.864565	-44.166331
886.126409	-45.268251
886.388407	-46.303710
886.650561	-46.472812
886.912870	-45.893173
887.175334	-45.215111
887.437953	-44.664159
887.700728	-44.232440
887.963658	-43.989294
888.226745	-43.997239
888.489987	-44.120807
888.753385	-44.132935
889.016940	-44.089547
889.280651	-44.306383
889.544518	-44.917461
889.808543	-45.567532
890.072723	-45.636097
890.337061	-45.129316
890.601556	-44.541204
890.866208	-44.092000
891.131017	-43.811786
891.395984	-43.779764
891.661109	-44.029935
891.926391	-44.305390
892.191831	-44.230268
892.457429	-43.866879
892.723186	-43.654523
892.989100	-43.788814
893.255173	-44.077495
893.521405	-44.260800
893.787796	-44.254595
894.054345	-44.046778
894.321053	-43.604684
894.587921	-43.115231
894.854948	-42.917978
895.122134	-43.151324
895.389480	-43.564460
895.656986	-43.705124
895.924651	-43.588645
896.192477	-43.580892
896.460463	-43.794614
896.728609	-44.013570
896.996915	-44.052622
897.265382	-43.911700
897.534010	-43.478569
897.802799	-42.695175
898.071749	-41.897569
898.340860	-41.536385
898.610132	-41.783486
898.879566	-42.486578
899.149162	-43.298241
899.418919	-43.940972
899.688838	-44.326451
899.958919	-44.295406
900.229162	-43.795713
900.499568	-43.136603
900.770136	-42.564341
901.040867	-42.045793
901.311761	-41.520377
901.582817	-41.174790
901.854037	-41.279099
902.125420	-41.903890
902.396966	-42.819188
902.668676	-43.558583
902.940550	-43.688175
903.212587	-43.086447
903.484788	-42.110221
903.757153	-41.303277
904.029683	-40.985100
904.302377	-41.129065
904.575236	-41.422431
904.848259	-41.603941
905.121447	-41.766802
905.394800	-42.044617
905.668319	-42.265900
905.942002	-42.198048
906.215852	-41.916962
906.489866	-41.503359
906.764047	-40.892561
907.038393	-40.270554
907.312906	-40.058962
907.587584	-40.465402
907.862429	-41.274918
908.137441	-41.925552
908.412619	-42.089258
908.687964	-41.905309
908.963476	-41.456695
909.239155	-40.860268
909.515002	-40.455515
909.791015	-40.379080
910.067197	-40.363058
910.343546	-40.153295
910.620063	-39.980131
910.896748	-40.142213
911.173601	-40.522695
911.450623	-40.737771
911.727813	-40.663321
912.005171	-40.397624
912.282699	-39.955178
912.560395	-39.489138
912.838261	-39.315892
913.116296	-39.510973
913.394500	-39.738675
913.672874	-39.679185
913.951418	-39.507530
914.230131	-39.448821
914.509015	-39.427986
914.788068	-39.377948
915.067292	-39.393242
915.346687	-39.374290
915.626252	-39.053729
915.905988	-38.593300
916.185895	-38.442739
916.465973	-38.672958
916.746223	-38.923488
917.026644	-38.930187
917.307236	-38.842335
917.588000	-38.750995
917.868937	-38.581763
918.150045	-38.466265
918.431325	-38.613149
918.712778	-38.813748
918.994404	-38.623722
919.276202	-38.160954
919.558173	-37.886989
919.840317	-37.887367
920.122634	-37.941755
920.405125	-37.956330
920.687789	-37.970573
920.970627	-37.882547
921.253639	-37.658600
921.536824	-37.553581
921.820184	-37.712889
922.103718	-37.876106
922.387427	-37.736163
922.671310	-37.424347
922.955368	-37.195242
923.239601	-37.085222
923.524009	-37.110671
923.808592	-37.317505
924.093351	-37.531955
924.378285	-37.460319
924.663396	-37.212801
924.948682	-37.107579
925.234144	-37.107699
925.519782	-36.965876
925.805597	-36.715840
926.091589	-36.524661
926.377757	-36.384245
926.664102	-36.339365
926.950624	-36.592501
927.237323	-37.099559
927.524200	-37.345670
927.811255	-37.061198
928.098487	-36.658292
928.385897	-36.390075
928.673485	-36.166213
928.961251	-36.025368
929.249196	-36.071327
929.537319	-36.150325
929.825621	-36.105467
930.114102	-36.153103
930.402762	-36.443637
930.691601	-36.643747
930.980620	-36.430518
931.269818	-36.017215
931.559196	-35.656080
931.848753	-35.396624
932.138491	-35.360372
932.428409	-35.610541
932.718508	-35.888293
933.008787	-35.906758
933.299246	-35.823023
933.589887	-35.827810
933.880709	-35.812768
934.171712	-35.717393
934.462896	-35.632587
934.754262	-35.500720
935.045810	-35.297021
935.337539	-35.267848
935.629451	-35.497514
935.921545	-35.653458
936.213822	-35.513076
936.506281	-35.307166
936.798922	-35.171954
937.091747	-35.046861
937.384755	-35.020948
937.677946	-35.138248
937.971321	-35.126140
938.264879	-34.880701
938.558621	-34.732154
938.852547	-34.824833
939.146657	-34.920455
939.440952	-34.892135
939.735431	-34.854373
940.030095	-34.794567
940.324943	-34.695018
940.619977	-34.723183
940.915196	-34.869371
941.210600	-34.830537
941.506189	-34.566619
941.801965	-34.373183
942.097926	-34.357380
942.394074	-34.435910
942.690407	-34.570560
942.986927	-34.646693
943.283634	-34.498779
943.580527	-34.254649
943.877608	-34.143261
944.174875	-34.096350
944.472330	-33.967892
944.769972	-33.838518
945.067802	-33.797185
945.365820	-33.826812
945.664026	-33.988494
945.962420	-34.266276
946.261002	-34.353991
946.559773	-34.121024
946.858733	-33.890038
947.157881	-33.830545
947.457219	-33.824929
947.756746	-33.846731
948.056462	-33.907481
948.356368	-33.867992
948.656464	-33.764554
948.956749	-33.821620
949.257225	-33.946317
949.557891	-33.837591
949.858748	-33.584778
950.159796	-33.443830
950.461034	-33.420886
950.762463	-33.485998
951.064084	-33.622138
951.365896	-33.616452
951.667900	-33.376206
951.970095	-33.196143
952.272483	-33.242457
952.575063	-33.355205
952.877835	-33.395327
953.180799	-33.344824
953.483956	-33.191375
953.787307	-33.066890
954.090850	-33.115302
954.394586	-33.190069
954.698516	-33.108150
955.002640	-32.994363
955.306957	-32.974543
955.611469	-33.004454
955.916174	-33.053304
956.221074	-33.016475
956.526169	-32.754479
956.831458	-32.468144
957.136942	-32.445779
957.442622	-32.616515
957.748496	-32.746230
958.054567	-32.773397
958.360833	-32.677297
958.667294	-32.477315
958.973952	-32.363039
959.280806	-32.365925
959.587857	-32.280978
959.895104	-32.134006
960.202548	-32.151677
960.510189	-32.320831
960.818027	-32.461125
961.126062	-32.470505
961.434295	-32.276122
961.742726	-31.963124
962.051355	-31.812534
962.360182	-31.895475
962.669207	-31.982351
962.978431	-31.931341
963.287854	-31.817325
963.597475	-31.718627
963.907296	-31.699889
964.217315	-31.737326
964.527535	-31.659103
964.837954	-31.449337
965.148573	-31.306603
965.459392	-31.285354
965.770411	-31.286286
966.081630	-31.250462
966.393051	-31.149684
966.704672	-31.052168
967.016494	-31.121438
967.328517	-31.301372
967.640742	-31.319341
967.953169	-31.147108
968.265797	-30.970655
968.578627	-30.878366
968.891660	-30.919768
969.204895	-31.037845
969.518332	-31.024666
969.831972	-30.904612
970.145816	-30.895059
970.459862	-30.945910
970.774112	-30.876415
971.088565	-30.709288
971.403223	-30.536103
971.718084	-30.462771
972.033149	-30.578398
972.348419	-30.709354
972.663893	-30.597645
972.979572	-30.362165
973.295456	-30.249315
973.611546	-30.298354
973.927840	-30.408779
974.244340	-30.403298
974.561046	-30.220429
974.877958	-30.067251
975.195076	-30.086511
975.512401	-30.157974
975.829932	-30.136251
976.147670	-30.023332
976.465615	-29.934654
976.783767	-29.977855
977.102126	-30.053909
977.420693	-29.946915
977.739468	-29.711816
978.058451	-29.575354
978.377642	-29.614505
978.697041	-29.743550
979.016649	-29.774139
979.336466	-29.611678
979.656492	-29.451012
979.976727	-29.465160
980.297171	-29.532894
980.617825	-29.485396
980.938689	-29.345425
981.259763	-29.229683
981.581048	-29.230683
981.902542	-29.292583
982.224248	-29.223991
982.546164	-29.032916
982.868291	-28.943733
983.190630	-29.010771
983.513180	-29.068546
983.835942	-28.959618
984.158916	-28.718053
984.482101	-28.559075
984.805500	-28.627352
985.129110	-28.788953
985.452934	-28.812545
985.776970	-28.692680
986.101220	-28.590535
986.425683	-28.592299
986.750359	-28.623421
987.075250	-28.557450
987.400354	-28.451875
987.725673	-28.460933
988.051206	-28.564311
988.376954	-28.589072
988.702916	-28.438348
989.029094	-28.236375
989.355487	-28.191615
989.682095	-28.305430
990.008919	-28.356127
990.335959	-28.243639
990.663216	-28.102449
990.990688	-28.065312
991.318377	-28.126062
991.646283	-28.139151
991.974406	-28.044012
992.302746	-28.002218
992.631304	-28.090833
992.960079	-28.145129
993.289072	-28.023888
993.618283	-27.820671
993.947713	-27.750334
994.277361	-27.900548
994.607227	-28.066290
994.937313	-27.999523
995.267618	-27.792582
995.598142	-27.687494
995.928886	-27.739688
996.259849	-27.807704
996.591033	-27.761924
996.922437	-27.695796
997.254061	-27.750532
997.585906	-27.849963
997.917972	-27.802281
998.250260	-27.615280
998.582768	-27.500787
998.915498	-27.583669
999.248450	-27.710622
999.581624	-27.659807
999.915020	-27.474417
1000.248639	-27.367699
1000.582480	-27.401731
1000.916545	-27.442546
1001.250832	-27.362609
1001.585343	-27.269111
1001.920077	-27.299412
1002.255035	-27.370847
1002.590218	-27.313882
1002.925624	-27.164944
1003.261255	-27.110073
1003.597111	-27.235428
1003.933192	-27.362004
1004.269497	-27.279490
1004.606029	-27.090684
1004.942785	-27.021637
1005.279768	-27.085117
1005.616977	-27.127537
1005.954412	-27.062556
1006.292074	-27.007044
1006.629962	-27.056352
1006.968077	-27.088564
1007.306420	-26.978097
1007.644990	-26.843727
1007.983787	-26.873738
1008.322813	-27.043682
1008.662067	-27.118514
1009.001549	-26.987687
1009.341259	-26.843246
1009.681199	-26.844090
1010.021367	-26.910905
1010.361765	-26.885474
1010.702392	-26.811489
1011.043250	-26.834908
1011.384337	-26.915361
1011.725654	-26.856819
1012.067202	-26.682992
1012.408980	-26.627922
1012.750989	-26.805911
1013.093230	-27.003004
1013.435702	-26.944462
1013.778405	-26.735964
1014.121341	-26.678208
1014.464508	-26.796789
1014.807908	-26.885914
1015.151540	-26.829131
1015.495405	-26.769990
1015.839503	-26.812000
1016.183835	-26.813762
1016.528400	-26.673707
1016.873198	-26.580173
1017.218231	-26.697220
1017.563498	-26.895834
1017.908999	-26.883358
1018.254735	-26.666399
1018.600707	-26.558079
1018.946913	-26.672302
1019.293354	-26.798141
1019.640032	-26.760944
1019.986945	-26.662294
1020.334094	-26.643204
1020.681480	-26.628433
1021.029102	-26.517272
1021.376961	-26.450348
1021.725058	-26.570652
1022.073391	-26.731306
1022.421962	-26.657876
1022.770772	-26.416420
1023.119819	-26.343601
1023.469104	-26.521513
1023.818628	-26.679562
1024.168391	-26.614285
1024.518393	-26.469749
1024.868634	-26.440705
1025.219115	-26.446887
1025.569836	-26.368931
1025.920796	-26.327793
1026.271997	-26.428182
1026.623438	-26.509339
1026.975121	-26.368424
1027.327044	-26.155307
1027.679208	-26.181060
1028.031614	-26.409316
1028.384262	-26.499603
1028.737152	-26.339918
1029.090284	-26.187143
1029.443659	-26.214044
1029.797276	-26.270821
1030.151137	-26.220396
1030.505240	-26.196327
1030.859587	-26.273440
1031.214178	-26.287453
1031.569013	-26.139178
1031.924093	-26.037875
1032.279417	-26.175071
1032.634985	-26.370948
1032.990799	-26.331107
1033.346858	-26.155169
1033.703162	-26.121858
1034.059712	-26.232918
1034.416509	-26.257897
1034.773551	-26.169398
1035.130841	-26.153613
1035.488377	-26.197791
1035.846160	-26.140292
1036.204190	-26.027187
1036.562468	-26.067374
1036.920994	-26.231314
1037.279768	-26.228902
1037.638790	-26.044961
1037.998061	-25.974536
1038.357581	-26.100557
1038.717350	-26.167542
1039.077368	-26.025082
1039.437636	-25.914685
1039.798154	-25.968957
1040.158922	-26.007319
1040.519940	-25.910206
1040.881209	-25.849151
1041.242729	-25.949067
1041.604501	-25.996580
1041.966524	-25.866639
1042.328798	-25.779086
1042.691325	-25.870962
1043.054103	-25.935987
1043.417135	-25.768333
1043.780419	-25.599175
1044.143956	-25.641556
1044.507746	-25.725592
1044.871791	-25.633824
1045.236088	-25.487482
1045.600641	-25.505200
1045.965447	-25.563284
1046.330508	-25.482295
1046.695824	-25.388106
1047.061395	-25.432299
1047.427222	-25.472199
1047.793304	-25.322124
1048.159642	-25.171241
1048.526237	-25.221373
1048.893088	-25.323176
1049.260196	-25.238714
1049.627561	-25.091729
1049.995183	-25.105164
1050.363063	-25.195120
1050.731201	-25.162477
1051.099597	-25.089016
1051.468251	-25.109018
1051.837164	-25.117966
1052.206336	-24.999985
1052.575767	-24.921170
1052.945458	-25.005883
1053.315409	-25.053349
1053.685619	-24.915561
1054.056090	-24.792550
1054.426821	-24.868998
1054.797814	-24.958305
1055.169067	-24.871569
1055.540582	-24.767446
1055.912359	-24.787946
1056.284398	-24.805542
1056.656698	-24.694737
1057.029262	-24.637520
1057.402088	-24.693312
1057.775177	-24.682733
1058.148530	-24.546884
1058.522146	-24.498096
1058.896027	-24.609215
1059.270171	-24.622231
1059.644580	-24.490193
1060.019254	-24.405128
1060.394193	-24.452965
1060.769397	-24.423554
1061.144867	-24.304465
1061.520602	-24.262629
1061.896604	-24.279621
1062.272872	-24.203165
1062.649407	-24.079180
1063.026210	-24.089327
1063.403279	-24.120712
1063.780616	-24.018457
1064.158221	-23.884514
1064.536094	-23.887240
1064.914235	-23.898186
1065.292645	-23.770245
1065.671325	-23.660609
1066.050273	-23.680270
1066.429491	-23.687636
1066.808979	-23.576050
1067.188738	-23.513404
1067.568766	-23.552218
1067.949066	-23.509538
1068.329636	-23.382869
1068.710478	-23.346208
1069.091592	-23.399724
1069.472977	-23.315989
1069.854635	-23.174866
1070.236565	-23.168799
1070.618768	-23.242443
1071.001243	-23.176348
1071.383993	-23.055147
1071.767016	-23.065773
1072.150313	-23.094467
1072.533884	-23.017320
1072.917730	-22.925376
1073.301850	-22.947698
1073.686246	-22.910711
1074.070917	-22.814230
1074.455864	-22.789153
1074.841087	-22.871272
1075.226586	-22.826779
1075.612362	-22.717848
1075.998415	-22.707772
1076.384745	-22.768244
1076.771353	-22.696836
1077.158238	-22.599981
1077.545401	-22.598624
1077.932843	-22.598591
1078.320564	-22.504586
1078.708564	-22.471612
1079.096842	-22.524287
1079.485401	-22.479247
1079.874240	-22.356014
1080.263358	-22.343096
1080.652757	-22.401766
1081.042438	-22.308777
1081.432399	-22.182690
1081.822641	-22.169521
1082.213166	-22.205589
1082.603972	-22.113842
1082.995061	-22.062936
1083.386433	-22.056555
1083.778087	-22.004428
1084.170025	-21.865013
1084.562246	-21.855250
1084.954751	-21.856401
1085.347541	-21.759512
1085.740615	-21.639907
1086.133973	-21.674857
1086.527617	-21.686070
1086.921546	-21.594186
1087.315761	-21.537431
1087.710262	-21.573901
1088.105050	-21.536418
1088.500124	-21.443971
1088.895485	-21.437702
1089.291134	-21.421609
1089.687070	-21.302682
1090.083294	-21.220310
1090.479806	-21.269356
1090.876607	-21.241276
1091.273696	-21.122044
1091.671075	-21.074620
1092.068744	-21.109586
1092.466702	-21.036971
1092.864950	-20.961100
1093.263489	-20.989378
1093.662319	-21.034776
1094.061440	-20.985132
1094.460852	-20.985969
1094.860555	-21.023834
1095.260551	-20.991342
1095.660840	-20.932069
1096.061421	-20.957428
1096.462295	-20.923433
1096.863462	-20.798781
1097.264923	-20.757242
1097.666678	-20.804371
1098.068727	-20.730388
1098.471071	-20.598175
1098.873710	-20.586839
1099.276644	-20.615185
1099.679874	-20.547527
1100.083400	-20.492262
1100.487222	-20.508721
1100.891340	-20.504605
1101.295756	-20.504561
1101.700468	-20.559642
1102.105478	-20.551334
1102.510787	-20.467825
1102.916393	-20.482267
1103.322298	-20.524761
1103.728502	-20.403167
1104.135005	-20.257972
1104.541807	-20.270315
1104.948909	-20.251935
1105.356312	-20.084167
1105.764015	-19.974292
1106.172019	-19.980469
1106.580324	-19.913840
1106.988931	-19.793636
1107.397840	-19.758368
1107.807051	-19.757160
1108.216564	-19.725958
1108.626380	-19.743004
1109.036500	-19.785003
1109.446923	-19.776104
1109.857649	-19.780637
1110.268680	-19.821890
1110.680016	-19.800475
1111.091657	-19.765673
1111.503602	-19.791410
1111.915854	-19.757352
1112.328411	-19.645528
1112.741275	-19.628348
1113.154445	-19.632528
1113.567922	-19.478810
1113.981706	-19.331140
1114.395798	-19.351299
1114.810198	-19.338321
1115.224906	-19.200105
1115.639923	-19.150281
1116.055249	-19.219184
1116.470884	-19.226882
1116.886829	-19.196015
1117.303084	-19.223172
1117.719650	-19.259441
1118.136526	-19.290332
1118.553713	-19.355120
1118.971212	-19.383856
1119.389022	-19.383571
1119.807145	-19.439214
1120.225580	-19.457479
1120.644328	-19.357767
1121.063389	-19.305081
1121.482763	-19.321495
1121.902452	-19.233095
1122.322454	-19.095321
1122.742771	-19.057656
1123.163404	-19.014886
1123.584351	-18.894930
1124.005614	-18.810484
1124.427193	-18.763695
1124.849089	-18.695741
1125.271301	-18.675442
1125.693830	-18.685717
1126.116677	-18.640130
1126.539842	-18.627553
1126.963324	-18.698374
1127.387126	-18.702503
1127.811246	-18.649081
1128.235685	-18.687718
1128.660444	-18.746679
1129.085522	-18.724402
1129.510922	-18.715285
1129.936641	-18.725442
1130.362682	-18.673154
1130.789044	-18.628058
1131.215728	-18.604986
1131.642734	-18.519065
1132.070063	-18.439216
1132.497714	-18.427294
1132.925689	-18.363812
1133.353987	-18.256594
1133.782610	-18.214031
1134.211556	-18.175658
1134.640827	-18.096804
1135.070424	-18.073445
1135.500345	-18.077730
1135.930593	-18.041556
1136.361166	-18.040023
1136.792067	-18.072474
1137.223294	-18.058228
1137.654848	-18.061033
1138.086730	-18.116779
1138.518940	-18.133696
1138.951479	-18.144744
1139.384346	-18.200611
1139.817543	-18.211793
1140.251069	-18.187682
1140.684925	-18.210576
1141.119111	-18.204279
1141.553628	-18.149038
1141.988475	-18.141621
1142.423655	-18.129162
1142.859166	-18.053745
1143.295009	-17.995685
1143.731185	-17.945166
1144.167694	-17.856347
1144.604536	-17.799698
1145.041711	-17.758024
1145.479221	-17.671397
1145.917065	-17.612036
1146.355245	-17.581996
1146.793759	-17.501313
1147.232609	-17.432620
1147.671795	-17.419519
1148.111317	-17.381626
1148.551177	-17.339340
1148.991373	-17.335300
1149.431907	-17.309745
1149.872779	-17.278197
1150.313989	-17.286944
1150.755538	-17.277697
1151.197426	-17.262252
1151.639653	-17.294905
1152.082220	-17.307215
1152.525128	-17.286709
1152.968376	-17.303994
1153.411966	-17.316767
1153.855897	-17.297988
1154.300169	-17.310700
1154.744784	-17.325755
1155.189742	-17.310050
1155.635042	-17.308609
1156.080687	-17.295329
1156.526674	-17.255865
1156.973007	-17.252008
1157.419683	-17.248742
1157.866705	-17.205311
1158.314072	-17.188700
1158.761786	-17.177658
1159.209845	-17.120388
1159.658251	-17.082557
1160.107004	-17.066127
1160.556104	-17.023279
1161.005553	-16.993300
1161.455349	-16.968406
1161.905494	-16.910375
1162.355989	-16.870899
1162.806832	-16.847937
1163.258026	-16.798710
1163.709570	-16.771621
1164.161464	-16.760957
1164.613710	-16.715758
1165.066307	-16.683379
1165.519256	-16.666395
1165.972558	-16.625068
1166.426212	-16.609501
1166.880219	-16.608046
1167.334580	-16.574267
1167.789295	-16.556922
1168.244364	-16.545666
1168.699788	-16.515165
1169.155567	-16.511157
1169.611702	-16.509519
1170.068193	-16.493428
1170.525041	-16.499482
1170.982245	-16.491264
1171.439807	-16.464309
1171.897726	-16.466759
1172.356004	-16.467657
1172.814640	-16.455570
1173.273635	-16.458006
1173.732989	-16.440349
1174.192703	-16.413200
1174.652778	-16.410930
1175.113213	-16.390375
1175.574009	-16.369098
1176.035167	-16.371015
1176.496687	-16.341625
1176.958569	-16.308658
1177.420814	-16.289802
1177.883422	-16.252737
1178.346394	-16.232764
1178.809730	-16.213294
1179.273430	-16.169980
1179.737496	-16.136544
1180.201927	-16.100501
1180.666723	-16.060447
1181.131886	-16.032814
1181.597416	-16.007733
1182.063312	-15.976661
1182.529576	-15.940986
1182.996209	-15.909263
1183.463209	-15.877313
1183.930579	-15.852313
1184.398317	-15.834698
1184.866426	-15.805582
1185.334904	-15.778132
1185.803754	-15.753740
1186.272974	-15.721902
1186.742566	-15.707634
1187.212529	-15.702412
1187.682865	-15.678703
1188.153574	-15.666893
1188.624656	-15.653328
1189.096112	-15.628660
1189.567942	-15.638162
1190.040147	-15.625407
1190.512726	-15.611630
1190.985681	-15.624511
1191.459012	-15.587108
1191.932720	-15.589452
1192.406804	-15.596965
1192.881265	-15.571067
1193.356104	-15.601200
1193.831322	-15.571195
1194.306918	-15.554964
1194.782893	-15.574191
1195.259248	-15.531312
1195.735982	-15.549307
1196.213097	-15.528883
1196.690593	-15.487166
1197.168471	-15.492933
1197.646730	-15.440136
1198.125371	-15.428513
1198.604395	-15.410199
1199.083803	-15.364751
1199.563594	-15.344777
1200.043769	-15.295647
1200.524329	-15.267762
1201.005273	-15.229152
1201.486604	-15.202251
1201.968320	-15.160044
1202.450422	-15.104628
1202.932912	-15.097365
1203.415789	-15.025629
1203.899054	-15.025484
1204.382707	-15.005724
1204.866748	-14.931110
1205.351179	-14.974507
1205.836000	-14.888264
1206.321211	-14.892221
1206.806812	-14.917499
1207.292805	-14.813207
1207.779189	-14.894345
1208.265965	-14.811581
1208.753134	-14.803371
1209.240696	-14.866757
1209.728651	-14.749379
1210.217000	-14.856279
1210.705744	-14.774150
1211.194883	-14.760080
1211.684417	-14.833726
1212.174347	-14.697090
1212.664673	-14.816361
1213.155396	-14.711868
1213.646516	-14.695756
1214.138034	-14.766577
1214.629951	-14.607557
1215.122266	-14.746080
1215.614980	-14.624707
1216.108095	-14.607398
1216.601609	-14.682259
1217.095524	-14.500082
1217.589841	-14.644089
1218.084559	-14.519219
1218.579679	-14.485515
1219.075202	-14.572651
1219.571128	-14.380858
1220.067458	-14.520722
1220.564191	-14.426463
1221.061330	-14.369444
1221.558874	-14.479113
1222.056823	-14.293094
1222.555178	-14.404270
1223.053940	-14.354843
1223.553109	-14.262020
1224.052686	-14.385921
1224.552671	-14.219331
1225.053065	-14.290673
1225.553867	-14.294461
1226.055079	-14.175561
1226.556702	-14.301762
1227.058735	-14.161898
1227.561179	-14.190107
1228.064035	-14.224064
1228.567303	-14.088102
1229.070983	-14.201865
1229.575077	-14.088094
1230.079585	-14.089970
1230.584506	-14.140611
1231.089842	-14.013438
1231.595594	-14.110888
1232.101761	-14.019291
1232.608345	-14.005756
1233.115345	-14.049473
1233.622762	-13.939428
1234.130597	-14.009403
1234.638851	-13.939651
1235.147523	-13.924689
1235.656615	-13.957621
1236.166126	-13.883406
1236.676058	-13.923506
1237.186411	-13.876442
1237.697185	-13.860851
1238.208381	-13.869787
1238.719999	-13.828670
1239.232040	-13.833200
1239.744505	-13.809138
1240.257394	-13.797123
1240.770708	-13.787909
1241.284446	-13.781951
1241.798610	-13.754617
1242.313201	-13.746885
1242.828218	-13.730576
1243.343662	-13.701398
1243.859534	-13.716582
1244.375834	-13.665161
1244.892563	-13.675473
1245.409721	-13.661263
1245.927309	-13.627067
1246.445327	-13.658370
1246.963777	-13.593601
1247.482657	-13.611389
1248.001970	-13.590775
1248.521716	-13.553255
1249.041894	-13.587721
1249.562506	-13.519995
1250.083553	-13.546313
1250.605034	-13.525542
1251.126950	-13.493304
1251.649302	-13.523703
1252.172091	-13.456337
1252.695316	-13.479881
1253.218979	-13.454795
1253.743079	-13.429985
1254.267619	-13.454905
1254.792597	-13.401273
1255.318015	-13.428662
1255.843874	-13.406069
1256.370173	-13.389603
1256.896913	-13.402649
1257.424095	-13.357205
1257.951720	-13.376903
1258.479787	-13.352315
1259.008298	-13.342772
1259.537254	-13.347273
1260.066654	-13.313779
1260.596499	-13.326511
1261.126790	-13.297869
1261.657527	-13.285622
1262.188711	-13.276881
1262.720342	-13.247114
1263.252422	-13.252835
1263.784950	-13.226720
1264.317928	-13.218840
1264.851355	-13.210099
1265.385232	-13.185798
1265.919560	-13.186123
1266.454340	-13.156296
1266.989572	-13.145051
1267.525256	-13.132926
1268.061394	-13.108710
1268.597985	-13.108930
1269.135031	-13.078107
1269.672531	-13.067594
1270.210487	-13.049978
1270.748899	-13.019599
1271.287768	-13.012596
1271.827094	-12.974116
1272.366877	-12.967726
1272.907119	-12.947635
1273.447820	-12.923860
1273.988981	-12.919509
1274.530601	-12.882528
1275.072683	-12.881677
1275.615226	-12.852441
1276.158230	-12.834763
1276.701697	-12.826528
1277.245627	-12.795992
1277.790021	-12.800769
1278.334879	-12.767440
1278.880202	-12.758643
1279.425991	-12.736966
1279.972245	-12.708698
1280.518966	-12.702613
1281.066155	-12.662731
1281.613811	-12.658707
1282.161936	-12.628736
1282.710529	-12.611388
1283.259593	-12.591907
1283.809126	-12.555914
1284.359131	-12.547606
1284.909607	-12.509142
1285.460555	-12.500757
1286.011976	-12.474228
1286.563870	-12.457228
1287.116237	-12.447540
1287.669080	-12.418818
1288.222397	-12.414792
1288.776191	-12.384294
1289.330460	-12.381835
1289.885207	-12.363406
1290.440431	-12.351662
1290.996133	-12.348545
1291.552314	-12.327412
1292.108975	-12.328837
1292.666115	-12.301712
1293.223737	-12.299896
1293.781839	-12.283162
1294.340424	-12.273367
1294.899491	-12.269466
1295.459041	-12.250094
1296.019075	-12.253171
1296.579593	-12.228649
1297.140597	-12.226799
1297.702086	-12.208497
1298.264061	-12.201674
1298.826524	-12.198142
1299.389474	-12.182849
1299.952912	-12.185727
1300.516839	-12.166396
1301.081255	-12.168676
1301.646162	-12.150682
1302.211559	-12.148139
1302.777448	-12.143512
1303.343829	-12.135959
1303.910702	-12.138844
1304.478069	-12.123874
1305.045930	-12.129108
1305.614285	-12.113716
1306.183136	-12.115996
1306.752483	-12.108038
1307.322326	-12.108979
1307.892666	-12.111492
1308.463504	-12.101773
1309.034841	-12.107074
1309.606677	-12.094765
1310.179012	-12.100478
1310.751849	-12.089332
1311.325186	-12.095210
1311.899025	-12.093788
1312.473366	-12.088925
1313.048211	-12.088597
1313.623559	-12.077967
1314.199412	-12.081344
1314.775770	-12.066250
1315.352634	-12.071464
1315.930004	-12.063072
1316.507881	-12.060825
1317.086266	-12.051710
1317.665159	-12.042245
1318.244562	-12.037998
1318.824474	-12.023567
1319.404897	-12.025627
1319.985831	-12.012250
1320.567276	-12.012162
1321.149234	-11.997918
1321.731706	-11.992242
1322.314691	-11.981111
1322.898190	-11.973471
1323.482205	-11.971772
1324.066736	-11.960153
1324.651783	-11.958923
1325.237347	-11.944255
1325.823430	-11.941725
1326.410031	-11.924217
1326.997151	-11.922302
1327.584791	-11.914562
1328.172952	-11.906560
1328.761634	-11.896721
1329.350839	-11.884264
1329.940566	-11.877380
1330.530817	-11.856899
1331.121592	-11.854886
1331.712891	-11.840907
1332.304716	-11.835107
1332.897068	-11.815163
1333.489946	-11.807530
1334.083352	-11.792581
1334.677287	-11.777658
1335.271750	-11.770733
1335.866744	-11.759213
1336.462268	-11.751874
1337.058323	-11.731211
1337.654910	-11.727889
1338.252029	-11.709132
1338.849682	-11.705276
1339.447869	-11.692931
1340.046591	-11.689677
1340.645848	-11.676040
1341.245641	-11.665193
1341.845972	-11.656952
1342.446840	-11.645785
1343.048246	-11.643327
1343.650191	-11.630415
1344.252677	-11.629228
1344.855702	-11.610935
1345.459269	-11.607627
1346.063379	-11.592064
1346.668030	-11.592849
1347.273226	-11.580438
1347.878965	-11.576847
1348.485250	-11.565113
1349.092080	-11.557117
1349.699456	-11.549304
1350.307380	-11.543140
1350.915851	-11.544479
1351.524871	-11.534429
1352.134441	-11.534850
1352.744560	-11.522515
1353.355231	-11.527099
1353.966453	-11.516858
1354.578227	-11.526733
1355.190555	-11.517855
1355.803436	-11.522843
1356.416872	-11.511546
1357.030863	-11.517328
1357.645411	-11.512867
1358.260515	-11.517947
1358.876177	-11.516465
1359.492397	-11.515749
1360.109176	-11.512946
1360.726516	-11.509896
1361.344416	-11.516160
1361.962877	-11.513114
1362.581901	-11.520975
1363.201487	-11.512919
1363.821637	-11.520613
1364.442352	-11.512203
1365.063632	-11.527229
1365.685478	-11.522422
1366.307891	-11.536134
1366.930871	-11.527076
1367.554420	-11.539770
1368.178538	-11.533867
1368.803226	-11.550198
1369.428485	-11.548511
1370.054315	-11.561044
1370.680717	-11.555389
1371.307693	-11.565061
1371.935242	-11.565539
1372.563366	-11.577386
1373.192065	-11.580028
1373.821341	-11.586958
1374.451193	-11.586631
1375.081623	-11.590885
1375.712632	-11.598564
1376.344221	-11.605248
1376.976389	-11.612230
1377.609139	-11.613271
1378.242470	-11.619686
1378.876384	-11.620902
1379.510881	-11.634916
1380.145963	-11.638217
1380.781629	-11.649765
1381.417881	-11.647116
1382.054720	-11.660424
1382.692147	-11.661281
1383.330161	-11.680418
1383.968765	-11.681011
1384.607959	-11.695655
1385.247743	-11.691370
1385.888119	-11.710159
1386.529087	-11.711031
1387.170648	-11.732088
1387.812804	-11.728806
1388.455554	-11.744568
1389.098899	-11.739566
1389.742842	-11.761011
1390.387381	-11.760235
1391.032519	-11.779385
1391.678256	-11.772352
1392.324592	-11.788845
1392.971529	-11.784543
1393.619068	-11.806912
1394.267208	-11.803470
1394.915952	-11.819420
1395.565300	-11.811150
1396.215253	-11.829407
1396.865812	-11.826802
1397.516977	-11.847615
1398.168749	-11.841747
1398.821130	-11.856517
1399.474120	-11.852008
1400.127719	-11.874039
1400.781930	-11.874783
1401.436752	-11.893694
1402.092186	-11.889368
1402.748234	-11.906114
1403.404897	-11.908626
1404.062174	-11.930716
1404.720067	-11.932507
1405.378577	-11.947474
1406.037705	-11.949055
1406.697451	-11.968585
1407.357817	-11.978930
1408.018803	-11.996851
1408.680410	-12.002798
1409.342639	-12.016461
1410.005492	-12.030151
1410.668968	-12.048436
1411.333068	-12.063305
1411.997795	-12.071720
1412.663147	-12.084512
1413.329127	-12.094723
1413.995736	-12.116929
1414.662973	-12.124036
1415.330840	-12.142023
1415.999339	-12.143996
1416.668469	-12.170303
1417.338232	-12.177283
1418.008628	-12.205333
1418.679659	-12.203604
1419.351325	-12.231041
1420.023628	-12.235007
1420.696568	-12.270860
1421.370145	-12.272740
1422.044362	-12.301832
1422.719219	-12.302134
1423.394717	-12.337747
1424.070856	-12.345796
1424.747638	-12.376366
1425.425064	-12.380754
1426.103134	-12.410605
1426.781850	-12.428412
1427.461212	-12.461145
1428.141221	-12.479426
1428.821878	-12.501001
1429.503185	-12.526995
1430.185141	-12.552443
1430.867749	-12.585407
1431.551008	-12.599345
1432.234920	-12.632318
1432.919486	-12.648437
1433.604707	-12.694610
1434.290583	-12.706419
1434.977116	-12.744781
1435.664307	-12.751366
1436.352156	-12.794941
1437.040664	-12.807211
1437.729833	-12.842478
1438.419663	-12.849833
1439.110156	-12.884300
1439.801312	-12.909148
1440.493132	-12.941302
1441.185617	-12.964630
1441.878768	-12.982769
1442.572586	-13.016125
1443.267072	-13.032504
1443.962228	-13.065109
1444.658053	-13.065671
1445.354549	-13.103320
1446.051717	-13.115279
1446.749558	-13.162719
1447.448073	-13.172067
1448.147263	-13.211445
1448.847128	-13.231322
1449.547671	-13.269405
1450.248891	-13.286417
1450.950789	-13.300035
1451.653368	-13.321319
1452.356627	-13.337296
1453.060568	-13.374101
1453.765192	-13.381519
1454.470500	-13.425948
1455.176492	-13.446852
1455.883170	-13.504427
1456.590534	-13.520908
1457.298586	-13.558164
1458.007327	-13.575215
1458.716758	-13.607511
1459.426880	-13.627749
1460.137693	-13.640372
1460.849199	-13.675419
1461.561398	-13.706682
1462.274293	-13.774661
1462.987883	-13.812626
1463.702170	-13.892501
1464.417155	-13.950223
1465.132838	-14.034569
1465.849222	-14.080870
1466.566306	-14.126062
1467.284093	-14.164495
1468.002582	-14.192252
1468.721775	-14.226344
1469.441674	-14.234160
1470.162278	-14.286891
1470.883590	-14.325968
1471.605609	-14.404647
1472.328338	-14.457066
1473.051777	-14.539837
1473.775928	-14.615967
1474.500790	-14.679238
1475.226367	-14.728579
1475.952657	-14.739814
1476.679663	-14.769805
1477.407386	-14.750561
1478.135826	-14.744121
1478.864985	-14.708744
1479.594863	-14.708200
1480.325463	-14.709230
1481.056784	-14.715448
1481.788828	-14.748217
1482.521597	-14.782808
1483.255090	-14.851134
1483.989309	-14.874112
1484.724256	-14.908182
1485.459931	-14.898026
1486.196336	-14.866109
1486.933471	-14.779422
1487.671337	-14.646520
1488.409937	-14.516867
1489.149270	-14.356903
1489.889337	-14.229763
1490.630141	-14.111838
1491.371682	-14.079960
1492.113961	-14.105809
1492.856979	-14.211463
1493.600738	-14.414343
1494.345238	-14.707771
1495.090481	-15.108537
1495.836467	-15.548972
1496.583198	-16.072928
1497.330675	-16.594307
1498.078899	-17.088134
1498.827872	-17.469591
1499.577593	-17.701978
1500.328065	-17.804533
1501.079289	-17.718664
1501.831265	-17.549967
1502.583995	-17.314475
1503.337480	-17.099051
1504.091721	-16.906646
1504.846719	-16.743676
1505.602475	-16.667956
1506.358991	-16.617365
1507.116268	-16.604021
1507.874306	-16.552134
1508.633108	-16.459693
1509.392673	-16.262887
1510.153004	-15.898272
1510.914101	-15.406145
1511.675965	-14.779852
1512.438599	-14.090815
1513.202002	-13.354354
1513.966176	-12.639039
1514.731122	-11.981187
1515.496842	-11.376134
1516.263336	-10.860131
1517.030607	-10.426184
1517.798654	-10.094291
1518.567479	-9.840755
1519.337083	-9.684204
1520.107468	-9.623338
1520.878634	-9.642901
1521.650584	-9.755652
1522.423317	-9.953155
1523.196836	-10.249738
1523.971141	-10.623651
1524.746233	-11.104781
1525.522115	-11.690081
1526.298786	-12.377751
1527.076249	-13.188467
1527.854504	-14.112701
1528.633553	-15.135454
1529.413397	-16.140961
1530.194037	-16.985546
1530.975474	-17.293189
1531.757709	-16.863850
1532.540745	-15.785379
1533.324581	-14.383321
1534.109220	-12.916797
1534.894662	-11.537816
1535.680909	-10.287778
1536.467961	-9.169942
1537.255821	-8.202530
1538.044489	-7.357130
1538.833967	-6.635423
1539.624256	-6.026067
1540.415357	-5.525147
1541.207271	-5.122442
1542.000000	-4.813103
1542.793545	-4.601275
1543.587907	-4.470435
1544.383087	-4.428146
1545.179088	-4.469603
1545.975909	-4.591147
1546.773552	-4.794073
1547.572019	-5.076282
1548.371311	-5.443159
1549.171428	-5.884682
1549.972373	-6.413321
1550.774147	-7.027731
1551.576751	-7.722599
1552.380185	-8.513604
1553.184453	-9.393981
1553.989554	-10.370034
1554.795490	-11.435643
1555.602263	-12.585386
1556.409873	-13.794025
1557.218322	-14.975715
1558.027612	-16.038301
1558.837743	-16.794230
1559.648717	-17.058636
1560.460536	-16.834005
1561.273200	-16.232511
1562.086710	-15.435746
1562.901069	-14.592383
1563.716278	-13.775636
1564.532337	-13.037077
1565.349249	-12.374421
1566.167014	-11.797843
1566.985634	-11.316803
1567.805111	-10.905866
1568.625444	-10.577558
1569.446637	-10.327281
1570.268690	-10.140419
1571.091605	-10.025831
1571.915382	-9.974485
1572.740024	-9.985453
1573.565532	-10.054574
1574.391907	-10.178994
1575.219150	-10.361999
1576.047262	-10.587524
1576.876246	-10.862165
1577.706103	-11.184035
1578.536833	-11.531044
1579.368439	-11.915480
1580.200922	-12.324352
1581.034282	-12.737568
1581.868522	-13.162606
1582.703643	-13.579450
1583.539646	-13.974487
1584.376532	-14.343715
1585.214304	-14.671874
1586.052962	-14.954455
1586.892508	-15.177497
1587.732943	-15.343525
1588.574269	-15.454799
1589.416487	-15.493867
1590.259599	-15.484767
1591.103605	-15.428293
1591.948508	-15.312825
1592.794309	-15.174560
1593.641009	-15.009299
1594.488609	-14.815701
1595.337112	-14.628569
1596.186518	-14.439592
1597.036829	-14.254696
1597.888047	-14.097177
1598.740172	-13.958369
1599.593207	-13.844093
1600.447153	-13.764673
1601.302010	-13.713022
1602.157782	-13.690198
1603.014469	-13.695980
1603.872072	-13.726886
1604.730593	-13.776640
1605.590034	-13.840620
1606.450397	-13.919806
1607.311681	-14.001613
1608.173890	-14.084143
1609.037024	-14.172787
1609.901085	-14.251632
1610.766075	-14.326719
1611.631995	-14.405241
1612.498846	-14.469915
1613.366630	-14.535031
1614.235349	-14.603561
1615.105004	-14.657543
1615.975596	-14.715465
1616.847128	-14.771833
1617.719600	-14.810621
1618.593014	-14.853714
1619.467372	-14.889016
1620.342675	-14.909868
1621.218924	-14.940977
1622.096122	-14.967116
1622.974270	-14.991385
1623.853369	-15.035405
1624.733420	-15.079033
1625.614427	-15.131024
1626.496389	-15.204602
1627.379308	-15.275466
1628.263187	-15.357306
1629.148026	-15.453824
1630.033828	-15.540877
1630.920593	-15.637311
1631.808324	-15.738014
1632.697022	-15.823936
1633.586688	-15.918176
1634.477324	-16.007656
1635.368932	-16.082072
1636.261514	-16.165065
1637.155070	-16.237110
1638.049602	-16.298540
1638.945113	-16.369742
1639.841603	-16.428321
1640.739075	-16.485320
1641.637529	-16.553267
1642.536968	-16.609801
1643.437393	-16.671680
1644.338806	-16.739842
1645.241209	-16.795323
1646.144602	-16.856777
1647.048988	-16.915438
1647.954368	-16.960912
1648.860744	-17.009813
1649.768118	-17.047586
1650.676491	-17.074645
1651.585865	-17.100714
1652.496241	-17.113207
1653.407621	-17.121542
1654.320008	-17.126056
1655.233401	-17.121622
1656.147804	-17.118785
1657.063218	-17.107856
1657.979645	-17.094817
1658.897085	-17.081977
1659.815542	-17.057400
1660.735016	-17.036428
1661.655509	-17.009398
1662.577023	-16.970662
1663.499560	-16.937899
1664.423121	-16.893085
1665.347709	-16.841066
1666.273324	-16.795854
1667.199969	-16.735768
1668.127645	-16.676721
1669.056353	-16.620697
1669.986097	-16.552394
1670.916877	-16.489515
1671.848695	-16.423636
1672.781553	-16.353098
1673.715452	-16.286758
1674.650395	-16.215384
1675.586383	-16.146165
1676.523418	-16.074220
1677.461501	-15.998709
1678.400635	-15.927945
1679.340821	-15.848592
1680.282061	-15.773927
1681.224357	-15.701919
1682.167710	-15.622249
1683.112122	-15.551949
1684.057595	-15.478195
1685.004132	-15.402849
1685.951732	-15.334342
1686.900400	-15.261881
1687.850135	-15.193693
1688.800940	-15.124730
1689.752818	-15.055746
1690.705768	-14.989200
1691.659795	-14.918565
1692.614898	-14.855239
1693.571081	-14.790506
1694.528345	-14.726568
1695.486691	-14.669398
1696.446122	-14.606332
1697.406640	-14.548345
1698.368245	-14.490655
1699.330941	-14.432627
1700.294729	-14.380066
1701.259611	-14.324873
1702.225588	-14.275768
1703.192664	-14.224383
1704.160838	-14.174020
1705.130114	-14.129521
1706.100493	-14.080620
1707.071977	-14.038535
1708.044568	-13.996265
1709.018268	-13.955017
1709.993079	-13.916524
1710.969003	-13.876201
1711.946041	-13.841026
1712.924196	-13.801153
1713.903469	-13.766340
1714.883862	-13.733298
1715.865378	-13.697585
1716.848017	-13.668396
1717.831783	-13.636241
1718.816677	-13.606598
1719.802701	-13.575086
1720.789857	-13.545884
1721.778147	-13.518744
1722.767573	-13.488080
1723.758136	-13.464248
1724.749840	-13.436915
1725.742685	-13.411553
1726.736673	-13.386914
1727.731808	-13.362800
1728.728090	-13.340678
1729.725521	-13.315275
1730.724105	-13.295644
1731.723842	-13.271723
1732.724735	-13.249385
1733.726785	-13.227660
1734.729995	-13.205904
1735.734366	-13.186114
1736.739902	-13.163788
1737.746603	-13.147017
1738.754472	-13.126625
1739.763510	-13.109008
1740.773721	-13.091112
1741.785105	-13.073036
1742.797665	-13.055307
1743.811403	-13.035704
1744.826321	-13.021744
1745.842422	-13.005363
1746.859706	-12.992373
1747.878177	-12.977693
1748.897835	-12.964344
1749.918685	-12.950484
1750.940726	-12.936539
1751.963963	-12.925670
1752.988395	-12.912368
1754.014027	-12.901627
1755.040860	-12.888306
1756.068895	-12.878350
1757.098135	-12.867095
1758.128583	-12.857598
1759.160240	-12.847760
1760.193109	-12.837177
1761.227191	-12.828834
1762.262488	-12.819535
1763.299004	-12.812562
1764.336740	-12.802738
1765.375697	-12.796267
1766.415880	-12.787939
1767.457288	-12.780765
1768.499926	-12.772661
1769.543794	-12.766359
1770.588895	-12.761691
1771.635231	-12.755074
1772.682805	-12.749740
1773.731619	-12.742767
1774.781674	-12.738422
1775.832973	-12.732603
1776.885519	-12.729128
1777.939312	-12.724874
1778.994357	-12.721956
1780.050654	-12.718647
1781.108207	-12.716274
1782.167017	-12.714056
1783.227087	-12.711426
1784.288418	-12.709695
1785.351013	-12.707654
1786.414875	-12.706635
1787.480006	-12.704321
1788.546407	-12.704312
1789.614082	-12.704070
1790.683032	-12.705871
1791.753259	-12.705806
1792.824767	-12.706734
1793.897557	-12.706340
1794.971632	-12.707597
1796.046994	-12.708860
1797.123645	-12.711587
1798.201588	-12.714030
1799.280824	-12.715740
1800.361357	-12.718529
1801.443188	-12.720461
1802.526320	-12.724761
1803.610756	-12.726806
1804.696497	-12.731646
1805.783546	-12.733716
1806.871906	-12.738839
1807.961578	-12.741738
1809.052565	-12.747788
1810.144870	-12.752745
1811.238494	-12.758466
1812.333441	-12.763232
1813.429713	-12.767835
1814.527311	-12.773850
1815.626239	-12.779414
1816.726499	-12.787134
1817.828094	-12.793721
1818.931025	-12.801830
1820.035295	-12.808562
1821.140906	-12.815985
1822.247862	-12.823410
1823.356165	-12.830683
1824.465816	-12.838948
1825.576819	-12.845770
1826.689175	-12.854826
1827.802888	-12.861430
1828.917960	-12.870306
1830.034394	-12.875867
1831.152191	-12.884215
1832.271354	-12.890264
1833.391887	-12.899120
1834.513790	-12.906016
1835.637068	-12.914244
1836.761722	-12.920898
1837.887755	-12.928080
1839.015169	-12.934607
1840.143968	-12.941312
1841.274153	-12.948579
1842.405727	-12.955958
1843.538693	-12.963739
1844.673053	-12.970609
1845.808810	-12.977915
1846.945966	-12.984901
1848.084525	-12.992830
1849.224488	-13.001261
1850.365858	-13.010696
1851.508638	-13.020666
1852.652831	-13.030304
1853.798438	-13.040080
1854.945463	-13.049530
1856.093909	-13.060343
1857.243777	-13.070973
1858.395071	-13.083147
1859.547794	-13.094482
1860.701947	-13.107539
1861.857533	-13.119473
1863.014556	-13.133072
1864.173018	-13.145144
1865.332922	-13.159140
1866.494270	-13.172022
1867.657065	-13.186821
1868.821309	-13.199797
1869.987006	-13.214046
1871.154158	-13.226208
1872.322768	-13.239428
1873.492839	-13.250795
1874.664373	-13.262892
1875.837373	-13.273681
1877.011841	-13.285193
1878.187782	-13.295947
1879.365197	-13.306733
1880.544089	-13.317164
1881.724460	-13.327282
1882.906315	-13.337116
1884.089655	-13.346436
1885.274483	-13.356894
1886.460803	-13.367702
1887.648616	-13.379545
1888.837927	-13.389951
1890.028736	-13.400456
1891.221049	-13.409911
1892.414866	-13.420517
1893.610192	-13.430605
1894.807028	-13.441930
1896.005379	-13.453403
1897.205246	-13.465503
1898.406633	-13.477198
1899.609542	-13.488185
1900.813977	-13.499889
1902.019940	-13.511470
1903.227434	-13.524756
1904.436462	-13.536907
1905.647028	-13.549850
1906.859133	-13.561402
1908.072781	-13.573688
1909.287976	-13.584552
1910.504719	-13.595319
1911.723013	-13.605641
1912.942863	-13.615556
1914.164270	-13.626015
1915.387238	-13.635627
1916.611770	-13.645963
1917.837868	-13.655021
1919.065536	-13.663914
1920.294777	-13.671106
1921.525594	-13.677988
1922.757989	-13.685255
1923.991967	-13.692068
1925.227529	-13.698901
1926.464679	-13.703956
1927.703420	-13.709676
1928.943755	-13.714923
1930.185688	-13.720984
1931.429221	-13.726699
1932.674356	-13.732525
1933.921099	-13.738575
1935.169451	-13.743318
1936.419415	-13.748473
1937.670996	-13.752602
1938.924195	-13.757792
1940.179017	-13.761702
1941.435463	-13.765131
1942.693538	-13.767649
1943.953245	-13.770368
1945.214586	-13.773446
1946.477566	-13.776278
1947.742186	-13.778177
1949.008451	-13.780001
1950.276363	-13.782351
1951.545926	-13.785968
1952.817143	-13.788890
1954.090017	-13.791915
1955.364551	-13.794676
1956.640749	-13.797231
1957.918615	-13.799717
1959.198150	-13.801301
1960.479359	-13.803340
1961.762244	-13.804769
1963.046810	-13.806751
1964.333059	-13.807657
1965.620995	-13.807944
1966.910621	-13.807280
1968.201940	-13.805307
1969.494956	-13.802532
1970.789672	-13.799556
1972.086091	-13.797194
1973.384217	-13.793932
1974.684053	-13.789758
1975.985602	-13.784724
1977.288869	-13.778926
1978.593855	-13.771778
1979.900566	-13.764276
1981.209003	-13.756383
1982.519171	-13.748759
1983.831073	-13.740224
1985.144712	-13.731231
1986.460093	-13.721416
1987.777217	-13.712256
1989.096089	-13.704329
1990.416713	-13.695803
1991.739092	-13.686748
1993.063228	-13.677118
1994.389127	-13.668501
1995.716791	-13.660504
1997.046223	-13.653325
1998.377428	-13.646852
1999.710409	-13.640062
2001.045169	-13.633258
2002.381713	-13.627654
2003.720043	-13.621895
2005.060163	-13.615585
2006.402077	-13.608430
2007.745788	-13.601359
2009.091301	-13.594780
2010.438618	-13.588050
2011.787743	-13.581182
2013.138680	-13.571985
2014.491433	-13.561155
2015.846005	-13.550218
2017.202399	-13.538596
2018.560621	-13.526702
2019.920673	-13.516437
2021.282558	-13.506240
2022.646281	-13.494848
2024.011846	-13.480325
2025.379256	-13.464647
2026.748515	-13.449882
2028.119626	-13.436545
2029.492594	-13.424860
2030.867422	-13.412779
2032.244114	-13.398780
2033.622673	-13.384417
2035.003104	-13.370894
2036.385411	-13.358794
2037.769597	-13.347276
2039.155665	-13.334535
2040.543621	-13.320902
2041.933467	-13.307256
2043.325208	-13.294007
2044.718847	-13.281685
2046.114389	-13.272749
2047.511837	-13.267655
2048.911195	-13.265013
2050.312467	-13.263931
2051.715657	-13.265682
2053.120769	-13.268530
2054.527807	-13.269480
2055.936775	-13.267109
2057.347677	-13.257398
2058.760516	-13.236156
2060.175297	-13.204374
2061.592025	-13.166631
2063.010701	-13.128566
2064.431332	-13.098554
2065.853921	-13.084209
2067.278472	-13.088962
2068.704988	-13.111685
2070.133475	-13.146231
2071.563936	-13.183729
2072.996375	-13.214083
2074.430796	-13.228193
2075.867204	-13.219369
2077.305603	-13.186531
2078.745996	-13.133341
2080.188389	-13.067554
2081.632784	-12.998308
2083.079187	-12.932938
2084.527601	-12.878524
2085.978030	-12.839333
2087.430480	-12.815836
2088.884954	-12.808565
2090.341455	-12.814962
2091.799990	-12.831333
2093.260561	-12.855612
2094.723173	-12.884107
2096.187831	-12.913866
2097.654538	-12.943150
2099.123300	-12.970303
2100.594119	-12.994768
2102.067001	-13.016466
2103.541950	-13.037638
2105.018971	-13.059240
2106.498067	-13.079515
2107.979243	-13.098678
2109.462503	-13.116028
2110.947853	-13.132850
2112.435295	-13.149611
2113.924836	-13.164132
2115.416478	-13.175343
2116.910227	-13.182296
2118.406087	-13.183464
2119.904063	-13.175752
2121.404158	-13.159329
2122.906378	-13.133675
2124.410727	-13.098288
2125.917210	-13.056250
2127.425831	-13.011032
2128.936594	-12.965603
2130.449505	-12.922459
2131.964567	-12.886760
2133.481786	-12.862475
2135.001166	-12.853481
2136.522711	-12.859909
2138.046427	-12.880553
2139.572317	-12.913768
2141.100388	-12.956468
2142.630642	-13.003274
2144.163085	-13.047067
2145.697722	-13.082261
2147.234558	-13.105817
2148.773596	-13.116191
2150.314842	-13.112826
2151.858301	-13.099310
2153.403977	-13.082105
2154.951875	-13.068804
2156.502000	-13.064592
2158.054357	-13.073263
2159.608950	-13.094714
2161.165785	-13.126639
2162.724866	-13.164995
2164.286198	-13.202669
2165.849786	-13.231222
2167.415635	-13.246457
2168.983749	-13.249215
2170.554134	-13.244086
2172.126795	-13.234897
2173.701737	-13.226349
2175.278964	-13.224233
2176.858481	-13.231672
2178.440294	-13.246848
2180.024408	-13.266295
2181.610827	-13.286997
2183.199557	-13.306076
2184.790602	-13.321443
2186.383968	-13.333072
2187.979660	-13.344395
2189.577683	-13.358844
2191.178041	-13.379259
2192.780741	-13.404798
2194.385787	-13.431257
2195.993185	-13.454335
2197.602939	-13.475510
2199.215054	-13.499766
2200.829537	-13.526853
2202.446392	-13.554612
2204.065624	-13.583435
2205.687239	-13.612302
2207.311242	-13.639133
2208.937638	-13.663801
2210.566433	-13.688071
2212.197631	-13.712436
2213.831239	-13.735397
2215.467261	-13.756634
2217.105703	-13.776465
2218.746570	-13.795179
2220.389867	-13.815515
2222.035601	-13.838216
2223.683776	-13.860710
2225.334398	-13.884375
2226.987472	-13.912549
2228.643004	-13.944108
2230.300999	-13.976871
2231.961463	-14.012635
2233.624402	-14.051095
2235.289820	-14.090452
2236.957723	-14.130201
2238.628118	-14.170784
2240.301009	-14.211518
2241.976402	-14.251850
2243.654303	-14.293110
2245.334717	-14.335826
2247.017650	-14.379380
2248.703108	-14.423105
2250.391096	-14.468196
2252.081620	-14.514044
2253.774686	-14.558897
2255.470300	-14.601672
2257.168467	-14.640843
2258.869193	-14.678519
2260.572484	-14.715053
2262.278345	-14.749409
2263.986783	-14.783677
2265.697804	-14.819641
2267.411412	-14.856727
2269.127615	-14.895683
2270.846417	-14.936415
2272.567826	-14.978509
2274.291846	-15.022651
2276.018484	-15.068970
2277.747745	-15.117704
2279.479637	-15.169619
2281.214164	-15.223459
2282.951333	-15.278218
2284.691149	-15.335865
2286.433619	-15.396249
2288.178750	-15.457296
2289.926546	-15.520004
2291.677014	-15.585853
2293.430161	-15.653011
2295.185992	-15.719666
2296.944513	-15.787292
2298.705732	-15.855137
2300.469653	-15.921489
2302.236283	-15.986875
2304.005629	-16.050859
2305.777696	-16.113118
2307.552492	-16.173974
2309.330022	-16.230629
2311.110292	-16.286455
2312.893310	-16.342502
2314.679080	-16.396535
2316.467611	-16.449223
2318.258907	-16.505048
2320.052976	-16.563050
2321.849824	-16.622457
2323.649457	-16.685487
2325.451883	-16.751194
2327.257106	-16.822025
2329.065135	-16.895825
2330.875975	-16.969862
2332.689633	-17.049461
2334.506116	-17.131610
2336.325430	-17.214618
2338.147581	-17.299466
2339.972578	-17.387110
2341.800425	-17.476106
2343.631130	-17.568180
2345.464700	-17.663502
2347.301141	-17.757521
2349.140461	-17.852651
2350.982665	-17.946167
2352.827760	-18.038612
2354.675754	-18.129087
2356.526653	-18.215105
2358.380464	-18.299993
2360.237195	-18.382622
2362.096851	-18.460611
2363.959440	-18.536339
2365.824968	-18.613054
2367.693444	-18.688377
2369.564873	-18.763453
2371.439263	-18.839447
2373.316620	-18.919645
2375.196953	-19.003764
2377.080267	-19.090366
2378.966570	-19.181555
2380.855869	-19.278899
2382.748171	-19.378721
2384.643484	-19.482571
2386.541815	-19.590486
2388.443170	-19.698625
2390.347557	-19.811179
2392.254984	-19.924234
2394.165457	-20.041707
2396.078984	-20.164399
2397.995572	-20.287942
2399.915229	-20.413820
2401.837961	-20.538767
2403.763777	-20.664382
2405.692684	-20.790815
2407.624689	-20.909796
2409.559800	-21.025012
2411.498023	-21.138271
2413.439368	-21.242710
2415.383840	-21.343015
2417.331449	-21.439145
2419.282201	-21.536087
2421.236104	-21.632211
2423.193165	-21.725446
2425.153393	-21.823190
2427.116795	-21.922060
2429.083378	-22.022613
2431.053151	-22.132753
2433.026121	-22.248639
2435.002297	-22.369877
2436.981685	-22.494449
2438.964293	-22.625363
2440.950131	-22.757867
2442.939204	-22.890639
2444.931522	-23.031865
2446.927092	-23.178176
2448.925923	-23.323960
2450.928022	-23.479828
2452.933397	-23.640067
2454.942056	-23.802789
2456.954008	-23.960191
2458.969260	-24.120268
2460.987821	-24.284444
2463.009699	-24.426211
2465.034902	-24.566090
2467.063437	-24.703159
2469.095315	-24.823385
2471.130542	-24.934261
2473.169127	-25.048727
2475.211078	-25.168299
2477.256404	-25.261578
2479.305112	-25.364968
2481.357212	-25.486332
2483.412713	-25.594251
2485.471621	-25.710636
2487.533946	-25.846291
2489.599696	-25.988688
2491.668880	-26.122136
2493.741507	-26.276562
2495.817585	-26.436002
2497.897122	-26.575589
2499.980127	-26.736161
2502.066609	-26.915404
2504.156578	-27.087561
2506.250040	-27.267905
2508.347006	-27.471077
2510.447483	-27.677504
2512.551482	-27.877555
2514.659010	-28.087499
2516.770076	-28.295650
2518.884690	-28.481752
2521.002861	-28.657860
2523.124597	-28.820986
2525.249907	-28.968983
2527.378801	-29.100172
2529.511287	-29.216484
2531.647375	-29.337292
2533.787074	-29.445470
2535.930393	-29.544543
2538.077340	-29.657323
2540.227927	-29.769368
2542.382160	-29.891809
2544.540051	-30.021478
2546.701608	-30.171910
2548.866840	-30.321103
2551.035757	-30.475124
2553.208369	-30.622511
2555.384684	-30.785134
2557.564713	-30.953883
2559.748465	-31.130732
2561.935948	-31.339296
2564.127174	-31.564824
2566.322152	-31.807301
2568.520890	-32.068187
2570.723399	-32.349583
2572.929689	-32.622855
2575.139769	-32.894148
2577.353649	-33.155764
2579.571340	-33.398183
2581.792849	-33.598434
2584.018189	-33.782612
2586.247368	-33.950014
2588.480396	-34.080217
2590.717284	-34.189329
2592.958041	-34.302425
2595.202678	-34.393002
2597.451204	-34.480767
2599.703630	-34.579945
2601.959966	-34.687220
2604.220222	-34.794314
2606.484408	-34.916381
2608.752535	-35.034375
2611.024612	-35.146732
2613.300651	-35.254170
2615.580661	-35.383863
2617.864653	-35.517071
2620.152638	-35.698388
2622.444625	-35.901274
2624.740626	-36.143366
2627.040651	-36.414297
2629.344710	-36.741893
2631.652814	-37.088378
2633.964974	-37.468060
2636.281200	-37.851865
2638.601504	-38.242201
2640.925896	-38.604398
2643.254386	-38.963490
2645.586987	-39.269959
2647.923707	-39.553573
2650.264559	-39.762900
2652.609554	-39.900355
2654.958702	-40.009971
2657.312015	-40.127692
2659.669503	-40.199970
2662.031178	-40.257850
2664.397051	-40.362727
2666.767132	-40.447137
2669.141434	-40.468678
2671.519968	-40.462819
2673.902745	-40.415329
2676.289776	-40.389876
2678.681072	-40.395849
2681.076646	-40.418111
2683.476508	-40.502713
2685.880671	-40.655529
2688.289145	-40.895370
2690.701942	-41.111197
2693.119075	-41.472326
2695.540554	-41.843149
2697.966391	-42.262871
2700.396599	-42.667535
2702.831189	-43.180285
2705.270172	-43.625448
2707.713561	-44.192906
2710.161368	-44.674517
2712.613605	-45.139424
2715.070283	-45.592711
2717.531416	-46.011835
2719.997014	-46.323806
2722.467090	-46.720071
2724.941657	-47.093094
2727.420726	-47.388943
2729.904310	-47.759476
2732.392421	-47.780128
2734.885072	-47.731292
2737.382275	-47.559714
2739.884042	-47.255086
2742.390387	-47.005738
2744.901321	-46.784512
2747.416857	-46.516101
2749.937008	-46.397660
2752.461787	-46.347458
2754.991206	-46.252454
2757.525279	-46.362293
2760.064017	-46.444400
2762.607434	-46.550795
2765.155544	-46.845453
2767.708358	-47.126812
2770.265890	-47.492315
2772.828153	-47.981998
2775.395160	-48.378535
2777.966924	-48.758606
2780.543459	-49.222855
2783.124778	-49.504870
2785.710894	-49.953335
2788.301821	-50.636090
2790.897572	-51.431582
2793.498160	-52.500253
2796.103599	-53.833274
2798.713903	-55.140530
2801.329085	-56.268822
2803.949159	-57.090481
2806.574139	-57.341429
2809.204038	-57.099948
2811.838871	-56.346342
2814.478650	-55.680213
2817.123391	-55.277447
2819.773107	-54.658692
2822.427812	-54.200756
2825.087521	-54.030404
2827.752247	-53.698015
2830.422005	-53.542737
2833.096808	-53.524397
2835.776672	-53.554175
2838.461611	-53.769561
2841.151638	-53.666591
2843.846769	-53.724456
2846.547019	-53.664427
2849.252401	-53.285019
2851.962930	-53.208577
2854.678621	-53.280562
2857.399489	-53.523927
2860.125549	-53.996595
2862.856815	-54.640366
2865.593302	-55.525445
2868.335026	-56.421986
2871.082002	-57.450206
2873.834244	-59.111671
2876.591767	-60.621331
2879.354588	-62.052824
2882.122721	-63.689577
2884.896181	-64.723811
2887.674984	-65.664125
2890.459146	-66.198469
2893.248681	-65.564986
2896.043606	-65.327605
2898.843937	-64.532998
2901.649687	-64.024504
2904.460875	-64.715623
2907.277515	-65.204043
2910.099623	-65.797530
2912.927215	-65.996145
2915.760308	-64.388925
2918.598916	-62.543923
2921.443057	-61.423953
2924.292747	-60.210470
2927.148002	-59.735723
2930.008837	-59.486447
2932.875270	-59.159850
2935.747318	-59.101817
2938.624995	-59.250868
2941.508320	-59.625107
2944.397308	-60.277560
2947.291977	-60.840700
2950.192343	-61.764761
2953.098423	-62.684778
2956.010234	-63.925497
2958.927792	-65.118077
2961.851116	-67.174942
2964.780221	-68.425468
2967.715126	-69.110960
2970.655847	-68.738071
2973.602402	-67.372441
2976.554808	-66.380270
2979.513083	-67.109391
2982.477243	-67.528407
2985.447308	-68.905001
2988.423293	-72.443103
2991.405218	-76.222183
2994.393099	-84.233505
2997.386955	-95.031278
