# 2022-03-22_12.32.32
# shape = sech2
# FWHM_ps = 0.11
# carrier_nm = 1542
# frep_MHz = 12126
# pow_mW = 8000
# GDD = 0.0
# propa_len = 0.15311111111111111
# untap_len = 0.01
# taper_len = 0.09311111111111112
# waist_len = 0.02
# uptap_len = 0.02
# untap_scale = 1.0
# waist_scale = 0.11578947368421054
# workingDir = NL_20110305_12 (Spirou)
# axis = slow
# window_ps = 10.0
# steps = 200
# points = 21700
# 
# wavelength [nm]	 power spectral density [dB]
600.043425	-90.311157
600.163550	-87.531389
600.283723	-90.976584
600.403943	-93.700506
600.524212	-95.777399
600.644529	-105.578503
600.764895	-94.917014
600.885308	-96.221343
601.005770	-93.851990
601.126280	-99.219601
601.246839	-98.497468
601.367446	-91.138039
601.488101	-93.858833
601.608804	-90.848568
601.729557	-93.392917
601.850357	-93.173952
601.971206	-97.592151
602.092104	-100.013306
602.213050	-99.095622
602.334045	-110.426122
602.455089	-95.666508
602.576181	-94.290604
602.697322	-93.653652
602.818511	-92.726746
602.939749	-96.847209
603.061036	-95.813917
603.182372	-94.235053
603.303757	-92.290956
603.425191	-89.198291
603.546673	-88.498384
603.668204	-89.516352
603.789785	-88.066572
603.911414	-89.820894
604.033092	-89.675059
604.154820	-90.379371
604.276596	-89.687360
604.398422	-89.156579
604.520297	-91.109565
604.642220	-90.509685
604.764193	-88.269295
604.886216	-91.488521
605.008287	-91.373030
605.130408	-90.256831
605.252578	-91.604671
605.374798	-97.028778
605.497066	-96.599746
605.619385	-97.506671
605.741752	-104.874246
605.864169	-95.510143
605.986636	-97.541904
606.109152	-95.049993
606.231718	-90.571051
606.354333	-93.880373
606.476998	-95.318502
606.599712	-91.576209
606.722476	-93.998002
606.845290	-91.144158
606.968154	-89.090148
607.091067	-92.114524
607.214030	-91.184572
607.337043	-94.288818
607.460106	-94.644539
607.583219	-92.510633
607.706381	-96.599069
607.829594	-98.134857
607.952856	-96.199522
608.076169	-100.857839
608.199531	-105.502898
608.322944	-101.527955
608.446407	-95.474212
608.569920	-97.772656
608.693483	-104.619435
608.817096	-96.007801
608.940759	-97.365977
609.064473	-100.937617
609.188237	-107.694194
609.312051	-110.202730
609.435916	-102.274085
609.559831	-120.266284
609.683796	-100.090153
609.807812	-105.587758
609.931878	-97.048324
610.055995	-102.611911
610.180162	-100.215461
610.304380	-114.275814
610.428648	-101.429212
610.552967	-100.433881
610.677337	-103.028515
610.801757	-102.604131
610.926228	-95.851176
611.050750	-101.858570
611.175323	-98.196826
611.299946	-108.272076
611.424620	-96.239078
611.549345	-94.623522
611.674121	-91.324422
611.798948	-87.619193
611.923826	-90.829043
612.048755	-92.102446
612.173734	-90.878900
612.298765	-87.995658
612.423847	-87.811731
612.548980	-86.845702
612.674165	-90.187365
612.799400	-97.542048
612.924687	-103.886668
613.050025	-95.669661
613.175414	-100.162193
613.300854	-104.847013
613.426346	-94.113314
613.551889	-89.000345
613.677484	-88.371881
613.803130	-87.548868
613.928827	-90.519295
614.054576	-90.750236
614.180377	-91.630356
614.306229	-86.889404
614.432132	-91.489303
614.558087	-105.093077
614.684094	-96.190737
614.810153	-91.741634
614.936263	-91.707080
615.062425	-97.138739
615.188639	-98.338975
615.314904	-96.719182
615.441222	-90.448555
615.567591	-92.928070
615.694012	-93.494184
615.820486	-100.055158
615.947011	-93.030396
616.073588	-93.543767
616.200217	-93.925426
616.326898	-101.377814
616.453632	-89.500496
616.580417	-88.989594
616.707255	-87.831941
616.834144	-92.095867
616.961086	-96.203665
617.088081	-92.399088
617.215127	-93.937396
617.342226	-94.797370
617.469378	-100.069862
617.596581	-94.982748
617.723837	-88.512996
617.851146	-89.137877
617.978507	-89.517263
618.105920	-87.117635
618.233386	-86.890106
618.360905	-83.601078
618.488476	-85.066054
618.616100	-85.070007
618.743777	-86.530744
618.871506	-90.807775
618.999288	-89.866572
619.127123	-94.586799
619.255011	-97.026240
619.382951	-94.630786
619.510945	-100.351733
619.638991	-102.544426
619.767090	-91.414709
619.895243	-89.604292
620.023448	-86.935773
620.151706	-89.406527
620.280017	-93.671531
620.408382	-97.713103
620.536799	-91.503578
620.665270	-96.576619
620.793794	-96.038789
620.922371	-99.185780
621.051002	-91.429204
621.179686	-94.166577
621.308423	-92.145719
621.437213	-93.217144
621.566057	-88.875174
621.694954	-86.189392
621.823905	-90.567779
621.952909	-85.767876
622.081967	-87.391115
622.211079	-88.829396
622.340244	-88.818828
622.469462	-89.452958
622.598735	-86.786791
622.728061	-90.299447
622.857441	-88.574994
622.986874	-90.951326
623.116361	-87.505319
623.245903	-95.285683
623.375498	-100.361243
623.505147	-98.743061
623.634850	-91.753751
623.764606	-95.187859
623.894417	-91.491033
624.024282	-94.101742
624.154201	-90.240526
624.284174	-90.573190
624.414202	-93.391156
624.544283	-94.063054
624.674419	-102.559707
624.804609	-99.544269
624.934853	-94.054221
625.065151	-95.081550
625.195504	-88.584083
625.325911	-94.684277
625.456373	-90.771766
625.586889	-85.712621
625.717460	-84.537018
625.848085	-85.381389
625.978764	-89.690001
626.109498	-94.075642
626.240287	-96.033179
626.371131	-87.337501
626.502029	-91.376547
626.632982	-91.377161
626.763989	-87.452051
626.895052	-88.343173
627.026169	-87.872606
627.157341	-88.718063
627.288568	-113.107490
627.419850	-97.914149
627.551187	-88.337979
627.682579	-86.175708
627.814026	-90.649893
627.945528	-90.446855
628.077085	-92.022061
628.208697	-87.804177
628.340364	-87.783643
628.472087	-86.761534
628.603865	-100.368096
628.735698	-95.311900
628.867586	-89.939705
628.999530	-87.192262
629.131529	-89.670770
629.263584	-86.151797
629.395694	-88.248382
629.527859	-87.272543
629.660080	-88.662182
629.792357	-83.531725
629.924689	-86.170214
630.057077	-82.856613
630.189520	-88.668909
630.322019	-90.993495
630.454574	-91.600113
630.587184	-87.648117
630.719851	-86.379196
630.852573	-85.764539
630.985351	-83.067920
631.118185	-85.426901
631.251075	-84.864701
631.384021	-90.511384
631.517023	-84.134422
631.650081	-82.246315
631.783195	-80.828282
631.916365	-83.627690
632.049592	-81.598197
632.182874	-81.728378
632.316213	-83.920949
632.449608	-84.933719
632.583059	-82.191129
632.716567	-81.907930
632.850131	-84.013689
632.983751	-82.603267
633.117428	-84.123667
633.251161	-85.254599
633.384951	-95.350006
633.518797	-91.741003
633.652700	-90.695269
633.786660	-88.547944
633.920676	-89.469666
634.054749	-81.676051
634.188879	-81.067317
634.323065	-84.998186
634.457308	-86.842401
634.591608	-89.490975
634.725965	-87.290233
634.860379	-89.947458
634.994850	-86.642289
635.129377	-93.139493
635.263962	-98.687964
635.398604	-90.763578
635.533303	-87.971413
635.668058	-83.361905
635.802872	-83.767432
635.937742	-84.526102
636.072669	-95.777323
636.207654	-85.305935
636.342696	-83.873440
636.477796	-83.006081
636.612953	-85.695378
636.748167	-84.457794
636.883439	-85.495108
637.018768	-91.397509
637.154155	-92.644815
637.289599	-85.580960
637.425101	-86.325422
637.560660	-93.327293
637.696277	-88.984616
637.831952	-89.157118
637.967685	-84.933333
638.103475	-86.190671
638.239324	-84.115789
638.375230	-83.612690
638.511194	-84.540266
638.647215	-84.441626
638.783295	-84.769900
638.919433	-81.792410
639.055629	-82.118491
639.191883	-84.931831
639.328195	-94.222144
639.464565	-84.944525
639.600994	-86.398176
639.737481	-88.858962
639.874025	-82.556910
640.010629	-88.124781
640.147290	-88.644105
640.284010	-99.272375
640.420789	-88.424114
640.557625	-85.389578
640.694521	-81.402641
640.831474	-84.452531
640.968487	-82.668172
641.105558	-85.500272
641.242687	-87.342876
641.379876	-102.239594
641.517123	-92.514433
641.654429	-93.920825
641.791793	-89.749061
641.929216	-92.802302
642.066699	-84.878517
642.204240	-82.326704
642.341840	-81.928504
642.479499	-83.600803
642.617217	-84.144497
642.754994	-83.838599
642.892830	-83.804541
643.030726	-82.973557
643.168680	-81.104765
643.306694	-80.894358
643.444767	-82.611020
643.582899	-85.469235
643.721091	-89.125889
643.859342	-102.611669
643.997652	-90.800761
644.136022	-96.010605
644.274451	-85.094172
644.412940	-84.518271
644.551488	-85.960577
644.690096	-82.998834
644.828763	-82.531475
644.967490	-80.723245
645.106277	-77.164140
645.245124	-76.951695
645.384030	-79.468515
645.522997	-83.469793
645.662023	-82.871981
645.801109	-79.695588
645.940255	-79.095247
646.079460	-77.821300
646.218726	-77.256812
646.358052	-77.595093
646.497438	-78.459301
646.636884	-76.911822
646.776391	-77.795580
646.915957	-82.609957
647.055584	-85.991790
647.195271	-83.329696
647.335019	-79.962707
647.474826	-76.761032
647.614695	-78.127910
647.754623	-75.384519
647.894612	-73.656902
648.034662	-74.102216
648.174772	-76.740956
648.314943	-76.925862
648.455174	-76.465658
648.595466	-78.830645
648.735819	-82.381435
648.876233	-84.543723
649.016707	-87.937736
649.157242	-87.492570
649.297838	-87.028124
649.438495	-97.860118
649.579213	-84.008070
649.719992	-79.195276
649.860832	-78.681097
650.001733	-77.002372
650.142695	-76.802819
650.283718	-76.260104
650.424803	-77.806443
650.565949	-76.602261
650.707156	-77.443546
650.848424	-76.439505
650.989754	-78.537607
651.131145	-78.039318
651.272597	-77.899497
651.414111	-80.278349
651.555687	-81.118628
651.697324	-79.702748
651.839022	-79.551442
651.980782	-76.052131
652.122604	-78.552549
652.264488	-80.361032
652.406433	-84.651452
652.548441	-86.259630
652.690510	-90.179534
652.832640	-95.342942
652.974833	-79.228120
653.117088	-77.702149
653.259405	-75.876834
653.401784	-77.833304
653.544224	-77.828713
653.686727	-78.787684
653.829293	-76.760213
653.971920	-81.242916
654.114609	-80.111854
654.257361	-87.587278
654.400175	-85.432034
654.543052	-83.621269
654.685991	-76.446694
654.828992	-79.419316
654.972056	-82.274799
655.115183	-89.364821
655.258372	-82.486150
655.401623	-88.534771
655.544937	-87.221370
655.688314	-80.023262
655.831754	-82.067257
655.975256	-80.213305
656.118822	-82.485392
656.262450	-79.290321
656.406141	-79.342162
656.549894	-78.177495
656.693711	-76.794384
656.837591	-77.282098
656.981534	-77.605574
657.125540	-82.275174
657.269610	-80.827059
657.413742	-86.228227
657.557938	-90.306865
657.702196	-87.103705
657.846519	-90.144834
657.990904	-84.197686
658.135353	-85.914247
658.279866	-96.313285
658.424441	-90.080338
658.569081	-87.938806
658.713784	-78.818950
658.858550	-78.379455
659.003381	-78.270009
659.148274	-87.837684
659.293232	-83.403261
659.438253	-86.205785
659.583339	-86.492896
659.728488	-88.086332
659.873701	-86.242385
660.018978	-80.112988
660.164318	-85.596125
660.309723	-86.540129
660.455192	-91.033114
660.600725	-84.890579
660.746323	-88.891742
660.891984	-85.632368
661.037710	-82.519822
661.183500	-90.983525
661.329354	-93.073161
661.475272	-86.850130
661.621255	-96.248601
661.767303	-93.329309
661.913415	-82.086299
662.059591	-80.306997
662.205833	-83.077795
662.352138	-79.997152
662.498509	-87.637090
662.644944	-81.462874
662.791443	-80.302087
662.938008	-78.367401
663.084638	-81.106162
663.231332	-86.529043
663.378091	-81.505077
663.524915	-84.511463
663.671804	-79.293885
663.818759	-77.597025
663.965778	-80.444842
664.112863	-91.976526
664.260012	-89.890462
664.407227	-82.106646
664.554507	-79.184980
664.701853	-84.259335
664.849264	-88.808953
664.996740	-84.358468
665.144282	-77.963453
665.291889	-79.711653
665.439561	-78.260396
665.587300	-82.529463
665.735103	-91.605345
665.882973	-86.582922
666.030908	-82.046999
666.178909	-80.478410
666.326976	-82.394639
666.475109	-78.757340
666.623307	-84.850155
666.771571	-83.945139
666.919902	-82.113604
667.068298	-90.877717
667.216761	-90.238432
667.365289	-81.534392
667.513884	-75.028029
667.662545	-75.653858
667.811272	-73.231101
667.960065	-76.091245
668.108925	-83.617281
668.257851	-84.600774
668.406843	-77.487769
668.555902	-73.006633
668.705027	-75.531223
668.854219	-75.633307
669.003478	-78.937857
669.152803	-94.637041
669.302195	-88.177513
669.451653	-79.998234
669.601179	-80.318257
669.750771	-77.782796
669.900430	-76.359929
670.050156	-77.717618
670.199949	-78.867467
670.349808	-82.216993
670.499735	-88.053006
670.649729	-82.463764
670.799790	-80.345192
670.949918	-79.512831
671.100114	-77.789172
671.250377	-81.847715
671.400707	-88.982100
671.551104	-81.535830
671.701569	-77.951045
671.852101	-76.112113
672.002700	-78.681684
672.153368	-81.331229
672.304102	-78.282509
672.454905	-75.852195
672.605775	-75.852218
672.756713	-83.621246
672.907718	-84.574004
673.058791	-82.114277
673.209933	-84.244350
673.361142	-78.056961
673.512419	-76.166650
673.663764	-75.506437
673.815177	-79.176782
673.966658	-78.206981
674.118207	-85.582145
674.269825	-87.016315
674.421510	-79.677571
674.573264	-77.459589
674.725086	-75.535879
674.876977	-80.588636
675.028936	-75.031914
675.180963	-72.189174
675.333059	-76.637826
675.485224	-83.711664
675.637457	-83.122228
675.789758	-82.267472
675.942129	-81.653982
676.094568	-86.586275
676.247075	-86.232180
676.399652	-81.228142
676.552298	-74.069745
676.705012	-76.571839
676.857795	-77.716033
677.010648	-75.166535
677.163569	-78.904763
677.316560	-84.064206
677.469619	-80.422292
677.622748	-79.174444
677.775946	-77.177884
677.929214	-77.514541
678.082551	-77.918245
678.235957	-77.233853
678.389432	-75.815578
678.542977	-81.922122
678.696592	-84.102349
678.850276	-76.866842
679.004030	-78.751870
679.157853	-78.804670
679.311746	-88.951796
679.465709	-80.250365
679.619742	-77.771229
679.773844	-78.709065
679.928017	-77.298984
680.082259	-76.517377
680.236571	-79.629553
680.390954	-79.429205
680.545406	-80.526844
680.699929	-75.690490
680.854522	-74.953734
681.009185	-72.467004
681.163918	-74.186425
681.318722	-77.227209
681.473596	-79.678484
681.628540	-87.980260
681.783555	-81.020844
681.938641	-86.088454
682.093797	-81.890287
682.249023	-90.514110
682.404321	-82.199632
682.559689	-74.404005
682.715128	-70.120432
682.870637	-71.931682
683.026218	-77.069405
683.181869	-78.756811
683.337591	-74.884197
683.493385	-80.136125
683.649249	-82.471144
683.805185	-83.507941
683.961191	-79.416977
684.117269	-72.030782
684.273418	-70.313859
684.429639	-70.551420
684.585930	-71.601917
684.742294	-73.387989
684.898728	-75.049115
685.055234	-77.430128
685.211812	-77.043000
685.368461	-77.298751
685.525182	-80.576953
685.681975	-83.136872
685.838839	-87.170276
685.995775	-87.669024
686.152783	-77.014814
686.309863	-82.701016
686.467014	-77.491580
686.624238	-72.684907
686.781534	-75.527755
686.938902	-75.916011
687.096342	-76.093310
687.253854	-74.696432
687.411438	-75.257917
687.569095	-73.284152
687.726824	-73.507781
687.884626	-78.338119
688.042499	-80.259954
688.200446	-73.689556
688.358465	-76.132439
688.516556	-79.558295
688.674720	-78.689029
688.832957	-73.083226
688.991266	-77.809308
689.149649	-82.569213
689.308104	-73.670961
689.466632	-74.653071
689.625233	-77.733349
689.783906	-72.549518
689.942653	-75.533532
690.101473	-75.120147
690.260367	-74.434911
690.419333	-73.856685
690.578372	-78.977733
690.737485	-80.201162
690.896672	-81.094953
691.055931	-79.248889
691.215264	-80.090216
691.374671	-72.503134
691.534151	-73.191439
691.693704	-69.983328
691.853332	-69.490142
692.013033	-70.113078
692.172807	-79.686277
692.332656	-80.557169
692.492578	-75.907976
692.652575	-79.699674
692.812645	-78.984131
692.972789	-73.176191
693.133007	-71.008902
693.293300	-71.210767
693.453666	-74.739334
693.614107	-74.502829
693.774622	-78.224564
693.935211	-88.108660
694.095875	-78.940789
694.256613	-86.883639
694.417426	-87.916501
694.578313	-74.838612
694.739274	-70.914408
694.900311	-72.129824
695.061421	-80.035966
695.222607	-70.956815
695.383868	-74.978326
695.545203	-82.173678
695.706613	-78.512088
695.868098	-95.363252
696.029658	-88.983720
696.191293	-79.782613
696.353003	-73.676426
696.514789	-75.388454
696.676649	-84.388529
696.838585	-99.773898
697.000596	-74.656786
697.162682	-79.523430
697.324844	-82.126865
697.487081	-75.251742
697.649394	-72.134984
697.811782	-73.774555
697.974246	-82.728691
698.136786	-84.142476
698.299401	-78.387433
698.462092	-77.881500
698.624859	-77.670541
698.787702	-78.628645
698.950621	-80.386417
699.113616	-83.654535
699.276686	-89.219352
699.439833	-76.010902
699.603056	-72.073018
699.766355	-73.917562
699.929731	-78.607226
700.093183	-73.944826
700.256711	-72.683188
700.420315	-79.197883
700.583996	-83.071217
700.747754	-81.818778
700.911588	-88.505786
701.075499	-85.131516
701.239486	-81.329125
701.403550	-83.457321
701.567691	-80.133878
701.731909	-84.429898
701.896203	-75.750200
702.060575	-72.926912
702.225024	-74.763653
702.389549	-73.127274
702.554152	-77.529075
702.718832	-81.104282
702.883589	-76.945140
703.048424	-77.045670
703.213335	-71.951830
703.378324	-72.610820
703.543391	-78.402401
703.708535	-74.365665
703.873757	-78.083964
704.039056	-99.413825
704.204433	-76.671478
704.369887	-74.677386
704.535420	-73.744929
704.701030	-69.295290
704.866718	-70.284584
705.032484	-74.817413
705.198328	-79.629260
705.364250	-85.282836
705.530250	-79.466284
705.696328	-82.994504
705.862485	-85.050889
706.028720	-84.904451
706.195033	-84.331907
706.361424	-76.964782
706.527894	-77.999498
706.694442	-93.508101
706.861069	-79.281852
707.027775	-77.665504
707.194559	-74.118261
707.361422	-70.895071
707.528363	-70.079276
707.695384	-67.025059
707.862483	-69.339774
708.029661	-73.971644
708.196918	-75.866296
708.364254	-81.586650
708.531670	-82.605899
708.699164	-75.007003
708.866738	-77.349130
709.034391	-75.891949
709.202123	-73.641483
709.369935	-82.331370
709.537826	-73.967450
709.705796	-73.341558
709.873847	-72.178409
710.041976	-66.717478
710.210186	-70.027908
710.378475	-72.299730
710.546844	-72.012026
710.715292	-76.848711
710.883821	-78.056747
711.052429	-78.481313
711.221118	-75.080300
711.389887	-70.769343
711.558735	-72.647010
711.727664	-69.185193
711.896673	-68.728146
712.065763	-77.521210
712.234932	-72.872024
712.404183	-73.571264
712.573513	-68.362731
712.742924	-65.134541
712.912416	-69.458263
713.081988	-67.839308
713.251641	-67.725931
713.421375	-77.807293
713.591190	-70.811687
713.761085	-71.409750
713.931061	-70.566962
714.101119	-68.144727
714.271257	-72.005817
714.441476	-74.296691
714.611777	-80.913489
714.782159	-73.260094
714.952622	-69.558997
715.123166	-69.463243
715.293792	-70.583102
715.464499	-72.815993
715.635288	-71.524789
715.806158	-73.622392
715.977110	-70.412156
716.148143	-71.458845
716.319259	-68.289700
716.490456	-67.338529
716.661735	-71.711905
716.833096	-67.104242
717.004538	-67.923518
717.176063	-71.329038
717.347670	-68.272644
717.519359	-72.138201
717.691130	-68.660157
717.862984	-67.977547
718.034920	-68.179776
718.206938	-66.463397
718.379039	-66.000235
718.551222	-62.973592
718.723488	-62.341528
718.895836	-64.526881
719.068267	-63.286894
719.240781	-66.685774
719.413377	-68.967959
719.586057	-67.444987
719.758819	-71.297638
719.931664	-68.438581
720.104593	-77.395076
720.277604	-71.686417
720.450699	-70.696687
720.623876	-70.647269
720.797137	-63.702813
720.970482	-63.391690
721.143910	-61.933162
721.317421	-61.683833
721.491016	-64.505912
721.664694	-64.468502
721.838456	-66.721683
722.012302	-71.807925
722.186231	-64.708253
722.360244	-63.577427
722.534342	-63.422424
722.708523	-61.887281
722.882788	-64.137352
723.057137	-63.116664
723.231570	-65.653697
723.406088	-69.407720
723.580689	-63.592625
723.755375	-65.180024
723.930146	-65.829500
724.105000	-71.700088
724.279940	-70.405626
724.454963	-66.696043
724.630072	-68.941948
724.805265	-62.716034
724.980543	-61.306053
725.155905	-62.599321
725.331353	-62.485613
725.506885	-67.146008
725.682503	-62.824437
725.858205	-61.654132
726.033993	-67.579664
726.209865	-64.199125
726.385823	-64.139971
726.561866	-63.328113
726.737995	-64.410396
726.914209	-66.281553
727.090508	-60.867043
727.266893	-61.975365
727.443364	-64.843836
727.619920	-67.030917
727.796562	-67.920015
727.973290	-64.264061
728.150103	-69.757415
728.327003	-62.370864
728.503988	-59.328055
728.681060	-60.041193
728.858218	-62.294110
729.035461	-62.661146
729.212791	-61.651741
729.390208	-61.206334
729.567710	-63.824081
729.745299	-65.659584
729.922975	-63.519521
730.100737	-65.059553
730.278586	-64.616734
730.456521	-63.885849
730.634543	-63.589893
730.812652	-61.948757
730.990848	-62.596567
731.169130	-64.181007
731.347500	-69.462756
731.525957	-68.154621
731.704500	-62.018497
731.883131	-62.254775
732.061850	-65.091671
732.240655	-64.249454
732.419548	-60.810178
732.598528	-60.958958
732.777596	-64.194367
732.956751	-66.489699
733.135994	-62.104998
733.315325	-62.217883
733.494744	-63.272989
733.674250	-62.722230
733.853844	-61.738570
734.033526	-60.114411
734.213296	-60.924553
734.393154	-63.167950
734.573101	-63.152240
734.753135	-63.262516
734.933258	-62.248879
735.113469	-62.655975
735.293769	-62.317412
735.474157	-61.496161
735.654633	-59.666335
735.835198	-61.063935
736.015852	-61.173636
736.196594	-62.672528
736.377426	-67.330982
736.558346	-62.774388
736.739355	-64.175070
736.920453	-61.368491
737.101640	-60.942787
737.282916	-61.669867
737.464282	-58.328929
737.645736	-59.175963
737.827280	-64.966395
738.008914	-67.730870
738.190637	-66.169056
738.372449	-60.268854
738.554351	-61.615318
738.736342	-62.642515
738.918424	-61.914031
739.100595	-61.106751
739.282855	-63.039706
739.465206	-68.305008
739.647647	-63.000160
739.830178	-64.053718
740.012799	-60.985201
740.195510	-60.500167
740.378311	-64.873086
740.561203	-61.666482
740.744185	-62.608285
740.927258	-62.582452
741.110421	-61.300350
741.293674	-69.288020
741.477018	-61.542599
741.660453	-61.849358
741.843979	-65.893820
742.027596	-62.729945
742.211303	-66.977136
742.395102	-62.638745
742.578991	-61.700241
742.762972	-64.829601
742.947044	-65.641577
743.131207	-63.995072
743.315461	-61.088030
743.499807	-64.696857
743.684244	-61.295089
743.868773	-63.446762
744.053394	-65.190212
744.238106	-61.933494
744.422910	-68.383410
744.607805	-60.756244
744.792793	-64.295047
744.977872	-64.162816
745.163044	-61.118071
745.348307	-65.254649
745.533663	-62.689622
745.719111	-67.505911
745.904651	-63.936949
746.090283	-62.969803
746.276008	-60.234626
746.461826	-60.328128
746.647735	-70.620252
746.833738	-62.927098
747.019833	-65.466135
747.206021	-66.061153
747.392302	-62.864990
747.578676	-68.195492
747.765143	-62.027324
747.951703	-61.370665
748.138356	-63.015698
748.325102	-62.929551
748.511941	-66.303620
748.698874	-63.602856
748.885900	-63.990366
749.073019	-60.788046
749.260232	-63.793861
749.447539	-65.319401
749.634939	-63.562630
749.822433	-79.348762
750.010021	-63.927627
750.197703	-72.762911
750.385479	-66.761163
750.573348	-66.234196
750.761312	-62.546420
750.949370	-63.136803
751.137523	-69.345657
751.325769	-64.541994
751.514110	-80.738973
751.702545	-61.651061
751.891075	-62.558517
752.079700	-72.632968
752.268419	-65.217246
752.457233	-63.060275
752.646142	-61.854043
752.835145	-70.197095
753.024244	-64.487052
753.213437	-72.719517
753.402726	-61.330215
753.592110	-58.361879
753.781589	-64.582614
753.971163	-67.339675
754.160833	-66.223851
754.350598	-71.688153
754.540459	-64.440325
754.730415	-64.531228
754.920467	-65.068804
755.110615	-69.650166
755.300858	-64.045538
755.491198	-65.674205
755.681633	-68.945090
755.872164	-69.872386
756.062792	-66.668789
756.253515	-62.255976
756.444335	-68.664742
756.635252	-64.570589
756.826264	-70.619759
757.017373	-63.910255
757.208579	-64.547836
757.399881	-67.065505
757.591280	-64.784528
757.782776	-69.279468
757.974368	-61.360318
758.166058	-65.436874
758.357844	-62.044101
758.549728	-65.917203
758.741708	-63.438191
758.933786	-59.963891
759.125961	-63.023081
759.318233	-60.867355
759.510603	-62.261771
759.703071	-64.264355
759.895635	-67.292369
760.088298	-62.756155
760.281058	-62.350966
760.473916	-62.927177
760.666872	-60.136100
760.859926	-68.427234
761.053078	-62.479175
761.246328	-60.810232
761.439676	-64.696288
761.633122	-65.992128
761.826667	-65.481917
762.020310	-62.739100
762.214052	-62.191110
762.407892	-57.871164
762.601831	-60.387782
762.795868	-62.134738
762.990004	-60.052637
763.184239	-61.213537
763.378573	-59.209897
763.573006	-62.648463
763.767538	-60.318174
763.962169	-68.101442
764.156900	-60.578512
764.351729	-59.601161
764.546658	-65.258133
764.741687	-61.401269
764.936815	-62.417134
765.132042	-63.056828
765.327370	-66.023302
765.522797	-59.412231
765.718324	-64.708176
765.913950	-63.223490
766.109677	-63.366484
766.305504	-63.519598
766.501431	-60.906223
766.697458	-63.466357
766.893586	-61.406078
767.089814	-66.462188
767.286142	-60.049030
767.482571	-59.359925
767.679100	-61.159981
767.875730	-60.214377
768.072461	-62.507242
768.269293	-58.824383
768.466225	-62.128956
768.663259	-61.247753
768.860393	-62.118572
769.057629	-60.329648
769.254966	-56.842030
769.452404	-58.031473
769.649944	-59.827768
769.847585	-62.099112
770.045328	-59.937214
770.243172	-60.294177
770.441118	-55.494225
770.639166	-57.490871
770.837315	-59.718788
771.035567	-59.784810
771.233920	-58.929484
771.432376	-56.710465
771.630934	-57.489644
771.829594	-56.263956
772.028356	-61.285348
772.227220	-58.723262
772.426188	-59.498619
772.625257	-57.412451
772.824430	-57.571277
773.023705	-58.296744
773.223083	-58.003047
773.422563	-58.394355
773.622147	-56.293535
773.821834	-59.278149
774.021624	-59.256834
774.221517	-58.283982
774.421513	-57.892933
774.621613	-57.361599
774.821816	-58.902476
775.022122	-59.361385
775.222532	-59.617413
775.423046	-57.279451
775.623664	-58.046702
775.824385	-57.062304
776.025211	-58.628352
776.226140	-56.607068
776.427173	-55.781746
776.628311	-56.818600
776.829553	-55.072114
777.030899	-56.498139
777.232350	-56.405545
777.433905	-56.998004
777.635564	-55.069585
777.837328	-55.163741
778.039197	-54.329457
778.241171	-53.330246
778.443250	-55.317984
778.645433	-54.330309
778.847722	-55.688375
779.050116	-55.566897
779.252615	-57.576102
779.455219	-56.077255
779.657929	-57.210537
779.860744	-55.131526
780.063665	-56.302834
780.266691	-55.403977
780.469823	-55.871126
780.673061	-57.619406
780.876405	-54.826539
781.079855	-54.912665
781.283410	-54.260530
781.487072	-55.538127
781.690840	-55.083443
781.894715	-56.530785
782.098695	-53.993073
782.302783	-53.560418
782.506976	-53.163750
782.711277	-53.926937
782.915684	-54.026244
783.120198	-52.751439
783.324818	-54.210456
783.529546	-54.151558
783.734381	-54.392793
783.939322	-53.295708
784.144372	-52.819125
784.349528	-53.309346
784.554792	-52.743045
784.760163	-53.791494
784.965642	-55.560438
785.171228	-53.054658
785.376922	-52.832618
785.582724	-54.074868
785.788634	-52.686667
785.994651	-52.889661
786.200777	-52.789390
786.407011	-53.812354
786.613353	-52.401875
786.819804	-52.779200
787.026363	-54.212850
787.233030	-54.231088
787.439806	-51.774397
787.646691	-51.896354
787.853684	-51.652901
788.060786	-51.798475
788.267997	-51.618753
788.475317	-52.704446
788.682746	-52.597174
788.890285	-51.362958
789.097932	-51.691119
789.305689	-51.479032
789.513555	-53.054191
789.721531	-51.498406
789.929617	-50.842897
790.137812	-51.494057
790.346117	-52.294540
790.554531	-51.775814
790.763056	-52.687768
790.971691	-52.058725
791.180436	-52.560886
791.389291	-51.476511
791.598256	-51.315124
791.807332	-50.962305
792.016518	-51.322066
792.225815	-50.610670
792.435222	-51.124321
792.644740	-51.209025
792.854369	-50.798339
793.064109	-50.375625
793.273960	-50.602759
793.483922	-50.993009
793.693995	-50.544892
793.904180	-50.006710
794.114475	-50.008899
794.324882	-49.260126
794.535401	-50.271516
794.746031	-50.067847
794.956774	-50.805913
795.167627	-51.763899
795.378593	-51.771491
795.589671	-51.834577
795.800861	-50.281033
796.012162	-50.902027
796.223577	-50.224826
796.435103	-49.255740
796.646742	-49.284077
796.858493	-49.617512
797.070357	-48.948512
797.282334	-49.661742
797.494423	-49.021167
797.706626	-49.414608
797.918941	-50.639093
798.131369	-50.195235
798.343911	-49.348112
798.556566	-49.778950
798.769334	-49.997943
798.982215	-49.699261
799.195210	-51.019097
799.408319	-50.031098
799.621541	-49.169282
799.834877	-48.433749
800.048327	-48.611669
800.261890	-49.388000
800.475568	-49.510433
800.689360	-50.389414
800.903266	-49.178506
801.117287	-48.772067
801.331422	-49.141879
801.545671	-48.983805
801.760036	-48.494522
801.974514	-49.897981
802.189108	-48.691064
802.403816	-49.115937
802.618640	-49.062463
802.833578	-49.660273
803.048632	-49.077784
803.263800	-49.181041
803.479085	-48.259170
803.694484	-48.556033
803.909999	-48.874782
804.125630	-49.452828
804.341376	-48.710128
804.557239	-48.537854
804.773217	-49.265174
804.989311	-47.940710
805.205521	-48.887060
805.421847	-48.676458
805.638290	-48.463310
805.854849	-48.824803
806.071524	-48.598446
806.288316	-47.905335
806.505225	-48.853424
806.722250	-49.239722
806.939393	-48.824247
807.156652	-48.346972
807.374028	-49.286732
807.591521	-48.363475
807.809132	-48.929941
808.026859	-48.031320
808.244705	-48.497042
808.462667	-47.431127
808.680748	-48.466051
808.898946	-47.986322
809.117261	-48.239939
809.335695	-48.907990
809.554246	-48.495118
809.772916	-47.513701
809.991704	-49.036117
810.210610	-48.477113
810.429634	-48.992382
810.648777	-48.870139
810.868039	-48.258785
811.087419	-48.340797
811.306918	-48.382098
811.526535	-48.100658
811.746272	-47.222645
811.966127	-47.652971
812.186102	-48.302604
812.406196	-47.838935
812.626409	-48.684699
812.846742	-48.580563
813.067194	-47.764014
813.287766	-48.051826
813.508457	-47.769981
813.729269	-48.094590
813.950200	-49.027168
814.171251	-48.470859
814.392422	-47.922968
814.613714	-48.008017
814.835126	-48.256587
815.056658	-47.796782
815.278311	-47.975953
815.500084	-48.209458
815.721978	-48.091998
815.943993	-47.918671
816.166128	-48.085488
816.388385	-46.795280
816.610762	-48.224823
816.833261	-48.080213
817.055881	-48.220044
817.278623	-48.107207
817.501486	-48.080471
817.724471	-47.490682
817.947577	-47.531625
818.170805	-47.368315
818.394155	-47.760473
818.617627	-47.736961
818.841221	-47.709244
819.064937	-47.430454
819.288775	-47.208838
819.512736	-48.372271
819.736819	-47.403838
819.961025	-48.016622
820.185354	-47.189289
820.409805	-47.699222
820.634379	-46.593377
820.859076	-48.516377
821.083897	-47.122466
821.308840	-48.400226
821.533907	-47.262593
821.759097	-47.454565
821.984411	-46.249474
822.209848	-47.831933
822.435409	-46.700474
822.661093	-47.704299
822.886902	-46.934028
823.112834	-47.467243
823.338891	-46.704585
823.565072	-47.465683
823.791377	-46.201067
824.017807	-46.767175
824.244361	-46.668671
824.471039	-47.072524
824.697843	-46.836537
824.924771	-46.759692
825.151824	-46.154991
825.379002	-47.102215
825.606306	-46.621892
825.833734	-46.851969
826.061288	-46.025064
826.288967	-46.400980
826.516772	-45.904831
826.744703	-46.399278
826.972759	-46.567153
827.200941	-46.156375
827.429249	-46.170522
827.657683	-45.326190
827.886243	-46.219199
828.114930	-45.491464
828.343743	-46.327164
828.572682	-45.522682
828.801748	-45.866288
829.030941	-45.184066
829.260260	-45.988832
829.489706	-45.004687
829.719280	-45.805583
829.948980	-45.541712
830.178808	-45.935876
830.408763	-44.882127
830.638845	-45.141568
830.869055	-43.919395
831.099393	-45.519202
831.329858	-45.163629
831.560451	-45.066707
831.791173	-44.414441
832.022022	-44.972859
832.252999	-44.715138
832.484105	-45.271286
832.715339	-44.664019
832.946702	-44.100699
833.178193	-44.514887
833.409813	-44.754244
833.641561	-43.711842
833.873439	-43.980590
834.105445	-43.302591
834.337581	-44.389875
834.569846	-44.224049
834.802241	-44.311331
835.034764	-43.090825
835.267418	-43.856007
835.500201	-43.356675
835.733114	-44.293543
835.966157	-43.755363
836.199329	-43.850504
836.432632	-42.793710
836.666065	-43.932552
836.899629	-42.728290
837.133323	-43.767331
837.367147	-43.022817
837.601102	-43.152261
837.835188	-43.112441
838.069405	-43.379949
838.303752	-43.225583
838.538231	-42.994352
838.772841	-42.467767
839.007582	-42.695475
839.242455	-42.619537
839.477459	-42.917822
839.712595	-42.461526
839.947863	-42.435537
840.183263	-42.139715
840.418794	-42.726468
840.654458	-42.123457
840.890254	-42.645519
841.126182	-42.065010
841.362242	-42.359662
841.598435	-41.835070
841.834761	-42.316225
842.071220	-41.792208
842.307811	-41.958160
842.544536	-42.446074
842.781393	-41.316925
843.018384	-41.853270
843.255508	-41.751911
843.492765	-41.558324
843.730156	-41.916057
843.967681	-41.848363
844.205339	-41.091582
844.443132	-41.399638
844.681058	-41.581559
844.919118	-41.106781
845.157313	-41.735841
845.395642	-41.162254
845.634105	-40.844409
845.872703	-41.485099
846.111436	-40.857574
846.350303	-41.271078
846.589306	-41.448119
846.828443	-40.841510
847.067716	-41.047519
847.307124	-40.729175
847.546667	-40.798614
847.786345	-40.602102
848.026160	-41.586563
848.266110	-40.359346
848.506195	-40.651769
848.746417	-40.710765
848.986775	-40.524196
849.227269	-40.693021
849.467899	-41.074662
849.708666	-40.047102
849.949569	-40.618836
850.190609	-40.475052
850.431785	-40.539880
850.673099	-40.310582
850.914549	-40.790240
851.156137	-40.009638
851.397861	-40.369365
851.639723	-40.835128
851.881723	-39.803890
852.123860	-40.153729
852.366135	-40.626001
852.608547	-39.302090
852.851098	-40.445874
853.093786	-40.179619
853.336613	-39.472705
853.579578	-39.930532
853.822681	-40.489432
854.065923	-39.275230
854.309304	-40.458949
854.552823	-40.066026
854.796481	-39.512589
855.040278	-39.416765
855.284215	-40.524726
855.528290	-39.294427
855.772505	-39.792468
856.016859	-40.155133
856.261353	-39.483690
856.505987	-39.065894
856.750760	-40.365688
856.995673	-39.177184
857.240727	-39.445426
857.485920	-39.430267
857.731254	-39.925588
857.976729	-38.911256
858.222343	-39.729192
858.468099	-39.432783
858.713995	-39.596676
858.960032	-39.144966
859.206211	-39.652470
859.452530	-39.084628
859.698991	-39.284392
859.945593	-39.217761
860.192336	-39.616417
860.439222	-39.070746
860.686248	-39.241206
860.933417	-38.713456
861.180728	-39.551557
861.428181	-38.553363
861.675776	-39.115192
861.923514	-39.408699
862.171394	-39.084924
862.419417	-38.802143
862.667582	-39.691450
862.915890	-38.716011
863.164342	-38.851790
863.412936	-38.852069
863.661674	-39.009601
863.910555	-38.509839
864.159579	-39.216116
864.408747	-38.865190
864.658059	-38.910996
864.907515	-38.816832
865.157114	-38.725648
865.406858	-38.777200
865.656746	-38.563301
865.906778	-38.456107
866.156955	-38.918437
866.407277	-39.127008
866.657743	-38.378884
866.908354	-38.833960
867.159110	-38.364328
867.410011	-38.432831
867.661057	-38.373944
867.912249	-39.015617
868.163586	-37.976192
868.415069	-38.391793
868.666697	-38.497482
868.918472	-38.377252
869.170392	-38.239139
869.422458	-39.042474
869.674671	-37.942175
869.927030	-38.581909
870.179536	-38.257343
870.432188	-38.099344
870.684987	-37.943704
870.937933	-38.469562
871.191026	-37.607800
871.444266	-38.498686
871.697653	-38.351925
871.951188	-38.194510
872.204870	-38.020912
872.458700	-38.445160
872.712677	-37.663974
872.966803	-37.862564
873.221076	-38.121449
873.475498	-37.783931
873.730068	-37.667612
873.984787	-38.248399
874.239654	-37.706120
874.494669	-37.656953
874.749834	-38.255909
875.005147	-37.812713
875.260610	-37.564139
875.516222	-37.555865
875.771983	-37.641536
876.027894	-37.317887
876.283954	-37.812051
876.540164	-37.389740
876.796524	-37.698117
877.053033	-37.385762
877.309693	-37.465499
877.566503	-37.106237
877.823464	-37.353387
878.080575	-37.015093
878.337837	-37.449643
878.595249	-37.253704
878.852813	-37.111703
879.110528	-36.802997
879.368393	-37.011792
879.626410	-36.847482
879.884579	-36.998254
880.142899	-36.787279
880.401371	-37.068230
880.659994	-36.679394
880.918770	-36.580744
881.177698	-36.534473
881.436778	-37.033172
881.696010	-36.390077
881.955395	-36.584038
882.214933	-36.604416
882.474623	-36.293815
882.734467	-36.158246
882.994463	-36.385512
883.254613	-36.564923
883.514916	-36.035388
883.775372	-36.130263
884.035982	-36.212778
884.296746	-36.100737
884.557664	-35.691642
884.818735	-36.341023
885.079961	-35.783629
885.341341	-35.750551
885.602876	-35.661612
885.864565	-35.976682
886.126409	-35.513407
886.388407	-35.823415
886.650561	-35.480593
886.912870	-35.632102
887.175334	-35.259252
887.437953	-35.534046
887.700728	-35.195104
887.963658	-35.567172
888.226745	-34.955988
888.489987	-35.247022
888.753385	-35.193018
889.016940	-35.117976
889.280651	-34.884177
889.544518	-35.109806
889.808543	-34.996252
890.072723	-34.635677
890.337061	-34.757392
890.601556	-34.726451
890.866208	-34.715849
891.131017	-34.638950
891.395984	-34.820244
891.661109	-34.206642
891.926391	-34.554048
892.191831	-34.190218
892.457429	-34.521095
892.723186	-34.025595
892.989100	-34.364919
893.255173	-33.994377
893.521405	-34.364385
893.787796	-33.982841
894.054345	-33.903679
894.321053	-33.816521
894.587921	-34.063738
894.854948	-33.660669
895.122134	-33.924280
895.389480	-33.661903
895.656986	-33.588907
895.924651	-33.747303
896.192477	-33.557815
896.460463	-33.488115
896.728609	-33.394079
896.996915	-33.513945
897.265382	-33.187733
897.534010	-33.563124
897.802799	-33.154271
898.071749	-33.281847
898.340860	-33.118161
898.610132	-33.320311
898.879566	-32.960551
899.149162	-33.215761
899.418919	-32.968537
899.688838	-32.855236
899.958919	-32.900161
900.229162	-33.082390
900.499568	-32.633717
900.770136	-32.838406
901.040867	-32.720410
901.311761	-32.704955
901.582817	-32.611827
901.854037	-32.511288
902.125420	-32.690420
902.396966	-32.504657
902.668676	-32.351259
902.940550	-32.470349
903.212587	-32.534858
903.484788	-32.200990
903.757153	-32.331984
904.029683	-32.301137
904.302377	-32.082511
904.575236	-32.230799
904.848259	-32.171808
905.121447	-31.957731
905.394800	-32.029744
905.668319	-32.238375
905.942002	-31.732853
906.215852	-31.983560
906.489866	-32.042091
906.764047	-31.578263
907.038393	-31.850996
907.312906	-31.840414
907.587584	-31.721820
907.862429	-31.501619
908.137441	-31.756963
908.412619	-31.632748
908.687964	-31.619637
908.963476	-31.345834
909.239155	-31.888223
909.515002	-31.287584
909.791015	-31.383667
910.067197	-31.459195
910.343546	-31.520052
910.620063	-31.088642
910.896748	-31.363948
911.173601	-31.475043
911.450623	-30.965784
911.727813	-31.296890
912.005171	-31.113784
912.282699	-31.111457
912.560395	-31.048093
912.838261	-31.122640
913.116296	-30.826701
913.394500	-31.174569
913.672874	-30.667635
913.951418	-31.049436
914.230131	-30.797280
914.509015	-30.841104
914.788068	-30.732679
915.067292	-30.866397
915.346687	-30.672002
915.626252	-30.641251
915.905988	-30.698933
916.185895	-30.601883
916.465973	-30.615311
916.746223	-30.382499
917.026644	-30.794880
917.307236	-30.422075
917.588000	-30.238886
917.868937	-30.673652
918.150045	-30.317522
918.431325	-30.223399
918.712778	-30.468600
918.994404	-30.300691
919.276202	-30.156111
919.558173	-30.416539
919.840317	-30.269248
920.122634	-30.175733
920.405125	-30.185531
920.687789	-30.231842
920.970627	-30.254586
921.253639	-30.098684
921.536824	-30.140018
921.820184	-30.172026
922.103718	-30.021396
922.387427	-30.301126
922.671310	-29.886992
922.955368	-30.162694
923.239601	-29.977830
923.524009	-29.843519
923.808592	-30.172836
924.093351	-29.956352
924.378285	-29.694104
924.663396	-30.112930
924.948682	-29.884555
925.234144	-29.731685
925.519782	-29.924158
925.805597	-29.860175
926.091589	-29.834549
926.377757	-29.647689
926.664102	-29.968341
926.950624	-29.734590
927.237323	-29.724334
927.524200	-29.862959
927.811255	-29.680413
928.098487	-29.808072
928.385897	-29.697678
928.673485	-29.507231
928.961251	-30.014466
929.249196	-29.434249
929.537319	-29.635337
929.825621	-29.768133
930.114102	-29.536449
930.402762	-29.480347
930.691601	-29.620696
930.980620	-29.664392
931.269818	-29.373110
931.559196	-29.605448
931.848753	-29.567786
932.138491	-29.434646
932.428409	-29.574391
932.718508	-29.400319
933.008787	-29.636964
933.299246	-29.628524
933.589887	-29.161182
933.880709	-29.902180
934.171712	-29.390673
934.462896	-29.585984
934.754262	-29.419759
935.045810	-29.758051
935.337539	-29.406388
935.629451	-29.561059
935.921545	-29.501310
936.213822	-29.537930
936.506281	-29.648928
936.798922	-29.258336
937.091747	-29.580549
937.384755	-29.613660
937.677946	-29.197135
937.971321	-29.567033
938.264879	-29.440251
938.558621	-29.394030
938.852547	-29.403605
939.146657	-29.337996
939.440952	-29.534372
939.735431	-29.340258
940.030095	-29.370679
940.324943	-29.411894
940.619977	-29.676164
940.915196	-29.008964
941.210600	-29.647093
941.506189	-29.318911
941.801965	-29.544796
942.097926	-29.316734
942.394074	-29.360067
942.690407	-29.543235
942.986927	-29.186100
943.283634	-29.310949
943.580527	-29.371762
943.877608	-29.464101
944.174875	-29.115582
944.472330	-29.345533
944.769972	-29.045057
945.067802	-29.544582
945.365820	-28.833880
945.664026	-29.275577
945.962420	-29.212790
946.261002	-29.110500
946.559773	-29.029944
946.858733	-29.124561
947.157881	-29.051342
947.457219	-29.209610
947.756746	-28.845491
948.056462	-29.263230
948.356368	-29.057262
948.656464	-29.067160
948.956749	-29.138859
949.257225	-28.974385
949.557891	-29.304761
949.858748	-28.848463
950.159796	-29.190863
950.461034	-29.195039
950.762463	-29.046334
951.064084	-29.105290
951.365896	-29.066698
951.667900	-29.267804
951.970095	-29.056701
952.272483	-28.910223
952.575063	-29.194393
952.877835	-29.066397
953.180799	-29.120678
953.483956	-28.905642
953.787307	-29.100064
954.090850	-29.285389
954.394586	-28.784093
954.698516	-29.193518
955.002640	-28.919571
955.306957	-29.380657
955.611469	-28.793997
955.916174	-29.225781
956.221074	-29.018812
956.526169	-29.288198
956.831458	-28.979413
957.136942	-29.109045
957.442622	-29.318240
957.748496	-29.056007
958.054567	-29.150326
958.360833	-29.070286
958.667294	-29.348412
958.973952	-29.073520
959.280806	-29.131643
959.587857	-29.092258
959.895104	-29.272988
960.202548	-29.157368
960.510189	-28.957225
960.818027	-29.214031
961.126062	-29.092275
961.434295	-29.135569
961.742726	-28.925694
962.051355	-29.131077
962.360182	-29.119566
962.669207	-28.995647
962.978431	-28.969817
963.287854	-29.042832
963.597475	-29.148008
963.907296	-28.904026
964.217315	-29.034139
964.527535	-28.972321
964.837954	-29.179867
965.148573	-28.868611
965.459392	-29.019389
965.770411	-29.033133
966.081630	-29.058452
966.393051	-28.876047
966.704672	-28.934591
967.016494	-28.997351
967.328517	-29.003118
967.640742	-28.731167
967.953169	-28.858787
968.265797	-28.876057
968.578627	-28.893099
968.891660	-28.594043
969.204895	-28.725384
969.518332	-28.727706
969.831972	-28.738613
970.145816	-28.437736
970.459862	-28.616866
970.774112	-28.504674
971.088565	-28.618558
971.403223	-28.317504
971.718084	-28.451510
972.033149	-28.387811
972.348419	-28.464611
972.663893	-28.238897
972.979572	-28.330479
973.295456	-28.288795
973.611546	-28.340751
973.927840	-28.219142
974.244340	-28.199153
974.561046	-28.282171
974.877958	-28.215986
975.195076	-28.206579
975.512401	-28.084482
975.829932	-28.272915
976.147670	-28.160963
976.465615	-28.081162
976.783767	-28.055946
977.102126	-28.172336
977.420693	-28.142825
977.739468	-27.943447
978.058451	-27.979518
978.377642	-28.094758
978.697041	-28.020091
979.016649	-27.901319
979.336466	-27.783376
979.656492	-28.037854
979.976727	-27.867303
980.297171	-27.833970
980.617825	-27.634167
980.938689	-27.849323
981.259763	-27.799080
981.581048	-27.669544
981.902542	-27.593301
982.224248	-27.610078
982.546164	-27.700903
982.868291	-27.540127
983.190630	-27.487319
983.513180	-27.445784
983.835942	-27.585246
984.158916	-27.414510
984.482101	-27.383118
984.805500	-27.305510
985.129110	-27.455396
985.452934	-27.307740
985.776970	-27.270151
986.101220	-27.188940
986.425683	-27.329028
986.750359	-27.183167
987.075250	-27.150860
987.400354	-27.074083
987.725673	-27.166941
988.051206	-27.091500
988.376954	-26.992147
988.702916	-26.964284
989.029094	-26.938614
989.355487	-27.002597
989.682095	-26.819643
990.008919	-26.783198
990.335959	-26.777593
990.663216	-26.827976
990.990688	-26.639286
991.318377	-26.589028
991.646283	-26.563632
991.974406	-26.625387
992.302746	-26.438752
992.631304	-26.407519
992.960079	-26.318496
993.289072	-26.381692
993.618283	-26.276362
993.947713	-26.164107
994.277361	-26.099743
994.607227	-26.126925
994.937313	-26.115002
995.267618	-25.915067
995.598142	-25.932796
995.928886	-25.860975
996.259849	-25.926017
996.591033	-25.744706
996.922437	-25.702198
997.254061	-25.658120
997.585906	-25.763603
997.917972	-25.582734
998.250260	-25.513225
998.582768	-25.481639
998.915498	-25.569092
999.248450	-25.457006
999.581624	-25.346963
999.915020	-25.296839
1000.248639	-25.391298
1000.582480	-25.357409
1000.916545	-25.182328
1001.250832	-25.180258
1001.585343	-25.172549
1001.920077	-25.244703
1002.255035	-25.064127
1002.590218	-25.024608
1002.925624	-25.002304
1003.261255	-25.088964
1003.597111	-24.949421
1003.933192	-24.901403
1004.269497	-24.828440
1004.606029	-24.903759
1004.942785	-24.844778
1005.279768	-24.763048
1005.616977	-24.670509
1005.954412	-24.716164
1006.292074	-24.721547
1006.629962	-24.630050
1006.968077	-24.535190
1007.306420	-24.521968
1007.644990	-24.599568
1007.983787	-24.470613
1008.322813	-24.418425
1008.662067	-24.326630
1009.001549	-24.436438
1009.341259	-24.338887
1009.681199	-24.273105
1010.021367	-24.169456
1010.361765	-24.222639
1010.702392	-24.205508
1011.043250	-24.145313
1011.384337	-23.992078
1011.725654	-24.015091
1012.067202	-24.040861
1012.408980	-23.999991
1012.750989	-23.840607
1013.093230	-23.800896
1013.435702	-23.849217
1013.778405	-23.808147
1014.121341	-23.730318
1014.464508	-23.596316
1014.807908	-23.631153
1015.151540	-23.613617
1015.495405	-23.604832
1015.839503	-23.416610
1016.183835	-23.422739
1016.528400	-23.420669
1016.873198	-23.427751
1017.218231	-23.285237
1017.563498	-23.242922
1017.908999	-23.207682
1018.254735	-23.253267
1018.600707	-23.167722
1018.946913	-23.075252
1019.293354	-23.021946
1019.640032	-23.071120
1019.986945	-23.026261
1020.334094	-22.944053
1020.681480	-22.863264
1021.029102	-22.851110
1021.376961	-22.890102
1021.725058	-22.819676
1022.073391	-22.731714
1022.421962	-22.661105
1022.770772	-22.699790
1023.119819	-22.672966
1023.469104	-22.639474
1023.818628	-22.497316
1024.168391	-22.505070
1024.518393	-22.508957
1024.868634	-22.510077
1025.219115	-22.390855
1025.569836	-22.333448
1025.920796	-22.334819
1026.271997	-22.373384
1026.623438	-22.279371
1026.975121	-22.203611
1027.327044	-22.196833
1027.679208	-22.222738
1028.031614	-22.190969
1028.384262	-22.103859
1028.737152	-22.079189
1029.090284	-22.079903
1029.443659	-22.101149
1029.797276	-22.037950
1030.151137	-22.005742
1030.505240	-21.947855
1030.859587	-22.014183
1031.214178	-21.974658
1031.569013	-21.942855
1031.924093	-21.850359
1032.279417	-21.906345
1032.634985	-21.918536
1032.990799	-21.874833
1033.346858	-21.780434
1033.703162	-21.784398
1034.059712	-21.801279
1034.416509	-21.817171
1034.773551	-21.739403
1035.130841	-21.678715
1035.488377	-21.643240
1035.846160	-21.695866
1036.204190	-21.672705
1036.562468	-21.581497
1036.920994	-21.524615
1037.279768	-21.536517
1037.638790	-21.552025
1037.998061	-21.479755
1038.357581	-21.430423
1038.717350	-21.356655
1039.077368	-21.390917
1039.437636	-21.382936
1039.798154	-21.339017
1040.158922	-21.229323
1040.519940	-21.231186
1040.881209	-21.223527
1041.242729	-21.220761
1041.604501	-21.141939
1041.966524	-21.093420
1042.328798	-21.057242
1042.691325	-21.082147
1043.054103	-21.024331
1043.417135	-20.971250
1043.780419	-20.912971
1044.143956	-20.915347
1044.507746	-20.898805
1044.871791	-20.866840
1045.236088	-20.779876
1045.600641	-20.752876
1045.965447	-20.763067
1046.330508	-20.742986
1046.695824	-20.688525
1047.061395	-20.627401
1047.427222	-20.622650
1047.793304	-20.641729
1048.159642	-20.611273
1048.526237	-20.533060
1048.893088	-20.518258
1049.260196	-20.528238
1049.627561	-20.548031
1049.995183	-20.467677
1050.363063	-20.428709
1050.731201	-20.434669
1051.099597	-20.484223
1051.468251	-20.441360
1051.837164	-20.390134
1052.206336	-20.343363
1052.575767	-20.395415
1052.945458	-20.394615
1053.315409	-20.388350
1053.685619	-20.319954
1054.056090	-20.316018
1054.426821	-20.337291
1054.797814	-20.369656
1055.169067	-20.316026
1055.540582	-20.270909
1055.912359	-20.253363
1056.284398	-20.310925
1056.656698	-20.314203
1057.029262	-20.257556
1057.402088	-20.200458
1057.775177	-20.218569
1058.148530	-20.248858
1058.522146	-20.245602
1058.896027	-20.181656
1059.270171	-20.138478
1059.644580	-20.144449
1060.019254	-20.180561
1060.394193	-20.163690
1060.769397	-20.069388
1061.144867	-20.044580
1061.520602	-20.058987
1061.896604	-20.073585
1062.272872	-20.006858
1062.649407	-19.945456
1063.026210	-19.909888
1063.403279	-19.923585
1063.780616	-19.924145
1064.158221	-19.852066
1064.536094	-19.766379
1064.914235	-19.777289
1065.292645	-19.758907
1065.671325	-19.751157
1066.050273	-19.657722
1066.429491	-19.617742
1066.808979	-19.592850
1067.188738	-19.609090
1067.568766	-19.552474
1067.949066	-19.484751
1068.329636	-19.426299
1068.710478	-19.438925
1069.091592	-19.419928
1069.472977	-19.395709
1069.854635	-19.295168
1070.236565	-19.287895
1070.618768	-19.296458
1071.001243	-19.296295
1071.383993	-19.236165
1071.767016	-19.190382
1072.150313	-19.175591
1072.533884	-19.213233
1072.917730	-19.189356
1073.301850	-19.165893
1073.686246	-19.114981
1074.070917	-19.128515
1074.455864	-19.148027
1074.841087	-19.152854
1075.226586	-19.113469
1075.612362	-19.084967
1075.998415	-19.095033
1076.384745	-19.134537
1076.771353	-19.127813
1077.158238	-19.109182
1077.545401	-19.071418
1077.932843	-19.097986
1078.320564	-19.139392
1078.708564	-19.140729
1079.096842	-19.097258
1079.485401	-19.074522
1079.874240	-19.117017
1080.263358	-19.138963
1080.652757	-19.113867
1081.042438	-19.073780
1081.432399	-19.072260
1081.822641	-19.073813
1082.213166	-19.090874
1082.603972	-19.061529
1082.995061	-19.017250
1083.386433	-18.997304
1083.778087	-19.007663
1084.170025	-19.016781
1084.562246	-18.970182
1084.954751	-18.921698
1085.347541	-18.920627
1085.740615	-18.917491
1086.133973	-18.909262
1086.527617	-18.846910
1086.921546	-18.821733
1087.315761	-18.785601
1087.710262	-18.775101
1088.105050	-18.745962
1088.500124	-18.681949
1088.895485	-18.609470
1089.291134	-18.597821
1089.687070	-18.546787
1090.083294	-18.506255
1090.479806	-18.412569
1090.876607	-18.376264
1091.273696	-18.318290
1091.671075	-18.296679
1092.068744	-18.229564
1092.466702	-18.167625
1092.864950	-18.120169
1093.263489	-18.103474
1093.662319	-18.066670
1094.061440	-18.036200
1094.460852	-17.969414
1094.860555	-17.964917
1095.260551	-17.948328
1095.660840	-17.940307
1096.061421	-17.895402
1096.462295	-17.875155
1096.863462	-17.861930
1097.264923	-17.871021
1097.666678	-17.851123
1098.068727	-17.837847
1098.471071	-17.805346
1098.873710	-17.829875
1099.276644	-17.827567
1099.679874	-17.836652
1100.083400	-17.813880
1100.487222	-17.829509
1100.891340	-17.846290
1101.295756	-17.880294
1101.700468	-17.891053
1102.105478	-17.906616
1102.510787	-17.919418
1102.916393	-17.973265
1103.322298	-17.997262
1103.728502	-18.043352
1104.135005	-18.033428
1104.541807	-18.067892
1104.948909	-18.093056
1105.356312	-18.126430
1105.764015	-18.129882
1106.172019	-18.103436
1106.580324	-18.091362
1106.988931	-18.113121
1107.397840	-18.078659
1107.807051	-18.059102
1108.216564	-17.972771
1108.626380	-17.965312
1109.036500	-17.920077
1109.446923	-17.883733
1109.857649	-17.807164
1110.268680	-17.752873
1110.680016	-17.699811
1111.091657	-17.672783
1111.503602	-17.618565
1111.915854	-17.565698
1112.328411	-17.502912
1112.741275	-17.474693
1113.154445	-17.453420
1113.567922	-17.409055
1113.981706	-17.349432
1114.395798	-17.319807
1114.810198	-17.276820
1115.224906	-17.257645
1115.639923	-17.201452
1116.055249	-17.155936
1116.470884	-17.083429
1116.886829	-17.059085
1117.303084	-17.013768
1117.719650	-16.949410
1118.136526	-16.878349
1118.553713	-16.833355
1118.971212	-16.779670
1119.389022	-16.744319
1119.807145	-16.694364
1120.225580	-16.635557
1120.644328	-16.594101
1121.063389	-16.602805
1121.482763	-16.559424
1121.902452	-16.556631
1122.322454	-16.533269
1122.742771	-16.538962
1123.163404	-16.559568
1123.584351	-16.589179
1124.005614	-16.580448
1124.427193	-16.616889
1124.849089	-16.638625
1125.271301	-16.687427
1125.693830	-16.717083
1126.116677	-16.730974
1126.539842	-16.755887
1126.963324	-16.790435
1127.387126	-16.801428
1127.811246	-16.825401
1128.235685	-16.810403
1128.660444	-16.802935
1129.085522	-16.803757
1129.510922	-16.784523
1129.936641	-16.746903
1130.362682	-16.727329
1130.789044	-16.673470
1131.215728	-16.627796
1131.642734	-16.598613
1132.070063	-16.545150
1132.497714	-16.494786
1132.925689	-16.443415
1133.353987	-16.372927
1133.782610	-16.368381
1134.211556	-16.334163
1134.640827	-16.255068
1135.070424	-16.222399
1135.500345	-16.205902
1135.930593	-16.213372
1136.361166	-16.172854
1136.792067	-16.112209
1137.223294	-16.126862
1137.654848	-16.148421
1138.086730	-16.124515
1138.518940	-16.099873
1138.951479	-16.092708
1139.384346	-16.105346
1139.817543	-16.097449
1140.251069	-16.099916
1140.684925	-16.082655
1141.119111	-16.054783
1141.553628	-16.041484
1141.988475	-16.059001
1142.423655	-16.035142
1142.859166	-15.977526
1143.295009	-15.944797
1143.731185	-15.949106
1144.167694	-15.917195
1144.604536	-15.869142
1145.041711	-15.811789
1145.479221	-15.799691
1145.917065	-15.766326
1146.355245	-15.709641
1146.793759	-15.677292
1147.232609	-15.670319
1147.671795	-15.602106
1148.111317	-15.562782
1148.551177	-15.577447
1148.991373	-15.549292
1149.431907	-15.482905
1149.872779	-15.491573
1150.313989	-15.495990
1150.755538	-15.464151
1151.197426	-15.451496
1151.639653	-15.460183
1152.082220	-15.445527
1152.525128	-15.453651
1152.968376	-15.459624
1153.411966	-15.445891
1153.855897	-15.445347
1154.300169	-15.467867
1154.744784	-15.473380
1155.189742	-15.456825
1155.635042	-15.449599
1156.080687	-15.454287
1156.526674	-15.468575
1156.973007	-15.462756
1157.419683	-15.428138
1157.866705	-15.402719
1158.314072	-15.410655
1158.761786	-15.408340
1159.209845	-15.377219
1159.658251	-15.319549
1160.107004	-15.292786
1160.556104	-15.287233
1161.005553	-15.272764
1161.455349	-15.212244
1161.905494	-15.149986
1162.355989	-15.123889
1162.806832	-15.122782
1163.258026	-15.082148
1163.709570	-15.012547
1164.161464	-14.954002
1164.613710	-14.946626
1165.066307	-14.945813
1165.519256	-14.900543
1165.972558	-14.825639
1166.426212	-14.782882
1166.880219	-14.799777
1167.334580	-14.799624
1167.789295	-14.753059
1168.244364	-14.691779
1168.699788	-14.669731
1169.155567	-14.699907
1169.611702	-14.703976
1170.068193	-14.656751
1170.525041	-14.622151
1170.982245	-14.620922
1171.439807	-14.650751
1171.897726	-14.640166
1172.356004	-14.616212
1172.814640	-14.595349
1173.273635	-14.622321
1173.732989	-14.627451
1174.192703	-14.604744
1174.652778	-14.591649
1175.113213	-14.605069
1175.574009	-14.624248
1176.035167	-14.607835
1176.496687	-14.568299
1176.958569	-14.564679
1177.420814	-14.604966
1177.883422	-14.603153
1178.346394	-14.563394
1178.809730	-14.517801
1179.273430	-14.521217
1179.737496	-14.554562
1180.201927	-14.554540
1180.666723	-14.490499
1181.131886	-14.443549
1181.597416	-14.447882
1182.063312	-14.471258
1182.529576	-14.461836
1182.996209	-14.417860
1183.463209	-14.357272
1183.930579	-14.338903
1184.398317	-14.373175
1184.866426	-14.374055
1185.334904	-14.328754
1185.803754	-14.264212
1186.272974	-14.233637
1186.742566	-14.263132
1187.212529	-14.298243
1187.682865	-14.240378
1188.153574	-14.156581
1188.624656	-14.132760
1189.096112	-14.181795
1189.567942	-14.199556
1190.040147	-14.141814
1190.512726	-14.048818
1190.985681	-14.034291
1191.459012	-14.092678
1191.932720	-14.092437
1192.406804	-14.008228
1192.881265	-13.939927
1193.356104	-13.943910
1193.831322	-13.975907
1194.306918	-13.962454
1194.782893	-13.876683
1195.259248	-13.824497
1195.735982	-13.845226
1196.213097	-13.861344
1196.690593	-13.814091
1197.168471	-13.756297
1197.646730	-13.728245
1198.125371	-13.743276
1198.604395	-13.741862
1199.083803	-13.699679
1199.563594	-13.650742
1200.043769	-13.648194
1200.524329	-13.663198
1201.005273	-13.645059
1201.486604	-13.605537
1201.968320	-13.589130
1202.450422	-13.597524
1202.932912	-13.592758
1203.415789	-13.582798
1203.899054	-13.556002
1204.382707	-13.548455
1204.866748	-13.563467
1205.351179	-13.557590
1205.836000	-13.536138
1206.321211	-13.534195
1206.806812	-13.535198
1207.292805	-13.535000
1207.779189	-13.536208
1208.265965	-13.520427
1208.753134	-13.519856
1209.240696	-13.522953
1209.728651	-13.524974
1210.217000	-13.510325
1210.705744	-13.508204
1211.194883	-13.510597
1211.684417	-13.499889
1212.174347	-13.494668
1212.664673	-13.496122
1213.155396	-13.477195
1213.646516	-13.474612
1214.138034	-13.467303
1214.629951	-13.455244
1215.122266	-13.441006
1215.614980	-13.436808
1216.108095	-13.416062
1216.601609	-13.396001
1217.095524	-13.396676
1217.589841	-13.375337
1218.084559	-13.347477
1218.579679	-13.334611
1219.075202	-13.322153
1219.571128	-13.300954
1220.067458	-13.276977
1220.564191	-13.254291
1221.061330	-13.232058
1221.558874	-13.224232
1222.056823	-13.194916
1222.555178	-13.165417
1223.053940	-13.144052
1223.553109	-13.136282
1224.052686	-13.110725
1224.552671	-13.079555
1225.053065	-13.054858
1225.553867	-13.049017
1226.055079	-13.027944
1226.556702	-12.995390
1227.058735	-12.975992
1227.561179	-12.962727
1228.064035	-12.946106
1228.567303	-12.929006
1229.070983	-12.895991
1229.575077	-12.883046
1230.079585	-12.883655
1230.584506	-12.857005
1231.089842	-12.825497
1231.595594	-12.824307
1232.101761	-12.815596
1232.608345	-12.796000
1233.115345	-12.770880
1233.622762	-12.767387
1234.130597	-12.760108
1234.638851	-12.739223
1235.147523	-12.730504
1235.656615	-12.715193
1236.166126	-12.707366
1236.676058	-12.703255
1237.186411	-12.687383
1237.697185	-12.672317
1238.208381	-12.670199
1238.719999	-12.670483
1239.232040	-12.650603
1239.744505	-12.638924
1240.257394	-12.644098
1240.770708	-12.639628
1241.284446	-12.621345
1241.798610	-12.618982
1242.313201	-12.620077
1242.828218	-12.614080
1243.343662	-12.603644
1243.859534	-12.602819
1244.375834	-12.598075
1244.892563	-12.596948
1245.409721	-12.591644
1245.927309	-12.584248
1246.445327	-12.581944
1246.963777	-12.584915
1247.482657	-12.576487
1248.001970	-12.564889
1248.521716	-12.569887
1249.041894	-12.568703
1249.562506	-12.555287
1250.083553	-12.547214
1250.605034	-12.553232
1251.126950	-12.544517
1251.649302	-12.529460
1252.172091	-12.526360
1252.695316	-12.526042
1253.218979	-12.511843
1253.743079	-12.498904
1254.267619	-12.496820
1254.792597	-12.487891
1255.318015	-12.471928
1255.843874	-12.463702
1256.370173	-12.454944
1256.896913	-12.441121
1257.424095	-12.429402
1257.951720	-12.418876
1258.479787	-12.404262
1259.008298	-12.392986
1259.537254	-12.381829
1260.066654	-12.366647
1260.596499	-12.352027
1261.126790	-12.344773
1261.657527	-12.329964
1262.188711	-12.312348
1262.720342	-12.304220
1263.252422	-12.295363
1263.784950	-12.277387
1264.317928	-12.263259
1264.851355	-12.259915
1265.385232	-12.246608
1265.919560	-12.228505
1266.454340	-12.221842
1266.989572	-12.217821
1267.525256	-12.200581
1268.061394	-12.186999
1268.597985	-12.186577
1269.135031	-12.176582
1269.672531	-12.159778
1270.210487	-12.153863
1270.748899	-12.152578
1271.287768	-12.137732
1271.827094	-12.125663
1272.366877	-12.125134
1272.907119	-12.117471
1273.447820	-12.103545
1273.988981	-12.097028
1274.530601	-12.095478
1275.072683	-12.083956
1275.615226	-12.073397
1276.158230	-12.070630
1276.701697	-12.064648
1277.245627	-12.053109
1277.790021	-12.047166
1278.334879	-12.043966
1278.880202	-12.033706
1279.425991	-12.027222
1279.972245	-12.023171
1280.518966	-12.015745
1281.066155	-12.008483
1281.613811	-12.004492
1282.161936	-11.999585
1282.710529	-11.990446
1283.259593	-11.988136
1283.809126	-11.984692
1284.359131	-11.976392
1284.909607	-11.971204
1285.460555	-11.971357
1286.011976	-11.965727
1286.563870	-11.956656
1287.116237	-11.957129
1287.669080	-11.956313
1288.222397	-11.947118
1288.776191	-11.942012
1289.330460	-11.945231
1289.885207	-11.940547
1290.440431	-11.929578
1290.996133	-11.931067
1291.552314	-11.932072
1292.108975	-11.922376
1292.666115	-11.914768
1293.223737	-11.919384
1293.781839	-11.915003
1294.340424	-11.902179
1294.899491	-11.901669
1295.459041	-11.903799
1296.019075	-11.893268
1296.579593	-11.883061
1297.140597	-11.886294
1297.702086	-11.883294
1298.264061	-11.868696
1298.826524	-11.865650
1299.389474	-11.867690
1299.952912	-11.858863
1300.516839	-11.846267
1301.081255	-11.847466
1301.646162	-11.848166
1302.211559	-11.832736
1302.777448	-11.827498
1303.343829	-11.831714
1303.910702	-11.824972
1304.478069	-11.811443
1305.045930	-11.813509
1305.614285	-11.815818
1306.183136	-11.803036
1306.752483	-11.797339
1307.322326	-11.802454
1307.892666	-11.799012
1308.463504	-11.786954
1309.034841	-11.788270
1309.606677	-11.793113
1310.179012	-11.782739
1310.751849	-11.776913
1311.325186	-11.782622
1311.899025	-11.781465
1312.473366	-11.770423
1313.048211	-11.771515
1313.623559	-11.776895
1314.199412	-11.768454
1314.775770	-11.762855
1315.352634	-11.768221
1315.930004	-11.768447
1316.507881	-11.758199
1317.086266	-11.759949
1317.665159	-11.764515
1318.244562	-11.758392
1318.824474	-11.754742
1319.404897	-11.759468
1319.985831	-11.759773
1320.567276	-11.754604
1321.149234	-11.756191
1321.731706	-11.760484
1322.314691	-11.757607
1322.898190	-11.758860
1323.482205	-11.761487
1324.066736	-11.762371
1324.651783	-11.764781
1325.237347	-11.766372
1325.823430	-11.768301
1326.410031	-11.771830
1326.997151	-11.775170
1327.584791	-11.776572
1328.172952	-11.778467
1328.761634	-11.784475
1329.350839	-11.787993
1329.940566	-11.786381
1330.530817	-11.792078
1331.121592	-11.799584
1331.712891	-11.797389
1332.304716	-11.798525
1332.897068	-11.808918
1333.489946	-11.811390
1334.083352	-11.806885
1334.677287	-11.815230
1335.271750	-11.825296
1335.866744	-11.819497
1336.462268	-11.821522
1337.058323	-11.836223
1337.654910	-11.836630
1338.252029	-11.830069
1338.849682	-11.844640
1339.447869	-11.853684
1340.046591	-11.845443
1340.645848	-11.851988
1341.245641	-11.866511
1341.845972	-11.866060
1342.446840	-11.861129
1343.048246	-11.876405
1343.650191	-11.884366
1344.252677	-11.877676
1344.855702	-11.883540
1345.459269	-11.897323
1346.063379	-11.897282
1346.668030	-11.894323
1347.273226	-11.906265
1347.878965	-11.913098
1348.485250	-11.910740
1349.092080	-11.914719
1349.699456	-11.923862
1350.307380	-11.928720
1350.915851	-11.928412
1351.524871	-11.933173
1352.134441	-11.941448
1352.744560	-11.946469
1353.355231	-11.947460
1353.966453	-11.950382
1354.578227	-11.963248
1355.190555	-11.966394
1355.803436	-11.961337
1356.416872	-11.974327
1357.030863	-11.986695
1357.645411	-11.979507
1358.260515	-11.982619
1358.876177	-12.001744
1359.492397	-12.002054
1360.109176	-11.995777
1360.726516	-12.012548
1361.344416	-12.023200
1361.962877	-12.016075
1362.581901	-12.023165
1363.201487	-12.039929
1363.821637	-12.041181
1364.442352	-12.040461
1365.063632	-12.053879
1365.685478	-12.063897
1366.307891	-12.065640
1366.930871	-12.070660
1367.554420	-12.083957
1368.178538	-12.093316
1368.803226	-12.095480
1369.428485	-12.101239
1370.054315	-12.119965
1370.680717	-12.127468
1371.307693	-12.125472
1371.935242	-12.140249
1372.563366	-12.161446
1373.192065	-12.159134
1373.821341	-12.162646
1374.451193	-12.190954
1375.081623	-12.199762
1375.712632	-12.193669
1376.344221	-12.214780
1376.976389	-12.240428
1377.609139	-12.237542
1378.242470	-12.242121
1378.876384	-12.272894
1379.510881	-12.287115
1380.145963	-12.282992
1380.781629	-12.302662
1381.417881	-12.332127
1382.054720	-12.336576
1382.692147	-12.340243
1383.330161	-12.368779
1383.968765	-12.394088
1384.607959	-12.393973
1385.247743	-12.405004
1385.888119	-12.442420
1386.529087	-12.457997
1387.170648	-12.454334
1387.812804	-12.483290
1388.455554	-12.518029
1389.098899	-12.517848
1389.742842	-12.528985
1390.387381	-12.569597
1391.032519	-12.587163
1391.678256	-12.589728
1392.324592	-12.619401
1392.971529	-12.651322
1393.619068	-12.662483
1394.267208	-12.679937
1394.915952	-12.711187
1395.565300	-12.734548
1396.215253	-12.751623
1396.865812	-12.774443
1397.516977	-12.804571
1398.168749	-12.825950
1398.821130	-12.844588
1399.474120	-12.872276
1400.127719	-12.899898
1400.781930	-12.918054
1401.436752	-12.943516
1402.092186	-12.974006
1402.748234	-12.990600
1403.404897	-13.018557
1404.062174	-13.052242
1404.720067	-13.068035
1405.378577	-13.091982
1406.037705	-13.130827
1406.697451	-13.154097
1407.357817	-13.170125
1408.018803	-13.204358
1408.680410	-13.241262
1409.342639	-13.260400
1410.005492	-13.279162
1410.668968	-13.317678
1411.333068	-13.356092
1411.997795	-13.368459
1412.663147	-13.386122
1413.329127	-13.435487
1413.995736	-13.468426
1414.662973	-13.469274
1415.330840	-13.498550
1415.999339	-13.552641
1416.668469	-13.571129
1417.338232	-13.575079
1418.008628	-13.615526
1418.679659	-13.663575
1419.351325	-13.674571
1420.023628	-13.682559
1420.696568	-13.730446
1421.370145	-13.772972
1422.044362	-13.773417
1422.719219	-13.792703
1423.394717	-13.847728
1424.070856	-13.873439
1424.747638	-13.878302
1425.425064	-13.911817
1426.103134	-13.954637
1426.781850	-13.974074
1427.461212	-13.990220
1428.141221	-14.019837
1428.821878	-14.055149
1429.503185	-14.074429
1430.185141	-14.094580
1430.867749	-14.123508
1431.551008	-14.153776
1432.234920	-14.175755
1432.919486	-14.201374
1433.604707	-14.225990
1434.290583	-14.249801
1434.977116	-14.282671
1435.664307	-14.299900
1436.352156	-14.312842
1437.040664	-14.348690
1437.729833	-14.374691
1438.419663	-14.381653
1439.110156	-14.406019
1439.801312	-14.444100
1440.493132	-14.464683
1441.185617	-14.476042
1441.878768	-14.510682
1442.572586	-14.548521
1443.267072	-14.556409
1443.962228	-14.574758
1444.658053	-14.615928
1445.354549	-14.628238
1446.051717	-14.632558
1446.749558	-14.666212
1447.448073	-14.688228
1448.147263	-14.692996
1448.847128	-14.718983
1449.547671	-14.752209
1450.248891	-14.768727
1450.950789	-14.789378
1451.653368	-14.826987
1452.356627	-14.852722
1453.060568	-14.863561
1453.765192	-14.892383
1454.470500	-14.916877
1455.176492	-14.915120
1455.883170	-14.928170
1456.590534	-14.946742
1457.298586	-14.940422
1458.007327	-14.946812
1458.716758	-14.965922
1459.426880	-14.970025
1460.137693	-14.979179
1460.849199	-15.007596
1461.561398	-15.021887
1462.274293	-15.039943
1462.987883	-15.057782
1463.702170	-15.080197
1464.417155	-15.079428
1465.132838	-15.077908
1465.849222	-15.082229
1466.566306	-15.053519
1467.284093	-15.025233
1468.002582	-15.009622
1468.721775	-14.965320
1469.441674	-14.929081
1470.162278	-14.914011
1470.883590	-14.883990
1471.605609	-14.866726
1472.328338	-14.873457
1473.051777	-14.877064
1473.775928	-14.886551
1474.500790	-14.913873
1475.226367	-14.941813
1475.952657	-14.958338
1476.679663	-14.981499
1477.407386	-15.002670
1478.135826	-14.996834
1478.864985	-14.990732
1479.594863	-14.984321
1480.325463	-14.949222
1481.056784	-14.918265
1481.788828	-14.898351
1482.521597	-14.863550
1483.255090	-14.843707
1483.989309	-14.850706
1484.724256	-14.860568
1485.459931	-14.892780
1486.196336	-14.962680
1486.933471	-15.045915
1487.671337	-15.145769
1488.409937	-15.280787
1489.149270	-15.420365
1489.889337	-15.550727
1490.630141	-15.693081
1491.371682	-15.805312
1492.113961	-15.866394
1492.856979	-15.904451
1493.600738	-15.874478
1494.345238	-15.770322
1495.090481	-15.633078
1495.836467	-15.430429
1496.583198	-15.176292
1497.330675	-14.913819
1498.078899	-14.619627
1498.827872	-14.309997
1499.577593	-14.018115
1500.328065	-13.725204
1501.079289	-13.438850
1501.831265	-13.185364
1502.583995	-12.949084
1503.337480	-12.728282
1504.091721	-12.548123
1504.846719	-12.391141
1505.602475	-12.248000
1506.358991	-12.142070
1507.116268	-12.047532
1507.874306	-11.951032
1508.633108	-11.869626
1509.392673	-11.767671
1510.153004	-11.634112
1510.914101	-11.480894
1511.675965	-11.275758
1512.438599	-11.022827
1513.202002	-10.739177
1513.966176	-10.411469
1514.731122	-10.060858
1515.496842	-9.709397
1516.263336	-9.355478
1517.030607	-9.020492
1517.798654	-8.722685
1518.567479	-8.459646
1519.337083	-8.246273
1520.107468	-8.097322
1520.878634	-8.005219
1521.650584	-7.983760
1522.423317	-8.046298
1523.196836	-8.183120
1523.971141	-8.414081
1524.746233	-8.751957
1525.522115	-9.192243
1526.298786	-9.766982
1527.076249	-10.496526
1527.854504	-11.396873
1528.633553	-12.529474
1529.413397	-13.959881
1530.194037	-15.779610
1530.975474	-18.183370
1531.757709	-21.430384
1532.540745	-25.104298
1533.324581	-24.900621
1534.109220	-21.034435
1534.894662	-17.673832
1535.680909	-15.112922
1536.467961	-13.136091
1537.255821	-11.561399
1538.044489	-10.266105
1538.833967	-9.206762
1539.624256	-8.327217
1540.415357	-7.592845
1541.207271	-6.997136
1542.000000	-6.510779
1542.793545	-6.124630
1543.587907	-5.836158
1544.383087	-5.627326
1545.179088	-5.496880
1545.975909	-5.442209
1546.773552	-5.450283
1547.572019	-5.522505
1548.371311	-5.656284
1549.171428	-5.839607
1549.972373	-6.077691
1550.774147	-6.365008
1551.576751	-6.690656
1552.380185	-7.064877
1553.184453	-7.474486
1553.989554	-7.916534
1554.795490	-8.400908
1555.602263	-8.908416
1556.409873	-9.449823
1557.218322	-10.026028
1558.027612	-10.622299
1558.837743	-11.258747
1559.648717	-11.923062
1560.460536	-12.614353
1561.273200	-13.348697
1562.086710	-14.103180
1562.901069	-14.888170
1563.716278	-15.695194
1564.532337	-16.491134
1565.349249	-17.277191
1566.167014	-17.993833
1566.985634	-18.604845
1567.805111	-19.071859
1568.625444	-19.328082
1569.446637	-19.396613
1570.268690	-19.257880
1571.091605	-18.970265
1571.915382	-18.580697
1572.740024	-18.111517
1573.565532	-17.629303
1574.391907	-17.126012
1575.219150	-16.638771
1576.047262	-16.174682
1576.876246	-15.726298
1577.706103	-15.319691
1578.536833	-14.933921
1579.368439	-14.583645
1580.200922	-14.268045
1581.034282	-13.975981
1581.868522	-13.724047
1582.703643	-13.494653
1583.539646	-13.297121
1584.376532	-13.130563
1585.214304	-12.985489
1586.052962	-12.875508
1586.892508	-12.785422
1587.732943	-12.723796
1588.574269	-12.687935
1589.416487	-12.670630
1590.259599	-12.682876
1591.103605	-12.709711
1591.948508	-12.760842
1592.794309	-12.828771
1593.641009	-12.910513
1594.488609	-13.011525
1595.337112	-13.118694
1596.186518	-13.241907
1597.036829	-13.369419
1597.888047	-13.504030
1598.740172	-13.644692
1599.593207	-13.783069
1600.447153	-13.927669
1601.302010	-14.064916
1602.157782	-14.204050
1603.014469	-14.336006
1603.872072	-14.462276
1604.730593	-14.584767
1605.590034	-14.695300
1606.450397	-14.805426
1607.311681	-14.901892
1608.173890	-14.997751
1609.037024	-15.083353
1609.901085	-15.164100
1610.766075	-15.242475
1611.631995	-15.311235
1612.498846	-15.385031
1613.366630	-15.447783
1614.235349	-15.517485
1615.105004	-15.580868
1615.975596	-15.646521
1616.847128	-15.714794
1617.719600	-15.777666
1618.593014	-15.850166
1619.467372	-15.912751
1620.342675	-15.985132
1621.218924	-16.049258
1622.096122	-16.115873
1622.974270	-16.179420
1623.853369	-16.235205
1624.733420	-16.290980
1625.614427	-16.332066
1626.496389	-16.371440
1627.379308	-16.394635
1628.263187	-16.411970
1629.148026	-16.415207
1630.033828	-16.409803
1630.920593	-16.392870
1631.808324	-16.366684
1632.697022	-16.331223
1633.586688	-16.286737
1634.477324	-16.236591
1635.368932	-16.176980
1636.261514	-16.117072
1637.155070	-16.047204
1638.049602	-15.982072
1638.945113	-15.908504
1639.841603	-15.840952
1640.739075	-15.768739
1641.637529	-15.698726
1642.536968	-15.628895
1643.437393	-15.555969
1644.338806	-15.487111
1645.241209	-15.412102
1646.144602	-15.342132
1647.048988	-15.265647
1647.954368	-15.192313
1648.860744	-15.113971
1649.768118	-15.036845
1650.676491	-14.956522
1651.585865	-14.877574
1652.496241	-14.796958
1653.407621	-14.719533
1654.320008	-14.642093
1655.233401	-14.568813
1656.147804	-14.497616
1657.063218	-14.429337
1657.979645	-14.365549
1658.897085	-14.301794
1659.815542	-14.244478
1660.735016	-14.184528
1661.655509	-14.131652
1662.577023	-14.075258
1663.499560	-14.025272
1664.423121	-13.972628
1665.347709	-13.924620
1666.273324	-13.875005
1667.199969	-13.828634
1668.127645	-13.781473
1669.056353	-13.737694
1669.986097	-13.693599
1670.916877	-13.653609
1671.848695	-13.613406
1672.781553	-13.577162
1673.715452	-13.541207
1674.650395	-13.507887
1675.586383	-13.475838
1676.523418	-13.443842
1677.461501	-13.414543
1678.400635	-13.383175
1679.340821	-13.355753
1680.282061	-13.325618
1681.224357	-13.299879
1682.167710	-13.271857
1683.112122	-13.248014
1684.057595	-13.222691
1685.004132	-13.201154
1685.951732	-13.177969
1686.900400	-13.158780
1687.850135	-13.137076
1688.800940	-13.119952
1689.752818	-13.098986
1690.705768	-13.083380
1691.659795	-13.063432
1692.614898	-13.048915
1693.571081	-13.030193
1694.528345	-13.016252
1695.486691	-12.999197
1696.446122	-12.986165
1697.406640	-12.971262
1698.368245	-12.959779
1699.330941	-12.946866
1700.294729	-12.937445
1701.259611	-12.925638
1702.225588	-12.917488
1703.192664	-12.905943
1704.160838	-12.898998
1705.130114	-12.888656
1706.100493	-12.882875
1707.071977	-12.874928
1708.044568	-12.870985
1709.018268	-12.865966
1709.993079	-12.863226
1710.969003	-12.859580
1711.946041	-12.857406
1712.924196	-12.853870
1713.903469	-12.852262
1714.883862	-12.848821
1715.865378	-12.848699
1716.848017	-12.846230
1717.831783	-12.847159
1718.816677	-12.845740
1719.802701	-12.846914
1720.789857	-12.846647
1721.778147	-12.847583
1722.767573	-12.848456
1723.758136	-12.849469
1724.749840	-12.850859
1725.742685	-12.852090
1726.736673	-12.853288
1727.731808	-12.854810
1728.728090	-12.855694
1729.725521	-12.857614
1730.724105	-12.859387
1731.723842	-12.862238
1732.724735	-12.865686
1733.726785	-12.869000
1734.729995	-12.873666
1735.734366	-12.876756
1736.739902	-12.882018
1737.746603	-12.885519
1738.754472	-12.891582
1739.763510	-12.896613
1740.773721	-12.903546
1741.785105	-12.910234
1742.797665	-12.917611
1743.811403	-12.925148
1744.826321	-12.932902
1745.842422	-12.940914
1746.859706	-12.949340
1747.878177	-12.957550
1748.897835	-12.966450
1749.918685	-12.974887
1750.940726	-12.983758
1751.963963	-12.992614
1752.988395	-13.001275
1754.014027	-13.011022
1755.040860	-13.019627
1756.068895	-13.030107
1757.098135	-13.038651
1758.128583	-13.049293
1759.160240	-13.058379
1760.193109	-13.069059
1761.227191	-13.079386
1762.262488	-13.090270
1763.299004	-13.101843
1764.336740	-13.113198
1765.375697	-13.125600
1766.415880	-13.137608
1767.457288	-13.150381
1768.499926	-13.163075
1769.543794	-13.176464
1770.588895	-13.189933
1771.635231	-13.204217
1772.682805	-13.218339
1773.731619	-13.233534
1774.781674	-13.248102
1775.832973	-13.263697
1776.885519	-13.278421
1777.939312	-13.293915
1778.994357	-13.309117
1780.050654	-13.324417
1781.108207	-13.340251
1782.167017	-13.355255
1783.227087	-13.371418
1784.288418	-13.385871
1785.351013	-13.401429
1786.414875	-13.415184
1787.480006	-13.429824
1788.546407	-13.443481
1789.614082	-13.457437
1790.683032	-13.471623
1791.753259	-13.485103
1792.824767	-13.499835
1793.897557	-13.513030
1794.971632	-13.527734
1796.046994	-13.540680
1797.123645	-13.554182
1798.201588	-13.566880
1799.280824	-13.579356
1800.361357	-13.592530
1801.443188	-13.605327
1802.526320	-13.619402
1803.610756	-13.633323
1804.696497	-13.647416
1805.783546	-13.661347
1806.871906	-13.674734
1807.961578	-13.688409
1809.052565	-13.702461
1810.144870	-13.716755
1811.238494	-13.732594
1812.333441	-13.747841
1813.429713	-13.764412
1814.527311	-13.779749
1815.626239	-13.795197
1816.726499	-13.810622
1817.828094	-13.824924
1818.931025	-13.840804
1820.035295	-13.855069
1821.140906	-13.871105
1822.247862	-13.886237
1823.356165	-13.901611
1824.465816	-13.917339
1825.576819	-13.931224
1826.689175	-13.945841
1827.802888	-13.958193
1828.917960	-13.971296
1830.034394	-13.983575
1831.152191	-13.995735
1832.271354	-14.008232
1833.391887	-14.019209
1834.513790	-14.030347
1835.637068	-14.039401
1836.761722	-14.048338
1837.887755	-14.056339
1839.015169	-14.064000
1840.143968	-14.071636
1841.274153	-14.078277
1842.405727	-14.084755
1843.538693	-14.089912
1844.673053	-14.095093
1845.808810	-14.099970
1846.945966	-14.104748
1848.084525	-14.109151
1849.224488	-14.112589
1850.365858	-14.115996
1851.508638	-14.119038
1852.652831	-14.122383
1853.798438	-14.125370
1854.945463	-14.127844
1856.093909	-14.129272
1857.243777	-14.129495
1858.395071	-14.129209
1859.547794	-14.128566
1860.701947	-14.128429
1861.857533	-14.128369
1863.014556	-14.128622
1864.173018	-14.128311
1865.332922	-14.127323
1866.494270	-14.125943
1867.657065	-14.124436
1868.821309	-14.123609
1869.987006	-14.122601
1871.154158	-14.121559
1872.322768	-14.119685
1873.492839	-14.117297
1874.664373	-14.114506
1875.837373	-14.111578
1877.011841	-14.108796
1878.187782	-14.105246
1879.365197	-14.101236
1880.544089	-14.096094
1881.724460	-14.090573
1882.906315	-14.084333
1884.089655	-14.077652
1885.274483	-14.070908
1886.460803	-14.063441
1887.648616	-14.055945
1888.837927	-14.047585
1890.028736	-14.039137
1891.221049	-14.029987
1892.414866	-14.020074
1893.610192	-14.009659
1894.807028	-13.997981
1896.005379	-13.985842
1897.205246	-13.972787
1898.406633	-13.959610
1899.609542	-13.946126
1900.813977	-13.931807
1902.019940	-13.916864
1903.227434	-13.900865
1904.436462	-13.884670
1905.647028	-13.868214
1906.859133	-13.851950
1908.072781	-13.835817
1909.287976	-13.819154
1910.504719	-13.801784
1911.723013	-13.783913
1912.942863	-13.766200
1914.164270	-13.748654
1915.387238	-13.731035
1916.611770	-13.712907
1917.837868	-13.694202
1919.065536	-13.675526
1920.294777	-13.657118
1921.525594	-13.639215
1922.757989	-13.621096
1923.991967	-13.602776
1925.227529	-13.584593
1926.464679	-13.566744
1927.703420	-13.549630
1928.943755	-13.532754
1930.185688	-13.516072
1931.429221	-13.499307
1932.674356	-13.482366
1933.921099	-13.465818
1935.169451	-13.449656
1936.419415	-13.433785
1937.670996	-13.417413
1938.924195	-13.400066
1940.179017	-13.381821
1941.435463	-13.362891
1942.693538	-13.343668
1943.953245	-13.324013
1945.214586	-13.303617
1946.477566	-13.282736
1947.742186	-13.261699
1949.008451	-13.240593
1950.276363	-13.219264
1951.545926	-13.197157
1952.817143	-13.174724
1954.090017	-13.152203
1955.364551	-13.129548
1956.640749	-13.106891
1957.918615	-13.083444
1959.198150	-13.059434
1960.479359	-13.035557
1961.762244	-13.012004
1963.046810	-12.989410
1964.333059	-12.966717
1965.620995	-12.943303
1966.910621	-12.919539
1968.201940	-12.895957
1969.494956	-12.873469
1970.789672	-12.851811
1972.086091	-12.830918
1973.384217	-12.810699
1974.684053	-12.791168
1975.985602	-12.772202
1977.288869	-12.754021
1978.593855	-12.737079
1979.900566	-12.721231
1981.209003	-12.706434
1982.519171	-12.692290
1983.831073	-12.678652
1985.144712	-12.665468
1986.460093	-12.652320
1987.777217	-12.639557
1989.096089	-12.627389
1990.416713	-12.615638
1991.739092	-12.603821
1993.063228	-12.591524
1994.389127	-12.579037
1995.716791	-12.566707
1997.046223	-12.554912
1998.377428	-12.542964
1999.710409	-12.530570
2001.045169	-12.517382
2002.381713	-12.503478
2003.720043	-12.489564
2005.060163	-12.476015
2006.402077	-12.462581
2007.745788	-12.448554
2009.091301	-12.434027
2010.438618	-12.419187
2011.787743	-12.404009
2013.138680	-12.388531
2014.491433	-12.373001
2015.846005	-12.357764
2017.202399	-12.342777
2018.560621	-12.328101
2019.920673	-12.313550
2021.282558	-12.299128
2022.646281	-12.285118
2024.011846	-12.271619
2025.379256	-12.259185
2026.748515	-12.247928
2028.119626	-12.237383
2029.492594	-12.227487
2030.867422	-12.218517
2032.244114	-12.210900
2033.622673	-12.204348
2035.003104	-12.198542
2036.385411	-12.193337
2037.769597	-12.188962
2039.155665	-12.185509
2040.543621	-12.183139
2041.933467	-12.181677
2043.325208	-12.180656
2044.718847	-12.179807
2046.114389	-12.179287
2047.511837	-12.179277
2048.911195	-12.179685
2050.312467	-12.180246
2051.715657	-12.180700
2053.120769	-12.180572
2054.527807	-12.179879
2055.936775	-12.179391
2057.347677	-12.179509
2058.760516	-12.179727
2060.175297	-12.179175
2061.592025	-12.177926
2063.010701	-12.176635
2064.431332	-12.175659
2065.853921	-12.174722
2067.278472	-12.173550
2068.704988	-12.172114
2070.133475	-12.170913
2071.563936	-12.170258
2072.996375	-12.169734
2074.430796	-12.169227
2075.867204	-12.168941
2077.305603	-12.169138
2078.745996	-12.170193
2080.188389	-12.172108
2081.632784	-12.175044
2083.079187	-12.178620
2084.527601	-12.182361
2085.978030	-12.186671
2087.430480	-12.191899
2088.884954	-12.197741
2090.341455	-12.204549
2091.799990	-12.212441
2093.260561	-12.221012
2094.723173	-12.230441
2096.187831	-12.241329
2097.654538	-12.253806
2099.123300	-12.267231
2100.594119	-12.281778
2102.067001	-12.298189
2103.541950	-12.315674
2105.018971	-12.332856
2106.498067	-12.349310
2107.979243	-12.365520
2109.462503	-12.381878
2110.947853	-12.398628
2112.435295	-12.416056
2113.924836	-12.433548
2115.416478	-12.450583
2116.910227	-12.467616
2118.406087	-12.485018
2119.904063	-12.502128
2121.404158	-12.518189
2122.906378	-12.533208
2124.410727	-12.547235
2125.917210	-12.560571
2127.425831	-12.573408
2128.936594	-12.585974
2130.449505	-12.598280
2131.964567	-12.611108
2133.481786	-12.625731
2135.001166	-12.642050
2136.522711	-12.658679
2138.046427	-12.674868
2139.572317	-12.691662
2141.100388	-12.709791
2142.630642	-12.728608
2144.163085	-12.747276
2145.697722	-12.766277
2147.234558	-12.787137
2148.773596	-12.810785
2150.314842	-12.837585
2151.858301	-12.867569
2153.403977	-12.901024
2154.951875	-12.939049
2156.502000	-12.981889
2158.054357	-13.029010
2159.608950	-13.078966
2161.165785	-13.130470
2162.724866	-13.183322
2164.286198	-13.236363
2165.849786	-13.286787
2167.415635	-13.332825
2168.983749	-13.374144
2170.554134	-13.411759
2172.126795	-13.445434
2173.701737	-13.473470
2175.278964	-13.495406
2176.858481	-13.513303
2178.440294	-13.529542
2180.024408	-13.543801
2181.610827	-13.555584
2183.199557	-13.567254
2184.790602	-13.581828
2186.383968	-13.599015
2187.979660	-13.618706
2189.577683	-13.643029
2191.178041	-13.673336
2192.780741	-13.709779
2194.385787	-13.752134
2195.993185	-13.800337
2197.602939	-13.853685
2199.215054	-13.911585
2200.829537	-13.975543
2202.446392	-14.044631
2204.065624	-14.114860
2205.687239	-14.186874
2207.311242	-14.262140
2208.937638	-14.337316
2210.566433	-14.412301
2212.197631	-14.487064
2213.831239	-14.559518
2215.467261	-14.630756
2217.105703	-14.698050
2218.746570	-14.762234
2220.389867	-14.824062
2222.035601	-14.878808
2223.683776	-14.930064
2225.334398	-14.975288
2226.987472	-15.013306
2228.643004	-15.047110
2230.300999	-15.077206
2231.961463	-15.108713
2233.624402	-15.138920
2235.289820	-15.169874
2236.957723	-15.205504
2238.628118	-15.246119
2240.301009	-15.292947
2241.976402	-15.343972
2243.654303	-15.401089
2245.334717	-15.464384
2247.017650	-15.530880
2248.703108	-15.599929
2250.391096	-15.669977
2252.081620	-15.744565
2253.774686	-15.818844
2255.470300	-15.893785
2257.168467	-15.969661
2258.869193	-16.048117
2260.572484	-16.126988
2262.278345	-16.205109
2263.986783	-16.283685
2265.697804	-16.363970
2267.411412	-16.445670
2269.127615	-16.525056
2270.846417	-16.605019
2272.567826	-16.687045
2274.291846	-16.769737
2276.018484	-16.852744
2277.747745	-16.936165
2279.479637	-17.022171
2281.214164	-17.107674
2282.951333	-17.195386
2284.691149	-17.279296
2286.433619	-17.364925
2288.178750	-17.447045
2289.926546	-17.528629
2291.677014	-17.605997
2293.430161	-17.682226
2295.185992	-17.756203
2296.944513	-17.827299
2298.705732	-17.897935
2300.469653	-17.967550
2302.236283	-18.040267
2304.005629	-18.113699
2305.777696	-18.190221
2307.552492	-18.265097
2309.330022	-18.346784
2311.110292	-18.426245
2312.893310	-18.512716
2314.679080	-18.600966
2316.467611	-18.695731
2318.258907	-18.790866
2320.052976	-18.894281
2321.849824	-18.996123
2323.649457	-19.103179
2325.451883	-19.208900
2327.257106	-19.322331
2329.065135	-19.431145
2330.875975	-19.543209
2332.689633	-19.651848
2334.506116	-19.763013
2336.325430	-19.870786
2338.147581	-19.982115
2339.972578	-20.090951
2341.800425	-20.201146
2343.631130	-20.312078
2345.464700	-20.417937
2347.301141	-20.525743
2349.140461	-20.627974
2350.982665	-20.731673
2352.827760	-20.823651
2354.675754	-20.916434
2356.526653	-21.001542
2358.380464	-21.088008
2360.237195	-21.165026
2362.096851	-21.246229
2363.959440	-21.328128
2365.824968	-21.414318
2367.693444	-21.499034
2369.564873	-21.593377
2371.439263	-21.687791
2373.316620	-21.790483
2375.196953	-21.890898
2377.080267	-22.008946
2378.966570	-22.120969
2380.855869	-22.244425
2382.748171	-22.363723
2384.643484	-22.500801
2386.541815	-22.628473
2388.443170	-22.763671
2390.347557	-22.897978
2392.254984	-23.036724
2394.165457	-23.168038
2396.078984	-23.304685
2397.995572	-23.441108
2399.915229	-23.573258
2401.837961	-23.707717
2403.763777	-23.840912
2405.692684	-23.970858
2407.624689	-24.093610
2409.559800	-24.219010
2411.498023	-24.336218
2413.439368	-24.447221
2415.383840	-24.549124
2417.331449	-24.646965
2419.282201	-24.731862
2421.236104	-24.806709
2423.193165	-24.880738
2425.153393	-24.960819
2427.116795	-25.031751
2429.083378	-25.114819
2431.053151	-25.193189
2433.026121	-25.290835
2435.002297	-25.393104
2436.981685	-25.508709
2438.964293	-25.626412
2440.950131	-25.763767
2442.939204	-25.905990
2444.931522	-26.053282
2446.927092	-26.201972
2448.925923	-26.362543
2450.928022	-26.521482
2452.933397	-26.670582
2454.942056	-26.829865
2456.954008	-26.990998
2458.969260	-27.157817
2460.987821	-27.318808
2463.009699	-27.486374
2465.034902	-27.641513
2467.063437	-27.807347
2469.095315	-27.955595
2471.130542	-28.103719
2473.169127	-28.238911
2475.211078	-28.371137
2477.256404	-28.478933
2479.305112	-28.589428
2481.357212	-28.694226
2483.412713	-28.761970
2485.471621	-28.830441
2487.533946	-28.885123
2489.599696	-28.941599
2491.668880	-28.976138
2493.741507	-29.038442
2495.817585	-29.106332
2497.897122	-29.186066
2499.980127	-29.285612
2502.066609	-29.397374
2504.156578	-29.552328
2506.250040	-29.662760
2508.347006	-29.837435
2510.447483	-29.981944
2512.551482	-30.189458
2514.659010	-30.307169
2516.770076	-30.523683
2518.884690	-30.687494
2521.002861	-30.896592
2523.124597	-31.076224
2525.249907	-31.305300
2527.378801	-31.476077
2529.511287	-31.702226
2531.647375	-31.887474
2533.787074	-32.139691
2535.930393	-32.253839
2538.077340	-32.543615
2540.227927	-32.617008
2542.382160	-32.908347
2544.540051	-32.934312
2546.701608	-33.150449
2548.866840	-33.169700
2551.035757	-33.267495
2553.208369	-33.295616
2555.384684	-33.303661
2557.564713	-33.310967
2559.748465	-33.280750
2561.935948	-33.372522
2564.127174	-33.298727
2566.322152	-33.439360
2568.520890	-33.444049
2570.723399	-33.621792
2572.929689	-33.668364
2575.139769	-33.829930
2577.353649	-33.988561
2579.571340	-34.063346
2581.792849	-34.327409
2584.018189	-34.388020
2586.247368	-34.581373
2588.480396	-34.793320
2590.717284	-34.970994
2592.958041	-35.252479
2595.202678	-35.416996
2597.451204	-35.737228
2599.703630	-35.981182
2601.959966	-36.262367
2604.220222	-36.535505
2606.484408	-36.847475
2608.752535	-37.196146
2611.024612	-37.450993
2613.300651	-37.727697
2615.580661	-38.007131
2617.864653	-38.158869
2620.152638	-38.301949
2622.444625	-38.392858
2624.740626	-38.377297
2627.040651	-38.405148
2629.344710	-38.355143
2631.652814	-38.275308
2633.964974	-38.270496
2636.281200	-38.310943
2638.601504	-38.236780
2640.925896	-38.372939
2643.254386	-38.427668
2645.586987	-38.410962
2647.923707	-38.535203
2650.264559	-38.570201
2652.609554	-38.549288
2654.958702	-38.672796
2657.312015	-38.710674
2659.669503	-38.808334
2662.031178	-39.019572
2664.397051	-39.080810
2666.767132	-39.265631
2669.141434	-39.535873
2671.519968	-39.689781
2673.902745	-39.962230
2676.289776	-40.337302
2678.681072	-40.543253
2681.076646	-41.138425
2683.476508	-41.434469
2685.880671	-41.914471
2688.289145	-42.480214
2690.701942	-42.759337
2693.119075	-43.193823
2695.540554	-43.565449
2697.966391	-43.619707
2700.396599	-43.853218
2702.831189	-43.931336
2705.270172	-44.104186
2707.713561	-43.974370
2710.161368	-44.168140
2712.613605	-44.439135
2715.070283	-44.161279
2717.531416	-44.674527
2719.997014	-44.604309
2722.467090	-44.378979
2724.941657	-44.570114
2727.420726	-44.406910
2729.904310	-44.185733
2732.392421	-44.208229
2734.885072	-44.224298
2737.382275	-44.005106
2739.884042	-44.032034
2742.390387	-43.915278
2744.901321	-43.949126
2747.416857	-43.971401
2749.937008	-43.927440
2752.461787	-44.208603
2754.991206	-44.446947
2757.525279	-44.681254
2760.064017	-45.115181
2762.607434	-45.544003
2765.155544	-45.963970
2767.708358	-46.459775
2770.265890	-46.901968
2772.828153	-47.136218
2775.395160	-47.558353
2777.966924	-47.799026
2780.543459	-47.937754
2783.124778	-48.163837
2785.710894	-48.357893
2788.301821	-48.845677
2790.897572	-49.398694
2793.498160	-49.715748
2796.103599	-50.336044
2798.713903	-50.886725
2801.329085	-51.195751
2803.949159	-51.638535
2806.574139	-51.814895
2809.204038	-51.864013
2811.838871	-52.220776
2814.478650	-52.174356
2817.123391	-51.821629
2819.773107	-51.562051
2822.427812	-50.952251
2825.087521	-50.569496
2827.752247	-50.280978
2830.422005	-50.132597
2833.096808	-50.141023
2835.776672	-50.071104
2838.461611	-50.034854
2841.151638	-50.442910
2843.846769	-50.752066
2846.547019	-51.194630
2849.252401	-51.568269
2851.962930	-51.424366
2854.678621	-51.631594
2857.399489	-51.745086
2860.125549	-51.796806
2862.856815	-52.050300
2865.593302	-51.877889
2868.335026	-52.023372
2871.082002	-52.198119
2873.834244	-52.370065
2876.591767	-52.852208
2879.354588	-53.270201
2882.122721	-53.500539
2884.896181	-53.975509
2887.674984	-54.324712
2890.459146	-55.136032
2893.248681	-55.859272
2896.043606	-56.939589
2898.843937	-58.179662
2901.649687	-59.329895
2904.460875	-60.527378
2907.277515	-60.680368
2910.099623	-60.195791
2912.927215	-59.371493
2915.760308	-58.577293
2918.598916	-58.220167
2921.443057	-57.822372
2924.292747	-57.748960
2927.148002	-57.523623
2930.008837	-57.693121
2932.875270	-58.111707
2935.747318	-58.974526
2938.624995	-59.801048
2941.508320	-59.972669
2944.397308	-59.996398
2947.291977	-59.554945
2950.192343	-59.336388
2953.098423	-59.586757
2956.010234	-59.492850
2958.927792	-59.637138
2961.851116	-59.148244
2964.780221	-58.615973
2967.715126	-58.219515
2970.655847	-57.715372
2973.602402	-57.179284
2976.554808	-57.244495
2979.513083	-57.524158
2982.477243	-57.697709
2985.447308	-58.493361
2988.423293	-59.390255
2991.405218	-60.689485
2994.393099	-62.025720
2997.386955	-63.242633
