# 2022-03-21_14.47.36
# shape = sech2
# FWHM_ps = 0.1
# carrier_nm = 1542
# frep_MHz = 12126
# pow_mW = 8000
# GDD = 0.0
# propa_len = 0.15222222222222223
# untap_len = 0.01
# taper_len = 0.09222222222222223
# waist_len = 0.02
# uptap_len = 0.02
# untap_scale = 1.0
# waist_scale = 0.2
# workingDir = NL_20110305_12 (Spirou)
# axis = slow
# window_ps = 10.0
# steps = 200
# points = 13000
# 
# wavelength [nm]	 power spectral density [dB]
1000.248639	-24.795934
1000.582480	-24.641513
1000.916545	-24.641111
1001.250832	-24.734741
1001.585343	-24.547041
1001.920077	-24.461467
1002.255035	-24.669948
1002.590218	-24.674408
1002.925624	-24.504639
1003.261255	-24.484755
1003.597111	-24.429036
1003.933192	-24.400668
1004.269497	-24.504251
1004.606029	-24.419398
1004.942785	-24.311644
1005.279768	-24.453760
1005.616977	-24.407462
1005.954412	-24.155149
1006.292074	-24.206675
1006.629962	-24.340294
1006.968077	-24.283479
1007.306420	-24.266517
1007.644990	-24.208699
1007.983787	-24.092885
1008.322813	-24.171740
1008.662067	-24.190227
1009.001549	-24.029897
1009.341259	-24.132441
1009.681199	-24.274983
1010.021367	-24.084194
1010.361765	-23.969183
1010.702392	-24.033470
1011.043250	-24.044562
1011.384337	-24.116783
1011.725654	-24.140133
1012.067202	-23.967931
1012.408980	-23.973046
1012.750989	-24.055013
1013.093230	-23.912462
1013.435702	-23.908703
1013.778405	-24.060296
1014.121341	-23.975079
1014.464508	-23.867154
1014.807908	-23.880125
1015.151540	-23.803860
1015.495405	-23.824234
1015.839503	-23.908673
1016.183835	-23.796347
1016.528400	-23.762003
1016.873198	-23.797883
1017.218231	-23.639600
1017.563498	-23.599484
1017.908999	-23.749301
1018.254735	-23.705416
1018.600707	-23.604625
1018.946913	-23.596106
1019.293354	-23.509778
1019.640032	-23.523402
1019.986945	-23.595013
1020.334094	-23.488277
1020.681480	-23.483503
1021.029102	-23.560833
1021.376961	-23.412239
1021.725058	-23.323880
1022.073391	-23.425135
1022.421962	-23.426970
1022.770772	-23.403553
1023.119819	-23.377819
1023.469104	-23.249775
1023.818628	-23.279732
1024.168391	-23.350709
1024.518393	-23.227479
1024.868634	-23.239373
1025.219115	-23.331802
1025.569836	-23.205569
1025.920796	-23.120881
1026.271997	-23.155196
1026.623438	-23.153857
1026.975121	-23.222105
1027.327044	-23.208134
1027.679208	-23.040456
1028.031614	-23.072715
1028.384262	-23.157501
1028.737152	-23.081298
1029.090284	-23.121361
1029.443659	-23.158451
1029.797276	-23.056602
1030.151137	-23.061842
1030.505240	-23.069504
1030.859587	-23.043220
1031.214178	-23.145398
1031.569013	-23.127575
1031.924093	-23.005784
1032.279417	-23.054033
1032.634985	-23.056626
1032.990799	-23.016391
1033.346858	-23.123073
1033.703162	-23.095869
1034.059712	-22.980131
1034.416509	-23.004241
1034.773551	-22.985813
1035.130841	-22.994090
1035.488377	-23.061774
1035.846160	-22.964084
1036.204190	-22.915962
1036.562468	-22.960084
1036.920994	-22.874975
1037.279768	-22.886011
1037.638790	-22.977489
1037.998061	-22.891378
1038.357581	-22.823011
1038.717350	-22.806263
1039.077368	-22.772067
1039.437636	-22.856547
1039.798154	-22.849249
1040.158922	-22.714277
1040.519940	-22.739944
1040.881209	-22.739223
1041.242729	-22.663191
1041.604501	-22.718287
1041.966524	-22.709204
1042.328798	-22.641334
1042.691325	-22.623209
1043.054103	-22.530431
1043.417135	-22.546663
1043.780419	-22.632433
1044.143956	-22.526056
1044.507746	-22.470667
1044.871791	-22.477489
1045.236088	-22.401561
1045.600641	-22.442594
1045.965447	-22.465927
1046.330508	-22.373326
1046.695824	-22.370891
1047.061395	-22.321394
1047.427222	-22.274604
1047.793304	-22.372940
1048.159642	-22.344190
1048.526237	-22.265359
1048.893088	-22.285561
1049.260196	-22.232459
1049.627561	-22.246937
1049.995183	-22.318458
1050.363063	-22.257338
1050.731201	-22.238198
1051.099597	-22.212606
1051.468251	-22.162465
1051.837164	-22.268750
1052.206336	-22.277577
1052.575767	-22.180802
1052.945458	-22.205127
1053.315409	-22.174977
1053.685619	-22.175211
1054.056090	-22.254675
1054.426821	-22.190399
1054.797814	-22.161340
1055.169067	-22.163775
1055.540582	-22.101701
1055.912359	-22.178205
1056.284398	-22.197149
1056.656698	-22.102298
1057.029262	-22.116995
1057.402088	-22.076786
1057.775177	-22.072067
1058.148530	-22.154662
1058.522146	-22.062945
1058.896027	-22.007342
1059.270171	-22.020146
1059.644580	-21.961773
1060.019254	-22.020942
1060.394193	-22.015529
1060.769397	-21.897950
1061.144867	-21.904232
1061.520602	-21.872161
1061.896604	-21.856888
1062.272872	-21.892370
1062.649407	-21.786956
1063.026210	-21.740140
1063.403279	-21.731186
1063.780616	-21.684135
1064.158221	-21.735149
1064.536094	-21.665630
1064.914235	-21.559251
1065.292645	-21.585611
1065.671325	-21.537039
1066.050273	-21.541818
1066.429491	-21.546706
1066.808979	-21.411689
1067.188738	-21.413359
1067.568766	-21.422140
1067.949066	-21.374801
1068.329636	-21.413967
1068.710478	-21.329989
1069.091592	-21.271166
1069.472977	-21.310680
1069.854635	-21.263532
1070.236565	-21.289885
1070.618768	-21.262581
1071.001243	-21.160135
1071.383993	-21.211818
1071.767016	-21.217043
1072.150313	-21.203069
1072.533884	-21.205930
1072.917730	-21.114450
1073.301850	-21.148162
1073.686246	-21.171396
1074.070917	-21.116403
1074.455864	-21.153270
1074.841087	-21.087958
1075.226586	-21.056044
1075.612362	-21.118105
1075.998415	-21.088339
1076.384745	-21.104092
1076.771353	-21.039749
1077.158238	-20.978548
1077.545401	-21.086059
1077.932843	-21.043289
1078.320564	-20.987225
1078.708564	-20.992710
1079.096842	-20.928033
1079.485401	-20.983606
1079.874240	-20.967352
1080.263358	-20.887351
1080.652757	-20.893258
1081.042438	-20.812963
1081.432399	-20.836939
1081.822641	-20.857190
1082.213166	-20.737012
1082.603972	-20.732565
1082.995061	-20.700844
1083.386433	-20.695436
1083.778087	-20.712016
1084.170025	-20.589478
1084.562246	-20.588428
1084.954751	-20.568274
1085.347541	-20.510397
1085.740615	-20.553193
1086.133973	-20.443858
1086.527617	-20.394292
1086.921546	-20.413623
1087.315761	-20.352930
1087.710262	-20.369892
1088.105050	-20.271363
1088.500124	-20.210657
1088.895485	-20.265981
1089.291134	-20.197580
1089.687070	-20.197502
1090.083294	-20.156062
1090.479806	-20.103116
1090.876607	-20.176199
1091.273696	-20.121346
1091.671075	-20.101727
1092.068744	-20.093214
1092.466702	-20.041807
1092.864950	-20.104806
1093.263489	-20.060414
1093.662319	-20.027146
1094.061440	-20.021412
1094.460852	-19.967822
1094.860555	-20.023298
1095.260551	-19.955855
1095.660840	-19.898432
1096.061421	-19.917593
1096.462295	-19.853787
1096.863462	-19.897495
1097.264923	-19.855418
1097.666678	-19.796373
1098.068727	-19.839848
1098.471071	-19.789276
1098.873710	-19.810172
1099.276644	-19.777638
1099.679874	-19.729462
1100.083400	-19.766966
1100.487222	-19.707697
1100.891340	-19.723063
1101.295756	-19.663698
1101.700468	-19.587140
1102.105478	-19.629622
1102.510787	-19.523716
1102.916393	-19.472543
1103.322298	-19.424099
1103.728502	-19.346709
1104.135005	-19.346716
1104.541807	-19.245016
1104.948909	-19.213107
1105.356312	-19.153774
1105.764015	-19.094868
1106.172019	-19.127566
1106.580324	-19.015687
1106.988931	-19.012829
1107.397840	-19.020215
1107.807051	-18.972667
1108.216564	-19.012824
1108.626380	-18.932255
1109.036500	-18.940555
1109.446923	-18.952060
1109.857649	-18.903295
1110.268680	-18.917806
1110.680016	-18.834777
1111.091657	-18.854352
1111.503602	-18.833536
1111.915854	-18.754131
1112.328411	-18.754788
1112.741275	-18.666435
1113.154445	-18.665581
1113.567922	-18.623090
1113.981706	-18.563275
1114.395798	-18.561300
1114.810198	-18.495264
1115.224906	-18.541679
1115.639923	-18.489679
1116.055249	-18.444339
1116.470884	-18.495742
1116.886829	-18.463004
1117.303084	-18.500422
1117.719650	-18.474804
1118.136526	-18.495620
1118.553713	-18.525619
1118.971212	-18.487051
1119.389022	-18.529400
1119.807145	-18.460713
1120.225580	-18.473028
1120.644328	-18.473470
1121.063389	-18.396365
1121.482763	-18.384267
1121.902452	-18.299734
1122.322454	-18.291119
1122.742771	-18.194562
1123.163404	-18.105007
1123.584351	-18.082175
1124.005614	-17.975756
1124.427193	-17.957473
1124.849089	-17.855060
1125.271301	-17.802944
1125.693830	-17.778181
1126.116677	-17.696801
1126.539842	-17.689569
1126.963324	-17.611973
1127.387126	-17.631496
1127.811246	-17.614577
1128.235685	-17.571472
1128.660444	-17.593590
1129.085522	-17.552114
1129.510922	-17.592486
1129.936641	-17.554219
1130.362682	-17.553077
1130.789044	-17.574294
1131.215728	-17.546037
1131.642734	-17.570274
1132.070063	-17.504013
1132.497714	-17.518262
1132.925689	-17.492497
1133.353987	-17.454300
1133.782610	-17.438173
1134.211556	-17.379080
1134.640827	-17.398072
1135.070424	-17.316061
1135.500345	-17.290186
1135.930593	-17.254941
1136.361166	-17.212193
1136.792067	-17.210306
1137.223294	-17.135556
1137.654848	-17.153920
1138.086730	-17.113085
1138.518940	-17.102791
1138.951479	-17.078659
1139.384346	-17.048508
1139.817543	-17.086715
1140.251069	-17.039980
1140.684925	-17.064250
1141.119111	-17.040691
1141.553628	-17.053674
1141.988475	-17.049251
1142.423655	-17.008468
1142.859166	-17.038894
1143.295009	-17.000394
1143.731185	-17.016180
1144.167694	-16.966648
1144.604536	-16.953803
1145.041711	-16.933192
1145.479221	-16.875035
1145.917065	-16.858050
1146.355245	-16.789486
1146.793759	-16.788747
1147.232609	-16.706618
1147.671795	-16.666171
1148.111317	-16.616613
1148.551177	-16.553594
1148.991373	-16.518586
1149.431907	-16.433584
1149.872779	-16.431494
1150.313989	-16.353969
1150.755538	-16.323196
1151.197426	-16.268678
1151.639653	-16.226073
1152.082220	-16.214942
1152.525128	-16.146957
1152.968376	-16.157656
1153.411966	-16.112109
1153.855897	-16.113039
1154.300169	-16.072966
1154.744784	-16.062886
1155.189742	-16.072363
1155.635042	-16.042791
1156.080687	-16.064368
1156.526674	-16.039653
1156.973007	-16.070646
1157.419683	-16.039677
1157.866705	-16.049959
1158.314072	-16.055672
1158.761786	-16.057704
1159.209845	-16.068826
1159.658251	-16.044055
1160.107004	-16.075983
1160.556104	-16.035208
1161.005553	-16.046878
1161.455349	-16.018279
1161.905494	-16.027944
1162.355989	-16.005072
1162.806832	-15.969142
1163.258026	-15.965523
1163.709570	-15.911459
1164.161464	-15.903108
1164.613710	-15.839973
1165.066307	-15.838460
1165.519256	-15.779509
1165.972558	-15.741139
1166.426212	-15.693163
1166.880219	-15.646466
1167.334580	-15.610833
1167.789295	-15.545933
1168.244364	-15.528934
1168.699788	-15.463795
1169.155567	-15.431551
1169.611702	-15.365400
1170.068193	-15.344595
1170.525041	-15.295891
1170.982245	-15.259713
1171.439807	-15.229808
1171.897726	-15.192744
1172.356004	-15.164732
1172.814640	-15.117641
1173.273635	-15.116560
1173.732989	-15.080535
1174.192703	-15.074433
1174.652778	-15.041525
1175.113213	-15.040992
1175.574009	-15.013909
1176.035167	-15.002614
1176.496687	-15.003476
1176.958569	-14.994842
1177.420814	-14.994564
1177.883422	-14.971120
1178.346394	-14.987689
1178.809730	-14.960216
1179.273430	-14.975015
1179.737496	-14.961443
1180.201927	-14.975455
1180.666723	-14.952990
1181.131886	-14.949435
1181.597416	-14.946581
1182.063312	-14.932623
1182.529576	-14.935297
1182.996209	-14.911848
1183.463209	-14.920013
1183.930579	-14.871742
1184.398317	-14.876364
1184.866426	-14.838674
1185.334904	-14.839635
1185.803754	-14.793595
1186.272974	-14.783925
1186.742566	-14.741703
1187.212529	-14.707214
1187.682865	-14.679284
1188.153574	-14.645985
1188.624656	-14.621600
1189.096112	-14.568433
1189.567942	-14.549984
1190.040147	-14.493392
1190.512726	-14.475454
1190.985681	-14.430059
1191.459012	-14.418840
1191.932720	-14.367996
1192.406804	-14.342252
1192.881265	-14.310165
1193.356104	-14.283942
1193.831322	-14.263218
1194.306918	-14.237535
1194.782893	-14.227030
1195.259248	-14.181277
1195.735982	-14.181998
1196.213097	-14.145756
1196.690593	-14.155945
1197.168471	-14.114919
1197.646730	-14.127717
1198.125371	-14.082198
1198.604395	-14.089569
1199.083803	-14.060943
1199.563594	-14.075164
1200.043769	-14.045160
1200.524329	-14.045342
1201.005273	-14.026188
1201.486604	-14.018528
1201.968320	-14.012743
1202.450422	-14.008233
1202.932912	-14.006681
1203.415789	-13.982420
1203.899054	-13.990437
1204.382707	-13.966724
1204.866748	-13.983456
1205.351179	-13.960588
1205.836000	-13.979598
1206.321211	-13.939852
1206.806812	-13.959764
1207.292805	-13.932351
1207.779189	-13.955668
1208.265965	-13.923885
1208.753134	-13.940273
1209.240696	-13.904426
1209.728651	-13.912987
1210.217000	-13.895275
1210.705744	-13.899979
1211.194883	-13.878618
1211.684417	-13.865923
1212.174347	-13.855284
1212.664673	-13.830842
1213.155396	-13.839362
1213.646516	-13.805741
1214.138034	-13.814574
1214.629951	-13.757537
1215.122266	-13.786754
1215.614980	-13.722287
1216.108095	-13.766352
1216.601609	-13.686347
1217.095524	-13.732871
1217.589841	-13.634838
1218.084559	-13.702687
1218.579679	-13.602376
1219.075202	-13.673991
1219.571128	-13.560119
1220.067458	-13.630737
1220.564191	-13.514945
1221.061330	-13.596884
1221.558874	-13.490436
1222.056823	-13.554829
1222.555178	-13.449145
1223.053940	-13.506484
1223.553109	-13.423213
1224.052686	-13.470672
1224.552671	-13.405517
1225.053065	-13.421271
1225.553867	-13.375618
1226.055079	-13.381559
1226.556702	-13.365234
1227.058735	-13.349374
1227.561179	-13.346392
1228.064035	-13.306038
1228.567303	-13.324014
1229.070983	-13.284619
1229.575077	-13.312720
1230.079585	-13.254577
1230.584506	-13.283912
1231.089842	-13.225753
1231.595594	-13.262676
1232.101761	-13.211364
1232.608345	-13.238076
1233.115345	-13.177364
1233.622762	-13.204452
1234.130597	-13.155372
1234.638851	-13.182433
1235.147523	-13.130201
1235.656615	-13.145082
1236.166126	-13.091087
1236.676058	-13.116903
1237.186411	-13.067061
1237.697185	-13.085344
1238.208381	-13.026988
1238.719999	-13.043299
1239.232040	-12.992150
1239.744505	-13.013704
1240.257394	-12.960723
1240.770708	-12.965076
1241.284446	-12.918120
1241.798610	-12.923540
1242.313201	-12.890342
1242.828218	-12.881930
1243.343662	-12.847911
1243.859534	-12.827673
1244.375834	-12.815010
1244.892563	-12.790640
1245.409721	-12.780239
1245.927309	-12.740735
1246.445327	-12.734829
1246.963777	-12.702873
1247.482657	-12.704975
1248.001970	-12.666274
1248.521716	-12.657559
1249.041894	-12.625776
1249.562506	-12.621338
1250.083553	-12.602396
1250.605034	-12.581600
1251.126950	-12.562527
1251.649302	-12.538748
1252.172091	-12.538788
1252.695316	-12.508542
1253.218979	-12.508230
1253.743079	-12.464033
1254.267619	-12.474846
1254.792597	-12.439290
1255.318015	-12.450754
1255.843874	-12.404107
1256.370173	-12.411709
1256.896913	-12.375367
1257.424095	-12.390078
1257.951720	-12.354667
1258.479787	-12.352447
1259.008298	-12.325106
1259.537254	-12.327516
1260.066654	-12.312291
1260.596499	-12.302807
1261.126790	-12.285676
1261.657527	-12.273291
1262.188711	-12.275979
1262.720342	-12.260251
1263.252422	-12.257053
1263.784950	-12.233862
1264.317928	-12.241706
1264.851355	-12.227361
1265.385232	-12.234071
1265.919560	-12.207099
1266.454340	-12.214282
1266.989572	-12.200629
1267.525256	-12.211983
1268.061394	-12.190589
1268.597985	-12.193169
1269.135031	-12.177506
1269.672531	-12.193061
1270.210487	-12.175595
1270.748899	-12.178272
1271.287768	-12.160042
1271.827094	-12.172828
1272.366877	-12.163148
1272.907119	-12.165777
1273.447820	-12.147932
1273.988981	-12.152985
1274.530601	-12.152701
1275.072683	-12.150197
1275.615226	-12.144426
1276.158230	-12.131134
1276.701697	-12.145416
1277.245627	-12.132416
1277.790021	-12.141899
1278.334879	-12.114342
1278.880202	-12.133757
1279.425991	-12.117769
1279.972245	-12.132953
1280.518966	-12.106268
1281.066155	-12.113573
1281.613811	-12.110238
1282.161936	-12.111846
1282.710529	-12.106720
1283.259593	-12.088361
1283.809126	-12.103550
1284.359131	-12.088443
1284.909607	-12.103127
1285.460555	-12.068625
1286.011976	-12.089326
1286.563870	-12.071774
1287.116237	-12.086480
1287.669080	-12.061891
1288.222397	-12.061889
1288.776191	-12.065332
1289.330460	-12.057024
1289.885207	-12.060799
1290.440431	-12.030995
1290.996133	-12.053313
1291.552314	-12.031718
1292.108975	-12.044008
1292.666115	-12.010847
1293.223737	-12.023113
1293.781839	-12.013234
1294.340424	-12.010194
1294.899491	-11.994833
1295.459041	-11.980026
1296.019075	-11.992422
1296.579593	-11.967408
1297.140597	-11.970747
1297.702086	-11.937417
1298.264061	-11.954354
1298.826524	-11.933135
1299.389474	-11.924651
1299.952912	-11.906659
1300.516839	-11.899822
1301.081255	-11.903176
1301.646162	-11.873341
1302.211559	-11.872467
1302.777448	-11.851269
1303.343829	-11.862872
1303.910702	-11.835014
1304.478069	-11.825590
1305.045930	-11.817675
1305.614285	-11.813385
1306.183136	-11.806088
1306.752483	-11.778268
1307.322326	-11.785382
1307.892666	-11.770797
1308.463504	-11.771046
1309.034841	-11.742810
1309.606677	-11.743692
1310.179012	-11.740553
1310.751849	-11.726301
1311.325186	-11.715334
1311.899025	-11.697988
1312.473366	-11.709588
1313.048211	-11.686180
1313.623559	-11.677923
1314.199412	-11.663841
1314.775770	-11.666532
1315.352634	-11.656406
1315.930004	-11.633379
1316.507881	-11.635632
1317.086266	-11.626179
1317.665159	-11.625519
1318.244562	-11.601038
1318.824474	-11.602552
1319.404897	-11.603489
1319.985831	-11.592007
1320.567276	-11.583947
1321.149234	-11.576137
1321.731706	-11.589045
1322.314691	-11.573417
1322.898190	-11.570032
1323.482205	-11.569839
1324.066736	-11.576022
1324.651783	-11.573275
1325.237347	-11.560794
1325.823430	-11.575385
1326.410031	-11.574138
1326.997151	-11.574981
1327.584791	-11.567298
1328.172952	-11.577878
1328.761634	-11.586586
1329.350839	-11.575036
1329.940566	-11.581547
1330.530817	-11.585922
1331.121592	-11.596760
1331.712891	-11.586568
1332.304716	-11.590713
1332.897068	-11.606681
1333.489946	-11.603746
1334.083352	-11.605966
1334.677287	-11.606387
1335.271750	-11.626636
1335.866744	-11.625020
1336.462268	-11.622162
1337.058323	-11.639073
1337.654910	-11.646548
1338.252029	-11.654082
1338.849682	-11.649860
1339.447869	-11.671473
1340.046591	-11.683178
1340.645848	-11.679198
1341.245641	-11.693813
1341.845972	-11.706104
1342.446840	-11.722687
1343.048246	-11.718718
1343.650191	-11.734426
1344.252677	-11.758075
1344.855702	-11.756618
1345.459269	-11.769568
1346.063379	-11.782301
1346.668030	-11.804348
1347.273226	-11.806561
1347.878965	-11.811762
1348.485250	-11.843118
1349.092080	-11.845294
1349.699456	-11.854476
1350.307380	-11.867268
1350.915851	-11.886492
1351.524871	-11.898306
1352.134441	-11.892559
1352.744560	-11.922750
1353.355231	-11.931552
1353.966453	-11.931502
1354.578227	-11.947409
1355.190555	-11.958399
1355.803436	-11.975004
1356.416872	-11.966775
1357.030863	-11.985815
1357.645411	-12.006351
1358.260515	-11.995016
1358.876177	-12.012797
1359.492397	-12.023963
1360.109176	-12.033639
1360.726516	-12.035514
1361.344416	-12.040779
1361.962877	-12.069503
1362.581901	-12.058446
1363.201487	-12.066014
1363.821637	-12.091169
1364.442352	-12.087777
1365.063632	-12.096794
1365.685478	-12.103060
1366.307891	-12.122081
1366.930871	-12.125679
1367.554420	-12.118527
1368.178538	-12.151857
1368.803226	-12.149657
1369.428485	-12.145700
1370.054315	-12.169772
1370.680717	-12.172228
1371.307693	-12.179196
1371.935242	-12.178822
1372.563366	-12.195068
1373.192065	-12.206900
1373.821341	-12.189214
1374.451193	-12.214785
1375.081623	-12.222722
1375.712632	-12.206783
1376.344221	-12.226662
1376.976389	-12.228893
1377.609139	-12.229187
1378.242470	-12.229205
1378.876384	-12.232470
1379.510881	-12.247450
1380.145963	-12.227926
1380.781629	-12.237926
1381.417881	-12.255591
1382.054720	-12.230345
1382.692147	-12.243957
1383.330161	-12.254152
1383.968765	-12.239259
1384.607959	-12.248041
1385.247743	-12.248592
1385.888119	-12.253685
1386.529087	-12.249280
1387.170648	-12.246690
1387.812804	-12.268060
1388.455554	-12.250903
1389.098899	-12.252288
1389.742842	-12.279272
1390.387381	-12.258137
1391.032519	-12.265806
1391.678256	-12.286947
1392.324592	-12.272730
1392.971529	-12.282917
1393.619068	-12.291580
1394.267208	-12.292760
1394.915952	-12.298803
1395.565300	-12.297501
1396.215253	-12.315990
1396.865812	-12.313942
1397.516977	-12.309035
1398.168749	-12.339584
1398.821130	-12.328932
1399.474120	-12.326523
1400.127719	-12.359688
1400.781930	-12.344247
1401.436752	-12.347750
1402.092186	-12.374507
1402.748234	-12.360664
1403.404897	-12.368529
1404.062174	-12.383399
1404.720067	-12.375935
1405.378577	-12.384373
1406.037705	-12.386798
1406.697451	-12.390393
1407.357817	-12.395930
1408.018803	-12.391013
1408.680410	-12.406355
1409.342639	-12.406302
1410.005492	-12.397995
1410.668968	-12.422152
1411.333068	-12.413960
1411.997795	-12.406820
1412.663147	-12.435371
1413.329127	-12.420789
1413.995736	-12.418558
1414.662973	-12.447789
1415.330840	-12.429275
1415.999339	-12.432573
1416.668469	-12.457969
1417.338232	-12.437797
1418.008628	-12.446023
1418.679659	-12.466221
1419.351325	-12.449293
1420.023628	-12.463041
1420.696568	-12.479686
1421.370145	-12.469265
1422.044362	-12.486188
1422.719219	-12.498505
1423.394717	-12.493276
1424.070856	-12.509803
1424.747638	-12.517361
1425.425064	-12.518149
1426.103134	-12.533642
1426.781850	-12.541090
1427.461212	-12.548996
1428.141221	-12.564489
1428.821878	-12.571917
1429.503185	-12.583902
1430.185141	-12.594392
1430.867749	-12.599616
1431.551008	-12.610672
1432.234920	-12.616568
1432.919486	-12.621782
1433.604707	-12.635732
1434.290583	-12.642384
1434.977116	-12.653233
1435.664307	-12.670627
1436.352156	-12.678315
1437.040664	-12.689449
1437.729833	-12.703257
1438.419663	-12.705014
1439.110156	-12.711197
1439.801312	-12.718772
1440.493132	-12.718903
1441.185617	-12.725890
1441.878768	-12.737085
1442.572586	-12.744755
1443.267072	-12.758053
1443.962228	-12.773640
1444.658053	-12.784957
1445.354549	-12.793176
1446.051717	-12.801747
1446.749558	-12.803700
1447.448073	-12.797793
1448.147263	-12.797550
1448.847128	-12.795487
1449.547671	-12.786546
1450.248891	-12.795334
1450.950789	-12.804371
1451.653368	-12.805317
1452.356627	-12.828920
1453.060568	-12.843620
1453.765192	-12.841550
1454.470500	-12.860527
1455.176492	-12.857365
1455.883170	-12.834731
1456.590534	-12.837789
1457.298586	-12.816069
1458.007327	-12.787732
1458.716758	-12.796167
1459.426880	-12.784002
1460.137693	-12.780201
1460.849199	-12.813765
1461.561398	-12.823126
1462.274293	-12.842893
1462.987883	-12.882213
1463.702170	-12.887435
1464.417155	-12.895598
1465.132838	-12.902295
1465.849222	-12.877670
1466.566306	-12.856411
1467.284093	-12.830203
1468.002582	-12.798154
1468.721775	-12.778871
1469.441674	-12.765226
1470.162278	-12.774807
1470.883590	-12.795330
1471.605609	-12.827630
1472.328338	-12.890073
1473.051777	-12.940143
1473.775928	-12.994376
1474.500790	-13.060078
1475.226367	-13.082781
1475.952657	-13.102222
1476.679663	-13.112516
1477.407386	-13.077822
1478.135826	-13.053139
1478.864985	-13.022535
1479.594863	-12.983439
1480.325463	-12.976032
1481.056784	-12.980090
1481.788828	-13.015939
1482.521597	-13.082464
1483.255090	-13.169360
1483.989309	-13.296119
1484.724256	-13.416613
1485.459931	-13.543179
1486.196336	-13.668500
1486.933471	-13.728275
1487.671337	-13.760066
1488.409937	-13.733008
1489.149270	-13.620037
1489.889337	-13.475537
1490.630141	-13.275744
1491.371682	-13.051590
1492.113961	-12.831325
1492.856979	-12.611268
1493.600738	-12.437960
1494.345238	-12.288828
1495.090481	-12.191038
1495.836467	-12.161012
1496.583198	-12.156724
1497.330675	-12.225267
1498.078899	-12.333910
1498.827872	-12.465387
1499.577593	-12.639289
1500.328065	-12.801913
1501.079289	-12.968188
1501.831265	-13.100548
1502.583995	-13.186863
1503.337480	-13.249019
1504.091721	-13.236191
1504.846719	-13.208674
1505.602475	-13.164640
1506.358991	-13.102323
1507.116268	-13.088035
1507.874306	-13.097267
1508.633108	-13.182331
1509.392673	-13.344126
1510.153004	-13.595717
1510.914101	-13.988421
1511.675965	-14.481243
1512.438599	-15.155192
1513.202002	-15.996011
1513.966176	-17.001582
1514.731122	-18.207619
1515.496842	-19.440372
1516.263336	-20.487857
1517.030607	-20.809464
1517.798654	-20.090099
1518.567479	-18.732971
1519.337083	-17.123142
1520.107468	-15.584078
1520.878634	-14.222441
1521.650584	-13.008500
1522.423317	-11.976836
1523.196836	-11.064991
1523.971141	-10.289566
1524.746233	-9.615159
1525.522115	-9.024690
1526.298786	-8.529258
1527.076249	-8.089148
1527.854504	-7.725416
1528.633553	-7.408238
1529.413397	-7.151189
1530.194037	-6.938431
1530.975474	-6.766143
1531.757709	-6.644317
1532.540745	-6.548055
1533.324581	-6.498534
1534.109220	-6.471570
1534.894662	-6.484708
1535.680909	-6.519593
1536.467961	-6.585737
1537.255821	-6.682598
1538.044489	-6.800396
1538.833967	-6.957599
1539.624256	-7.136474
1540.415357	-7.362451
1541.207271	-7.614676
1542.000000	-7.923039
1542.793545	-8.272858
1543.587907	-8.680840
1544.383087	-9.153017
1545.179088	-9.691041
1545.975909	-10.318722
1546.773552	-11.023956
1547.572019	-11.858119
1548.371311	-12.800100
1549.171428	-13.920692
1549.972373	-15.224592
1550.774147	-16.809757
1551.576751	-18.757318
1552.380185	-21.260035
1553.184453	-24.768294
1553.989554	-30.155146
1554.795490	-36.688169
1555.602263	-29.998560
1556.409873	-24.960969
1557.218322	-21.880397
1558.027612	-19.659111
1558.837743	-18.017467
1559.648717	-16.720136
1560.460536	-15.691698
1561.273200	-14.864399
1562.086710	-14.184584
1562.901069	-13.655868
1563.716278	-13.219892
1564.532337	-12.902458
1565.349249	-12.651918
1566.167014	-12.500368
1566.985634	-12.404808
1567.805111	-12.384161
1568.625444	-12.418973
1569.446637	-12.508693
1570.268690	-12.652898
1571.091605	-12.828299
1571.915382	-13.057389
1572.740024	-13.298227
1573.565532	-13.580093
1574.391907	-13.854243
1575.219150	-14.149010
1576.047262	-14.422023
1576.876246	-14.681185
1577.706103	-14.907916
1578.536833	-15.088637
1579.368439	-15.234473
1580.200922	-15.309978
1581.034282	-15.354937
1581.868522	-15.329737
1582.703643	-15.284300
1583.539646	-15.183620
1584.376532	-15.072391
1585.214304	-14.933896
1586.052962	-14.791657
1586.892508	-14.646088
1587.732943	-14.499737
1588.574269	-14.371443
1589.416487	-14.243082
1590.259599	-14.142211
1591.103605	-14.039842
1591.948508	-13.969899
1592.794309	-13.896619
1593.641009	-13.850610
1594.488609	-13.798771
1595.337112	-13.767900
1596.186518	-13.728939
1597.036829	-13.700011
1597.888047	-13.661873
1598.740172	-13.627136
1599.593207	-13.585281
1600.447153	-13.540347
1601.302010	-13.493495
1602.157782	-13.443161
1603.014469	-13.397815
1603.872072	-13.348248
1604.730593	-13.310480
1605.590034	-13.271537
1606.450397	-13.250659
1607.311681	-13.229426
1608.173890	-13.230508
1609.037024	-13.233601
1609.901085	-13.261897
1610.766075	-13.291582
1611.631995	-13.346355
1612.498846	-13.403212
1613.366630	-13.484540
1614.235349	-13.566059
1615.105004	-13.669069
1615.975596	-13.770862
1616.847128	-13.890649
1617.719600	-14.005572
1618.593014	-14.132918
1619.467372	-14.252312
1620.342675	-14.379709
1621.218924	-14.496008
1622.096122	-14.615428
1622.974270	-14.722305
1623.853369	-14.830490
1624.733420	-14.925274
1625.614427	-15.020402
1626.496389	-15.104666
1627.379308	-15.191950
1628.263187	-15.272157
1629.148026	-15.358161
1630.033828	-15.440684
1630.920593	-15.532596
1631.808324	-15.623775
1632.697022	-15.724715
1633.586688	-15.825150
1634.477324	-15.936043
1635.368932	-16.045748
1636.261514	-16.162948
1637.155070	-16.274852
1638.049602	-16.391080
1638.945113	-16.497362
1639.841603	-16.603491
1640.739075	-16.694128
1641.637529	-16.781703
1642.536968	-16.851722
1643.437393	-16.918746
1644.338806	-16.966445
1645.241209	-17.012299
1646.144602	-17.040766
1647.048988	-17.071404
1647.954368	-17.086661
1648.860744	-17.107037
1649.768118	-17.114516
1650.676491	-17.130541
1651.585865	-17.133883
1652.496241	-17.144232
1653.407621	-17.139765
1654.320008	-17.140936
1655.233401	-17.125738
1656.147804	-17.112959
1657.063218	-17.082712
1657.979645	-17.054182
1658.897085	-17.010844
1659.815542	-16.968139
1660.735016	-16.912517
1661.655509	-16.856395
1662.577023	-16.792408
1663.499560	-16.728712
1664.423121	-16.662401
1665.347709	-16.595162
1666.273324	-16.529481
1667.199969	-16.461059
1668.127645	-16.396360
1669.056353	-16.325232
1669.986097	-16.258541
1670.916877	-16.182706
1671.848695	-16.112298
1672.781553	-16.031758
1673.715452	-15.957607
1674.650395	-15.875502
1675.586383	-15.800748
1676.523418	-15.720258
1677.461501	-15.644675
1678.400635	-15.565816
1679.340821	-15.490222
1680.282061	-15.415809
1681.224357	-15.341288
1682.167710	-15.269756
1683.112122	-15.194038
1684.057595	-15.123400
1685.004132	-15.046904
1685.951732	-14.977103
1686.900400	-14.901684
1687.850135	-14.833695
1688.800940	-14.762622
1689.752818	-14.697155
1690.705768	-14.630429
1691.659795	-14.565254
1692.614898	-14.501750
1693.571081	-14.437021
1694.528345	-14.377077
1695.486691	-14.313590
1696.446122	-14.256482
1697.406640	-14.195775
1698.368245	-14.141475
1699.330941	-14.084873
1700.294729	-14.032114
1701.259611	-13.979579
1702.225588	-13.927906
1703.192664	-13.879585
1704.160838	-13.829073
1705.130114	-13.783492
1706.100493	-13.734559
1707.071977	-13.691272
1708.044568	-13.646076
1709.018268	-13.604963
1709.993079	-13.564678
1710.969003	-13.525520
1711.946041	-13.489986
1712.924196	-13.452464
1713.903469	-13.419766
1714.883862	-13.383882
1715.865378	-13.352460
1716.848017	-13.319620
1717.831783	-13.289049
1718.816677	-13.260265
1719.802701	-13.230810
1720.789857	-13.205927
1721.778147	-13.178594
1722.767573	-13.155945
1723.758136	-13.131075
1724.749840	-13.108283
1725.742685	-13.085815
1726.736673	-13.061905
1727.731808	-13.040907
1728.728090	-13.016483
1729.725521	-12.996046
1730.724105	-12.973933
1731.723842	-12.954050
1732.724735	-12.935459
1733.726785	-12.915444
1734.729995	-12.898836
1735.734366	-12.879464
1736.739902	-12.863420
1737.746603	-12.846412
1738.754472	-12.830053
1739.763510	-12.815771
1740.773721	-12.799568
1741.785105	-12.786732
1742.797665	-12.771678
1743.811403	-12.758359
1744.826321	-12.745504
1745.842422	-12.732132
1746.859706	-12.722031
1747.878177	-12.710079
1748.897835	-12.700508
1749.918685	-12.689805
1750.940726	-12.678922
1751.963963	-12.669778
1752.988395	-12.659053
1754.014027	-12.651196
1755.040860	-12.642427
1756.068895	-12.634643
1757.098135	-12.628057
1758.128583	-12.620105
1759.160240	-12.614604
1760.193109	-12.607873
1761.227191	-12.602745
1762.262488	-12.598820
1763.299004	-12.594302
1764.336740	-12.592207
1765.375697	-12.588763
1766.415880	-12.586680
1767.457288	-12.585208
1768.499926	-12.583104
1769.543794	-12.583184
1770.588895	-12.581714
1771.635231	-12.581031
1772.682805	-12.580526
1773.731619	-12.578909
1774.781674	-12.579464
1775.832973	-12.578924
1776.885519	-12.579322
1777.939312	-12.580287
1778.994357	-12.579639
1780.050654	-12.580671
1781.108207	-12.580526
1782.167017	-12.580905
1783.227087	-12.582766
1784.288418	-12.583365
1785.351013	-12.585780
1786.414875	-12.587510
1787.480006	-12.588583
1788.546407	-12.591119
1789.614082	-12.591869
1790.683032	-12.593902
1791.753259	-12.596372
1792.824767	-12.597827
1793.897557	-12.601422
1794.971632	-12.604291
1796.046994	-12.607537
1797.123645	-12.612174
1798.201588	-12.615323
1799.280824	-12.619901
1800.361357	-12.624749
1801.443188	-12.629000
1802.526320	-12.635181
1803.610756	-12.640577
1804.696497	-12.646489
1805.783546	-12.654148
1806.871906	-12.661275
1807.961578	-12.670121
1809.052565	-12.679566
1810.144870	-12.688459
1811.238494	-12.698625
1812.333441	-12.707976
1813.429713	-12.716883
1814.527311	-12.726617
1815.626239	-12.735236
1816.726499	-12.744572
1817.828094	-12.754758
1818.931025	-12.764202
1820.035295	-12.774952
1821.140906	-12.785728
1822.247862	-12.796399
1823.356165	-12.808622
1824.465816	-12.820488
1825.576819	-12.832712
1826.689175	-12.845730
1827.802888	-12.858231
1828.917960	-12.871809
1830.034394	-12.885891
1831.152191	-12.899380
1832.271354	-12.913626
1833.391887	-12.927892
1834.513790	-12.942371
1835.637068	-12.958332
1836.761722	-12.974611
1837.887755	-12.991433
1839.015169	-13.008851
1840.143968	-13.025310
1841.274153	-13.042016
1842.405727	-13.059171
1843.538693	-13.076451
1844.673053	-13.095125
1845.808810	-13.114145
1846.945966	-13.133103
1848.084525	-13.152741
1849.224488	-13.172257
1850.365858	-13.191768
1851.508638	-13.211621
1852.652831	-13.231677
1853.798438	-13.252091
1854.945463	-13.273808
1856.093909	-13.296350
1857.243777	-13.318299
1858.395071	-13.340290
1859.547794	-13.361597
1860.701947	-13.382062
1861.857533	-13.404081
1863.014556	-13.426174
1864.173018	-13.448133
1865.332922	-13.471949
1866.494270	-13.494783
1867.657065	-13.517348
1868.821309	-13.541481
1869.987006	-13.564486
1871.154158	-13.588629
1872.322768	-13.614626
1873.492839	-13.639601
1874.664373	-13.665862
1875.837373	-13.692934
1877.011841	-13.718734
1878.187782	-13.745383
1879.365197	-13.772002
1880.544089	-13.798473
1881.724460	-13.826665
1882.906315	-13.854719
1884.089655	-13.882086
1885.274483	-13.909873
1886.460803	-13.937423
1887.648616	-13.965612
1888.837927	-13.994632
1890.028736	-14.023176
1891.221049	-14.051336
1892.414866	-14.079187
1893.610192	-14.106646
1894.807028	-14.134083
1896.005379	-14.161451
1897.205246	-14.188788
1898.406633	-14.215766
1899.609542	-14.242018
1900.813977	-14.268192
1902.019940	-14.294369
1903.227434	-14.320399
1904.436462	-14.346427
1905.647028	-14.371763
1906.859133	-14.396570
1908.072781	-14.421376
1909.287976	-14.445536
1910.504719	-14.469240
1911.723013	-14.492717
1912.942863	-14.515346
1914.164270	-14.537338
1915.387238	-14.559458
1916.611770	-14.581356
1917.837868	-14.603373
1919.065536	-14.625804
1920.294777	-14.647802
1921.525594	-14.669757
1922.757989	-14.692578
1923.991967	-14.715414
1925.227529	-14.737415
1926.464679	-14.759385
1927.703420	-14.781107
1928.943755	-14.802311
1930.185688	-14.823447
1931.429221	-14.844399
1932.674356	-14.864166
1933.921099	-14.882883
1935.169451	-14.901130
1936.419415	-14.918877
1937.670996	-14.936229
1938.924195	-14.953260
1940.179017	-14.969043
1941.435463	-14.983275
1942.693538	-14.996946
1943.953245	-15.010368
1945.214586	-15.022425
1946.477566	-15.032801
1947.742186	-15.042303
1949.008451	-15.050923
1950.276363	-15.057864
1951.545926	-15.063220
1952.817143	-15.066973
1954.090017	-15.068977
1955.364551	-15.069931
1956.640749	-15.070369
1957.918615	-15.069281
1959.198150	-15.065733
1960.479359	-15.060561
1961.762244	-15.054763
1963.046810	-15.048825
1964.333059	-15.042833
1965.620995	-15.036140
1966.910621	-15.027756
1968.201940	-15.017844
1969.494956	-15.007330
1970.789672	-14.997023
1972.086091	-14.987282
1973.384217	-14.977823
1974.684053	-14.967910
1975.985602	-14.956307
1977.288869	-14.942762
1978.593855	-14.928077
1979.900566	-14.913087
1981.209003	-14.898588
1982.519171	-14.884928
1983.831073	-14.871125
1985.144712	-14.855909
1986.460093	-14.840225
1987.777217	-14.825827
1989.096089	-14.812467
1990.416713	-14.797819
1991.739092	-14.780080
1993.063228	-14.759101
1994.389127	-14.736310
1995.716791	-14.713224
1997.046223	-14.690016
1998.377428	-14.665365
1999.710409	-14.638414
2001.045169	-14.610525
2002.381713	-14.582637
2003.720043	-14.554674
2005.060163	-14.526042
2006.402077	-14.496247
2007.745788	-14.465382
2009.091301	-14.433487
2010.438618	-14.401176
2011.787743	-14.369130
2013.138680	-14.337228
2014.491433	-14.305416
2015.846005	-14.273851
2017.202399	-14.242919
2018.560621	-14.212722
2019.920673	-14.183585
2021.282558	-14.155399
2022.646281	-14.127037
2024.011846	-14.097624
2025.379256	-14.068184
2026.748515	-14.039860
2028.119626	-14.012040
2029.492594	-13.982519
2030.867422	-13.949515
2032.244114	-13.912606
2033.622673	-13.872126
2035.003104	-13.828400
2036.385411	-13.780900
2037.769597	-13.729834
2039.155665	-13.676438
2040.543621	-13.623531
2041.933467	-13.574399
2043.325208	-13.531458
2044.718847	-13.495976
2046.114389	-13.467943
2047.511837	-13.446636
2048.911195	-13.432103
2050.312467	-13.424288
2051.715657	-13.421723
2053.120769	-13.421689
2054.527807	-13.421275
2055.936775	-13.417988
2057.347677	-13.411341
2058.760516	-13.402135
2060.175297	-13.389788
2061.592025	-13.372982
2063.010701	-13.350616
2064.431332	-13.322901
2065.853921	-13.291884
2067.278472	-13.260265
2068.704988	-13.228290
2070.133475	-13.194324
2071.563936	-13.157777
2072.996375	-13.120127
2074.430796	-13.083409
2075.867204	-13.048391
2077.305603	-13.013723
2078.745996	-12.977969
2080.188389	-12.941461
2081.632784	-12.906040
2083.079187	-12.873182
2084.527601	-12.842825
2085.978030	-12.814541
2087.430480	-12.788200
2088.884954	-12.764801
2090.341455	-12.745586
2091.799990	-12.731459
2093.260561	-12.721856
2094.723173	-12.714551
2096.187831	-12.707063
2097.654538	-12.699205
2099.123300	-12.692456
2100.594119	-12.686833
2102.067001	-12.679729
2103.541950	-12.669142
2105.018971	-12.654739
2106.498067	-12.637351
2107.979243	-12.617137
2109.462503	-12.593898
2110.947853	-12.568680
2112.435295	-12.542538
2113.924836	-12.517195
2115.416478	-12.494642
2116.910227	-12.476466
2118.406087	-12.462187
2119.904063	-12.450603
2121.404158	-12.441842
2122.906378	-12.437101
2124.410727	-12.435475
2125.917210	-12.434306
2127.425831	-12.432776
2128.936594	-12.430692
2130.449505	-12.426636
2131.964567	-12.420123
2133.481786	-12.413084
2135.001166	-12.407362
2136.522711	-12.402675
2138.046427	-12.398564
2139.572317	-12.395810
2141.100388	-12.394845
2142.630642	-12.395184
2144.163085	-12.395529
2145.697722	-12.395604
2147.234558	-12.395244
2148.773596	-12.394926
2150.314842	-12.395926
2151.858301	-12.398016
2153.403977	-12.399426
2154.951875	-12.399796
2156.502000	-12.400901
2158.054357	-12.404113
2159.608950	-12.407975
2161.165785	-12.409921
2162.724866	-12.410282
2164.286198	-12.411569
2165.849786	-12.414098
2167.415635	-12.416418
2168.983749	-12.418206
2170.554134	-12.419716
2172.126795	-12.421610
2173.701737	-12.425095
2175.278964	-12.430598
2176.858481	-12.436537
2178.440294	-12.443056
2180.024408	-12.453206
2181.610827	-12.467905
2183.199557	-12.484141
2184.790602	-12.500620
2186.383968	-12.519261
2187.979660	-12.540510
2189.577683	-12.563142
2191.178041	-12.586608
2192.780741	-12.610152
2194.385787	-12.633453
2195.993185	-12.657671
2197.602939	-12.682705
2199.215054	-12.699450
