# 2022-03-21_23.40.57
# shape = sech2
# FWHM_ps = 0.1
# carrier_nm = 1542
# frep_MHz = 12126
# pow_mW = 8000
# GDD = 0.0
# propa_len = 0.13244444444444445
# untap_len = 0.01
# taper_len = 0.07244444444444445
# waist_len = 0.02
# uptap_len = 0.02
# untap_scale = 1.0
# waist_scale = 0.1
# workingDir = NL_20110305_12 (Spirou)
# axis = slow
# window_ps = 10.0
# steps = 200
# points = 21700
# 
# wavelength [nm]	 power spectral density [dB]
600.043425	-81.965532
600.163550	-88.199914
600.283723	-94.942818
600.403943	-89.167376
600.524212	-86.725692
600.644529	-91.216984
600.764895	-102.908479
600.885308	-81.152870
601.005770	-78.715788
601.126280	-81.695699
601.246839	-90.202612
601.367446	-80.812690
601.488101	-83.846111
601.608804	-85.322547
601.729557	-95.131454
601.850357	-83.508179
601.971206	-81.323573
602.092104	-83.164342
602.213050	-90.089803
602.334045	-82.169239
602.455089	-80.770352
602.576181	-83.243824
602.697322	-86.491292
602.818511	-83.313847
602.939749	-84.437414
603.061036	-84.949464
603.182372	-91.287710
603.303757	-86.906867
603.425191	-80.603373
603.546673	-77.843281
603.668204	-86.641911
603.789785	-85.762169
603.911414	-80.928446
604.033092	-81.871849
604.154820	-88.030984
604.276596	-85.779453
604.398422	-90.882412
604.520297	-82.260643
604.642220	-81.799715
604.764193	-92.306052
604.886216	-87.273265
605.008287	-82.998436
605.130408	-80.349723
605.252578	-84.196642
605.374798	-85.036311
605.497066	-78.189784
605.619385	-76.953969
605.741752	-81.668167
605.864169	-87.486345
605.986636	-85.193281
606.109152	-85.539781
606.231718	-77.795170
606.354333	-80.361041
606.476998	-90.801082
606.599712	-83.296254
606.722476	-80.667908
606.845290	-86.088166
606.968154	-81.200980
607.091067	-82.804316
607.214030	-78.854665
607.337043	-77.218640
607.460106	-79.521601
607.583219	-84.873434
607.706381	-86.955393
607.829594	-84.206916
607.952856	-79.976295
608.076169	-79.525660
608.199531	-84.393918
608.322944	-88.893109
608.446407	-80.330902
608.569920	-79.536349
608.693483	-81.017948
608.817096	-85.568651
608.940759	-82.022151
609.064473	-78.995955
609.188237	-76.915695
609.312051	-78.655057
609.435916	-78.794379
609.559831	-85.813133
609.683796	-86.680048
609.807812	-81.707732
609.931878	-78.848840
610.055995	-82.551412
610.180162	-84.866433
610.304380	-80.708468
610.428648	-80.634032
610.552967	-81.024927
610.677337	-81.602936
610.801757	-80.016531
610.926228	-81.382211
611.050750	-77.143336
611.175323	-78.132624
611.299946	-77.093132
611.424620	-77.833162
611.549345	-86.184075
611.674121	-86.483307
611.798948	-78.004826
611.923826	-81.312000
612.048755	-79.852879
612.173734	-80.622859
612.298765	-80.929094
612.423847	-81.036384
612.548980	-79.596722
612.674165	-78.118817
612.799400	-80.455854
612.924687	-77.219692
613.050025	-84.854562
613.175414	-80.349353
613.300854	-78.116765
613.426346	-78.863081
613.551889	-80.262992
613.677484	-84.994216
613.803130	-77.458302
613.928827	-82.127111
614.054576	-78.267844
614.180377	-78.316560
614.306229	-77.841636
614.432132	-80.570661
614.558087	-78.504916
614.684094	-81.196070
614.810153	-82.781272
614.936263	-77.526048
615.062425	-76.997716
615.188639	-88.211068
615.314904	-76.375523
615.441222	-76.104866
615.567591	-77.058504
615.694012	-81.633564
615.820486	-78.981422
615.947011	-87.733484
616.073588	-80.228023
616.200217	-75.711336
616.326898	-75.409673
616.453632	-84.051475
616.580417	-73.133092
616.707255	-75.661576
616.834144	-83.997198
616.961086	-79.690987
617.088081	-75.617905
617.215127	-80.188422
617.342226	-79.518665
617.469378	-77.739295
617.596581	-84.571779
617.723837	-76.477971
617.851146	-76.573986
617.978507	-74.628277
618.105920	-77.338355
618.233386	-83.932273
618.360905	-80.468614
618.488476	-75.773348
618.616100	-80.497351
618.743777	-78.613304
618.871506	-74.685318
618.999288	-78.723497
619.127123	-81.874759
619.255011	-74.513340
619.382951	-77.830733
619.510945	-79.316845
619.638991	-80.997210
619.767090	-73.345253
619.895243	-78.415439
620.023448	-76.461783
620.151706	-79.377558
620.280017	-76.025213
620.408382	-76.738088
620.536799	-84.748721
620.665270	-77.453791
620.793794	-74.712738
620.922371	-82.655705
621.051002	-74.466539
621.179686	-74.513675
621.308423	-75.065480
621.437213	-79.118292
621.566057	-78.472241
621.694954	-77.318815
621.823905	-75.150584
621.952909	-80.305306
622.081967	-75.213141
622.211079	-76.430973
622.340244	-76.227171
622.469462	-83.906495
622.598735	-75.816064
622.728061	-76.326454
622.857441	-74.872210
622.986874	-85.090965
623.116361	-76.773386
623.245903	-74.585140
623.375498	-77.326178
623.505147	-77.076583
623.634850	-78.488882
623.764606	-75.916749
623.894417	-72.978971
624.024282	-92.153061
624.154201	-75.089876
624.284174	-76.675764
624.414202	-77.163960
624.544283	-75.876994
624.674419	-81.225841
624.804609	-73.934130
624.934853	-73.553719
625.065151	-80.716383
625.195504	-79.200604
625.325911	-74.497242
625.456373	-73.675907
625.586889	-74.983894
625.717460	-83.644904
625.848085	-74.999877
625.978764	-78.761560
626.109498	-74.537975
626.240287	-75.870886
626.371131	-78.271699
626.502029	-77.318106
626.632982	-72.343055
626.763989	-81.014719
626.895052	-76.508277
627.026169	-78.137594
627.157341	-72.859289
627.288568	-76.599792
627.419850	-76.398431
627.551187	-79.821031
627.682579	-75.779813
627.814026	-74.244087
627.945528	-72.049142
628.077085	-81.387368
628.208697	-76.990110
628.340364	-78.073597
628.472087	-74.728507
628.603865	-77.921396
628.735698	-75.471944
628.867586	-77.861555
628.999530	-74.398270
629.131529	-74.904544
629.263584	-76.197956
629.395694	-78.507515
629.527859	-79.224426
629.660080	-74.807899
629.792357	-71.907868
629.924689	-75.440779
630.057077	-78.955651
630.189520	-74.349747
630.322019	-79.513770
630.454574	-74.922750
630.587184	-75.646691
630.719851	-75.826012
630.852573	-77.747791
630.985351	-75.345003
631.118185	-76.566360
631.251075	-73.190756
631.384021	-78.291640
631.517023	-77.558563
631.650081	-73.457524
631.783195	-73.544889
631.916365	-75.604797
632.049592	-76.146535
632.182874	-76.931571
632.316213	-78.546863
632.449608	-75.170362
632.583059	-74.445036
632.716567	-72.142459
632.850131	-75.744337
632.983751	-75.044124
633.117428	-78.111752
633.251161	-73.862764
633.384951	-76.505625
633.518797	-74.328137
633.652700	-79.501332
633.786660	-71.868566
633.920676	-80.331280
634.054749	-74.202715
634.188879	-76.541921
634.323065	-74.130276
634.457308	-78.115261
634.591608	-74.873251
634.725965	-75.867390
634.860379	-73.908619
634.994850	-76.581454
635.129377	-75.086498
635.263962	-77.869739
635.398604	-74.708908
635.533303	-72.755279
635.668058	-81.586940
635.802872	-75.075496
635.937742	-73.374780
636.072669	-77.222257
636.207654	-73.540030
636.342696	-72.353337
636.477796	-80.148638
636.612953	-74.200835
636.748167	-75.067064
636.883439	-82.409738
637.018768	-72.435596
637.154155	-72.445508
637.289599	-75.076195
637.425101	-80.784544
637.560660	-72.909834
637.696277	-77.226643
637.831952	-74.440369
637.967685	-74.468563
638.103475	-74.145280
638.239324	-77.972473
638.375230	-71.468732
638.511194	-74.228453
638.647215	-72.925366
638.783295	-75.797346
638.919433	-71.643544
639.055629	-82.906322
639.191883	-75.591020
639.328195	-73.201526
639.464565	-75.503529
639.600994	-74.435941
639.737481	-75.845779
639.874025	-72.597469
640.010629	-82.263249
640.147290	-73.835149
640.284010	-75.937186
640.420789	-71.651296
640.557625	-84.145830
640.694521	-71.948085
640.831474	-72.462755
640.968487	-77.596816
641.105558	-73.728667
641.242687	-72.859282
641.379876	-80.645213
641.517123	-77.332305
641.654429	-72.833197
641.791793	-72.321534
641.929216	-74.451440
642.066699	-75.149157
642.204240	-77.464268
642.341840	-73.956477
642.479499	-83.134662
642.617217	-73.636179
642.754994	-71.909928
642.892830	-75.587772
643.030726	-75.943342
643.168680	-72.496891
643.306694	-74.723638
643.444767	-74.721044
643.582899	-81.052423
643.721091	-74.676813
643.859342	-72.831880
643.997652	-77.122580
644.136022	-72.788509
644.274451	-74.935166
644.412940	-72.222966
644.551488	-82.375999
644.690096	-73.640971
644.828763	-73.803925
644.967490	-73.232522
645.106277	-74.882269
645.245124	-73.187664
645.384030	-74.613026
645.522997	-69.759811
645.662023	-84.024454
645.801109	-74.761653
645.940255	-73.639157
646.079460	-71.568406
646.218726	-77.574543
646.358052	-74.635143
646.497438	-75.649353
646.636884	-72.791441
646.776391	-76.562913
646.915957	-78.229976
647.055584	-72.225255
647.195271	-75.530906
647.335019	-74.329715
647.474826	-78.082174
647.614695	-75.387445
647.754623	-73.484064
647.894612	-70.482347
648.034662	-83.995851
648.174772	-75.011197
648.314943	-77.820102
648.455174	-73.508079
648.595466	-75.777135
648.735819	-73.640649
648.876233	-77.932955
649.016707	-71.243509
649.157242	-74.897350
649.297838	-73.232131
649.438495	-76.835552
649.579213	-75.378357
649.719992	-75.453443
649.860832	-82.783483
650.001733	-72.514041
650.142695	-80.947137
650.283718	-71.712365
650.424803	-73.701603
650.565949	-71.701947
650.707156	-89.361403
650.848424	-72.441926
650.989754	-79.138974
651.131145	-71.481590
651.272597	-80.324964
651.414111	-74.033621
651.555687	-76.430362
651.697324	-82.719890
651.839022	-70.517288
651.980782	-75.326328
652.122604	-74.103342
652.264488	-75.936150
652.406433	-75.446237
652.548441	-71.228000
652.690510	-77.589649
652.832640	-71.610561
652.974833	-82.543770
653.117088	-72.328132
653.259405	-89.854002
653.401784	-70.901004
653.544224	-79.573906
653.686727	-78.911857
653.829293	-75.279400
653.971920	-78.221239
654.114609	-74.490049
654.257361	-83.015176
654.400175	-74.284281
654.543052	-77.421219
654.685991	-77.040705
654.828992	-73.332269
654.972056	-79.341285
655.115183	-74.546250
655.258372	-83.148707
655.401623	-74.034484
655.544937	-74.341168
655.688314	-72.874242
655.831754	-84.293877
655.975256	-75.094333
656.118822	-85.846308
656.262450	-77.922013
656.406141	-74.547463
656.549894	-76.317217
656.693711	-74.012603
656.837591	-75.846270
656.981534	-75.772720
657.125540	-83.266191
657.269610	-74.182485
657.413742	-94.762545
657.557938	-73.818489
657.702196	-75.102084
657.846519	-72.917514
657.990904	-82.222149
658.135353	-81.539871
658.279866	-88.357002
658.424441	-74.754327
658.569081	-74.096566
658.713784	-80.934200
658.858550	-78.165901
659.003381	-82.250646
659.148274	-76.828035
659.293232	-86.384786
659.438253	-74.017177
659.583339	-79.823263
659.728488	-74.726133
659.873701	-72.272480
660.018978	-78.731546
660.164318	-85.010465
660.309723	-78.857753
660.455192	-81.440163
660.600725	-79.459288
660.746323	-72.114488
660.891984	-73.971370
661.037710	-82.782404
661.183500	-75.846427
661.329354	-88.658719
661.475272	-85.350265
661.621255	-73.599806
661.767303	-83.941202
661.913415	-73.313021
662.059591	-77.452630
662.205833	-74.113772
662.352138	-78.616863
662.498509	-87.198812
662.644944	-76.483509
662.791443	-78.401191
662.938008	-85.218126
663.084638	-83.251001
663.231332	-81.856005
663.378091	-77.674155
663.524915	-79.153238
663.671804	-76.718025
663.818759	-79.015215
663.965778	-79.408148
664.112863	-80.882631
664.260012	-80.459495
664.407227	-73.929178
664.554507	-77.670732
664.701853	-79.166730
664.849264	-72.853996
664.996740	-75.663625
665.144282	-80.199912
665.291889	-84.513886
665.439561	-85.384074
665.587300	-80.483886
665.735103	-77.579887
665.882973	-84.593301
666.030908	-100.130102
666.178909	-98.319513
666.326976	-103.348829
666.475109	-80.347358
666.623307	-78.331478
666.771571	-75.114605
666.919902	-79.932701
667.068298	-91.601997
667.216761	-82.512838
667.365289	-85.697458
667.513884	-85.812668
667.662545	-81.022446
667.811272	-77.027418
667.960065	-83.905892
668.108925	-83.430558
668.257851	-77.679079
668.406843	-73.253767
668.555902	-80.034752
668.705027	-82.097440
668.854219	-76.653230
669.003478	-78.098431
669.152803	-85.483424
669.302195	-102.375133
669.451653	-78.744752
669.601179	-72.593423
669.750771	-69.625459
669.900430	-90.744842
670.050156	-84.557594
670.199949	-76.007328
670.349808	-78.382881
670.499735	-72.390662
670.649729	-87.298909
670.799790	-74.963223
670.949918	-78.104688
671.100114	-77.094154
671.250377	-82.609330
671.400707	-81.144976
671.551104	-71.439824
671.701569	-71.012016
671.852101	-84.206282
672.002700	-76.396578
672.153368	-76.504839
672.304102	-79.374767
672.454905	-69.612429
672.605775	-80.175157
672.756713	-72.096650
672.907718	-74.858291
673.058791	-72.425914
673.209933	-80.879866
673.361142	-73.272601
673.512419	-76.870449
673.663764	-72.226439
673.815177	-69.683855
673.966658	-76.995979
674.118207	-72.890251
674.269825	-79.062756
674.421510	-72.501944
674.573264	-71.728030
674.725086	-74.274639
674.876977	-69.673532
675.028936	-72.928969
675.180963	-79.434567
675.333059	-70.240782
675.485224	-74.877638
675.637457	-72.094582
675.789758	-72.797897
675.942129	-68.969941
676.094568	-72.392124
676.247075	-74.574513
676.399652	-72.085273
676.552298	-71.477602
676.705012	-69.901851
676.857795	-72.754796
677.010648	-70.404303
677.163569	-70.509730
677.316560	-72.818864
677.469619	-70.096279
677.622748	-69.811462
677.775946	-73.144325
677.929214	-70.547722
678.082551	-71.012037
678.235957	-67.396134
678.389432	-71.012403
678.542977	-70.024303
678.696592	-69.997228
678.850276	-69.044359
679.004030	-71.953117
679.157853	-69.023859
679.311746	-68.232655
679.465709	-70.322902
679.619742	-69.662714
679.773844	-69.313012
679.928017	-69.488849
680.082259	-67.515705
680.236571	-70.373504
680.390954	-70.539103
680.545406	-66.268794
680.699929	-71.161013
680.854522	-68.210238
681.009185	-67.700092
681.163918	-68.418247
681.318722	-67.632602
681.473596	-67.988478
681.628540	-70.884642
681.783555	-67.098352
681.938641	-66.297946
682.093797	-68.893230
682.249023	-66.315061
682.404321	-69.177371
682.559689	-69.352920
682.715128	-64.859492
682.870637	-67.956522
683.026218	-68.568586
683.181869	-67.845610
683.337591	-66.392165
683.493385	-67.259117
683.649249	-65.388920
683.805185	-66.606889
683.961191	-70.412270
684.117269	-65.019814
684.273418	-68.471186
684.429639	-66.805845
684.585930	-64.299132
684.742294	-64.907489
684.898728	-68.334267
685.055234	-65.161401
685.211812	-66.929401
685.368461	-66.861848
685.525182	-64.675952
685.681975	-65.904823
685.838839	-67.289240
685.995775	-65.651844
686.152783	-65.440175
686.309863	-66.502638
686.467014	-64.869601
686.624238	-63.842320
686.781534	-64.913446
686.938902	-67.037376
687.096342	-64.476441
687.253854	-66.078823
687.411438	-68.250916
687.569095	-62.634507
687.726824	-64.014439
687.884626	-65.905109
688.042499	-65.676938
688.200446	-64.483019
688.358465	-64.765776
688.516556	-65.702128
688.674720	-63.428354
688.832957	-64.747161
688.991266	-65.372210
689.149649	-65.393460
689.308104	-62.705288
689.466632	-66.270315
689.625233	-65.227696
689.783906	-63.901486
689.942653	-63.272560
690.101473	-64.599451
690.260367	-64.713085
690.419333	-64.289949
690.578372	-65.946086
690.737485	-64.100371
690.896672	-63.381797
691.055931	-62.094717
691.215264	-66.875616
691.374671	-66.700847
691.534151	-64.245757
691.693704	-62.848036
691.853332	-63.040550
692.013033	-63.989648
692.172807	-64.951460
692.332656	-64.337447
692.492578	-66.074220
692.652575	-62.738285
692.812645	-62.333748
692.972789	-62.794775
693.133007	-67.696413
693.293300	-65.219103
693.453666	-64.417262
693.614107	-61.171953
693.774622	-64.110450
693.935211	-64.240915
694.095875	-65.097276
694.256613	-62.338076
694.417426	-64.227689
694.578313	-64.847461
694.739274	-62.672174
694.900311	-63.503957
695.061421	-62.080689
695.222607	-64.591393
695.383868	-64.287634
695.545203	-63.088247
695.706613	-62.976082
695.868098	-63.543898
696.029658	-62.154055
696.191293	-64.008092
696.353003	-62.651968
696.514789	-64.122184
696.676649	-64.628300
696.838585	-61.284044
697.000596	-63.971060
697.162682	-60.868322
697.324844	-66.646864
697.487081	-62.359109
697.649394	-63.046841
697.811782	-62.825459
697.974246	-60.473343
698.136786	-66.926859
698.299401	-61.122184
698.462092	-64.136950
698.624859	-61.948875
698.787702	-63.142483
698.950621	-62.668373
699.113616	-61.801598
699.276686	-63.309453
699.439833	-61.609547
699.603056	-64.566575
699.766355	-61.047479
699.929731	-63.334419
700.093183	-60.544830
700.256711	-63.659810
700.420315	-63.216047
700.583996	-61.501296
700.747754	-62.496087
700.911588	-62.475576
701.075499	-62.835857
701.239486	-61.273559
701.403550	-62.806766
701.567691	-62.055511
701.731909	-62.980245
701.896203	-62.358944
702.060575	-62.105698
702.225024	-61.120650
702.389549	-62.464840
702.554152	-63.944744
702.718832	-60.890921
702.883589	-62.300953
703.048424	-62.367099
703.213335	-61.187546
703.378324	-65.085207
703.543391	-59.542134
703.708535	-64.164393
703.873757	-61.359343
704.039056	-61.551314
704.204433	-62.265896
704.369887	-62.236476
704.535420	-61.257576
704.701030	-62.194844
704.866718	-63.003964
705.032484	-61.370110
705.198328	-62.694939
705.364250	-59.983986
705.530250	-63.203700
705.696328	-61.709233
705.862485	-61.376870
706.028720	-61.529250
706.195033	-62.699440
706.361424	-61.251689
706.527894	-61.917697
706.694442	-60.603343
706.861069	-61.799260
707.027775	-62.956686
707.194559	-61.076277
707.361422	-60.981567
707.528363	-61.264915
707.695384	-60.855874
707.862483	-63.329505
708.029661	-61.250395
708.196918	-60.495337
708.364254	-61.736165
708.531670	-61.012841
708.699164	-61.042746
708.866738	-62.576831
709.034391	-59.581268
709.202123	-60.838406
709.369935	-63.660414
709.537826	-59.046039
709.705796	-62.800231
709.873847	-60.089309
710.041976	-59.998264
710.210186	-62.224455
710.378475	-61.167394
710.546844	-60.531029
710.715292	-60.018289
710.883821	-61.909247
711.052429	-58.901574
711.221118	-62.951082
711.389887	-59.923428
711.558735	-59.323881
711.727664	-61.378645
711.896673	-60.282126
712.065763	-60.218108
712.234932	-60.158909
712.404183	-60.713540
712.573513	-59.078234
712.742924	-61.374675
712.912416	-60.865512
713.081988	-58.860814
713.251641	-60.179881
713.421375	-60.443968
713.591190	-60.697394
713.761085	-58.360967
713.931061	-61.011159
714.101119	-59.641851
714.271257	-59.675728
714.441476	-60.532818
714.611777	-59.320875
714.782159	-59.052023
714.952622	-58.880296
715.123166	-60.915148
715.293792	-59.537292
715.464499	-58.351637
715.635288	-60.178499
715.806158	-59.236550
715.977110	-59.358035
716.148143	-58.384932
716.319259	-59.832911
716.490456	-58.369329
716.661735	-59.283726
716.833096	-59.318473
717.004538	-59.499198
717.176063	-58.355876
717.347670	-57.343977
717.519359	-60.657532
717.691130	-58.380094
717.862984	-58.896811
718.034920	-57.858546
718.206938	-59.298174
718.379039	-57.776956
718.551222	-58.641101
718.723488	-57.623973
718.895836	-59.330101
719.068267	-57.566824
719.240781	-57.627571
719.413377	-59.384529
719.586057	-57.835556
719.758819	-58.239475
719.931664	-56.808535
720.104593	-57.577371
720.277604	-59.372093
720.450699	-57.793841
720.623876	-57.219367
720.797137	-57.707356
720.970482	-56.630450
721.143910	-58.690283
721.317421	-56.583506
721.491016	-58.050428
721.664694	-56.504544
721.838456	-58.431410
722.012302	-55.908899
722.186231	-58.827974
722.360244	-56.171656
722.534342	-57.191930
722.708523	-57.024364
722.882788	-56.393783
723.057137	-57.816835
723.231570	-56.879094
723.406088	-56.213931
723.580689	-56.718729
723.755375	-56.719863
723.930146	-56.947256
724.105000	-56.477578
724.279940	-57.037113
724.454963	-55.283466
724.630072	-57.783034
724.805265	-55.555248
724.980543	-57.194290
725.155905	-56.020496
725.331353	-56.575225
725.506885	-55.723898
725.682503	-55.872590
725.858205	-56.011276
726.033993	-55.826366
726.209865	-56.188936
726.385823	-56.293516
726.561866	-55.446462
726.737995	-56.465919
726.914209	-55.449388
727.090508	-55.489528
727.266893	-55.130684
727.443364	-56.205015
727.619920	-55.687146
727.796562	-56.138947
727.973290	-55.132397
728.150103	-55.211882
728.327003	-54.437474
728.503988	-56.164949
728.681060	-55.686533
728.858218	-55.237265
729.035461	-55.690928
729.212791	-54.388100
729.390208	-55.252835
729.567710	-54.339117
729.745299	-55.737120
729.922975	-55.529724
730.100737	-54.439639
730.278586	-55.816541
730.456521	-53.931468
730.634543	-55.204073
730.812652	-54.015824
730.990848	-55.416123
731.169130	-54.571446
731.347500	-54.893229
731.525957	-55.452271
731.704500	-53.909627
731.883131	-54.829729
732.061850	-52.930765
732.240655	-55.963053
732.419548	-54.340865
732.598528	-55.237406
732.777596	-54.474070
732.956751	-53.194270
733.135994	-55.107408
733.315325	-53.010972
733.494744	-55.641372
733.674250	-54.698239
733.853844	-54.096663
734.033526	-54.593057
734.213296	-52.709605
734.393154	-54.617477
734.573101	-53.942961
734.753135	-53.615778
734.933258	-55.461660
735.113469	-53.231188
735.293769	-54.513802
735.474157	-53.381220
735.654633	-53.536479
735.835198	-53.468617
736.015852	-54.876052
736.196594	-53.528670
736.377426	-55.013151
736.558346	-53.280071
736.739355	-53.093719
736.920453	-54.473393
737.101640	-52.521658
737.282916	-54.863999
737.464282	-53.924398
737.645736	-53.729199
737.827280	-53.838467
738.008914	-53.658023
738.190637	-52.384066
738.372449	-54.100476
738.554351	-54.262875
738.736342	-53.238682
738.918424	-55.198147
739.100595	-52.089844
739.282855	-53.747190
739.465206	-53.634037
739.647647	-53.695134
739.830178	-53.311634
740.012799	-53.594187
740.195510	-53.609151
740.378311	-53.469013
740.561203	-54.246953
740.744185	-52.614054
740.927258	-53.348888
741.110421	-53.286467
741.293674	-53.657341
741.477018	-53.489450
741.660453	-53.878947
741.843979	-53.968641
742.027596	-51.900021
742.211303	-54.554074
742.395102	-52.738243
742.578991	-53.583918
742.762972	-54.337540
742.947044	-53.334969
743.131207	-53.311387
743.315461	-53.036770
743.499807	-54.092859
743.684244	-52.760149
743.868773	-53.462232
744.053394	-53.699399
744.238106	-53.982804
744.422910	-53.268203
744.607805	-53.565998
744.792793	-53.882942
744.977872	-51.635722
745.163044	-55.226821
745.348307	-52.777288
745.533663	-55.164810
745.719111	-52.748684
745.904651	-53.889145
746.090283	-53.702539
746.276008	-51.965388
746.461826	-55.585518
746.647735	-53.498673
746.833738	-54.376564
747.019833	-52.891787
747.206021	-53.874148
747.392302	-54.054620
747.578676	-53.120486
747.765143	-54.385308
747.951703	-53.421166
748.138356	-54.623837
748.325102	-53.883096
748.511941	-53.659998
748.698874	-55.087320
748.885900	-52.686276
749.073019	-54.482406
749.260232	-53.038384
749.447539	-56.276140
749.634939	-53.867240
749.822433	-54.577227
750.010021	-53.156768
750.197703	-54.273958
750.385479	-54.230549
750.573348	-53.857595
750.761312	-56.290961
750.949370	-53.563754
751.137523	-55.764780
751.325769	-52.616229
751.514110	-55.790407
751.702545	-53.402461
751.891075	-55.918278
752.079700	-55.601074
752.268419	-54.005132
752.457233	-54.993664
752.646142	-53.843229
752.835145	-55.667329
753.024244	-54.870219
753.213437	-55.538067
753.402726	-54.695171
753.592110	-53.996538
753.781589	-56.502714
753.971163	-54.041791
754.160833	-57.110600
754.350598	-53.653089
754.540459	-57.441465
754.730415	-54.574713
754.920467	-54.751225
755.110615	-57.008193
755.300858	-54.563869
755.491198	-56.466115
755.681633	-55.103453
755.872164	-56.557802
756.062792	-55.469603
756.253515	-57.457969
756.444335	-54.263960
756.635252	-56.263868
756.826264	-55.857271
757.017373	-56.666682
757.208579	-56.883358
757.399881	-56.375858
757.591280	-55.850301
757.782776	-55.219244
757.974368	-57.096779
758.166058	-56.671316
758.357844	-58.053186
758.549728	-55.555725
758.741708	-56.408138
758.933786	-57.086347
759.125961	-56.640401
759.318233	-58.806889
759.510603	-54.901032
759.703071	-58.915860
759.895635	-54.673516
760.088298	-59.919946
760.281058	-55.836328
760.473916	-58.247455
760.666872	-55.993294
760.859926	-57.546264
761.053078	-58.692459
761.246328	-55.744321
761.439676	-57.754617
761.633122	-56.201538
761.826667	-59.423359
762.020310	-57.548240
762.214052	-56.248708
762.407892	-57.887766
762.601831	-54.623011
762.795868	-61.027268
762.990004	-55.745051
763.184239	-59.028658
763.378573	-56.460258
763.573006	-57.995439
763.767538	-57.260525
763.962169	-55.785763
764.156900	-57.909013
764.351729	-55.911532
764.546658	-59.506451
764.741687	-55.520186
764.936815	-56.486440
765.132042	-57.414473
765.327370	-57.272327
765.522797	-57.015333
765.718324	-55.042537
765.913950	-57.364365
766.109677	-56.370859
766.305504	-56.498865
766.501431	-55.271564
766.697458	-56.276977
766.893586	-57.002410
767.089814	-55.833112
767.286142	-54.759000
767.482571	-54.857143
767.679100	-57.449109
767.875730	-53.310706
768.072461	-56.502663
768.269293	-55.338063
768.466225	-55.884748
768.663259	-54.462551
768.860393	-53.051135
769.057629	-56.789081
769.254966	-52.479581
769.452404	-54.796439
769.649944	-56.339847
769.847585	-53.714331
770.045328	-53.515328
770.243172	-52.523590
770.441118	-54.186415
770.639166	-53.444197
770.837315	-52.955255
771.035567	-53.407457
771.233920	-53.855683
771.432376	-52.166124
771.630934	-52.845962
771.829594	-53.122201
772.028356	-51.907860
772.227220	-52.910272
772.426188	-52.476291
772.625257	-51.866033
772.824430	-51.333238
773.023705	-52.399659
773.223083	-51.280377
773.422563	-52.097049
773.622147	-51.969677
773.821834	-50.787326
774.021624	-50.947717
774.221517	-50.997268
774.421513	-50.628462
774.621613	-51.118798
774.821816	-51.395111
775.022122	-50.030638
775.222532	-50.920071
775.423046	-49.533009
775.623664	-50.189148
775.824385	-49.752274
776.025211	-50.979743
776.226140	-49.748987
776.427173	-49.483391
776.628311	-50.006076
776.829553	-48.839754
777.030899	-49.399049
777.232350	-48.977640
777.433905	-49.856830
777.635564	-48.873671
777.837328	-48.897864
778.039197	-49.126100
778.241171	-47.879671
778.443250	-48.944864
778.645433	-48.103603
778.847722	-49.042270
779.050116	-47.945617
779.252615	-48.535667
779.455219	-47.654935
779.657929	-47.555823
779.860744	-47.878319
780.063665	-47.976207
780.266691	-47.857409
780.469823	-47.269530
780.673061	-47.716322
780.876405	-46.714992
781.079855	-47.187458
781.283410	-47.059001
781.487072	-47.507030
781.690840	-46.862322
781.894715	-46.781597
782.098695	-46.683450
782.302783	-46.061323
782.506976	-46.760312
782.711277	-46.045298
782.915684	-47.270830
783.120198	-45.841882
783.324818	-46.662703
783.529546	-45.420266
783.734381	-45.884317
783.939322	-45.913119
784.144372	-45.713319
784.349528	-46.087068
784.554792	-45.354949
784.760163	-45.985876
784.965642	-44.726798
785.171228	-45.729335
785.376922	-44.909828
785.582724	-45.537196
785.788634	-45.296883
785.994651	-45.060697
786.200777	-44.875288
786.407011	-44.253538
786.613353	-45.073155
786.819804	-44.496667
787.026363	-45.056304
787.233030	-44.550229
787.439806	-45.049111
787.646691	-43.675869
787.853684	-44.556161
788.060786	-43.625126
788.267997	-44.534981
788.475317	-44.307190
788.682746	-44.188886
788.890285	-43.915948
789.097932	-43.829425
789.305689	-43.451694
789.513555	-43.686830
789.721531	-43.739619
789.929617	-43.912031
790.137812	-43.637806
790.346117	-43.334341
790.554531	-43.450016
790.763056	-43.040472
790.971691	-43.465863
791.180436	-43.232991
791.389291	-43.425456
791.598256	-43.154888
791.807332	-42.819486
792.016518	-42.963908
792.225815	-42.596322
792.435222	-42.897470
792.644740	-43.241750
792.854369	-42.600959
793.064109	-43.090025
793.273960	-42.268545
793.483922	-42.336359
793.693995	-42.277274
793.904180	-42.607533
794.114475	-42.337600
794.324882	-42.722917
794.535401	-42.145956
794.746031	-42.398109
794.956774	-41.697519
795.167627	-42.264578
795.378593	-41.614210
795.589671	-42.407475
795.800861	-41.995326
796.012162	-41.864434
796.223577	-41.879378
796.435103	-41.455348
796.646742	-41.997940
796.858493	-41.334365
797.070357	-42.114814
797.282334	-41.236919
797.494423	-41.893463
797.706626	-41.057103
797.918941	-41.548382
798.131369	-41.149429
798.343911	-41.534688
798.556566	-41.407257
798.769334	-41.280671
798.982215	-41.206663
799.195210	-40.788030
799.408319	-41.208222
799.621541	-40.707908
799.834877	-41.484234
800.048327	-40.834719
800.261890	-41.207829
800.475568	-40.622133
800.689360	-40.787904
800.903266	-40.515971
801.117287	-40.822111
801.331422	-40.841240
801.545671	-40.712402
801.760036	-40.934341
801.974514	-40.257981
802.189108	-40.437248
802.403816	-40.493733
802.618640	-40.414285
802.833578	-40.660920
803.048632	-40.505392
803.263800	-40.253948
803.479085	-40.253396
803.694484	-40.235038
803.909999	-40.183952
804.125630	-40.225827
804.341376	-40.382914
804.557239	-40.267865
804.773217	-40.093388
804.989311	-39.878850
805.205521	-40.029806
805.421847	-39.808163
805.638290	-40.166369
805.854849	-40.245390
806.071524	-39.636825
806.288316	-40.328880
806.505225	-39.541187
806.722250	-39.551452
806.939393	-40.144530
807.156652	-39.575273
807.374028	-39.879098
807.591521	-40.093899
807.809132	-39.229641
808.026859	-39.642211
808.244705	-39.708042
808.462667	-39.194806
808.680748	-40.119251
808.898946	-39.566607
809.117261	-39.525929
809.335695	-39.551383
809.554246	-39.323316
809.772916	-39.110915
809.991704	-39.609301
810.210610	-39.357199
810.429634	-39.586473
810.648777	-39.427231
810.868039	-39.211537
811.087419	-39.291927
811.306918	-39.151023
811.526535	-39.191388
811.746272	-39.477561
811.966127	-39.237902
812.186102	-39.082814
812.406196	-39.312113
812.626409	-38.695692
812.846742	-39.383745
813.067194	-39.109851
813.287766	-39.182680
813.508457	-39.266397
813.729269	-38.946040
813.950200	-38.839871
814.171251	-38.933648
814.392422	-39.003615
814.613714	-39.115324
814.835126	-38.988005
815.056658	-39.194316
815.278311	-38.725476
815.500084	-38.842172
815.721978	-38.910977
815.943993	-38.744116
816.166128	-39.002206
816.388385	-39.035348
816.610762	-38.929253
816.833261	-38.607212
817.055881	-38.866545
817.278623	-38.549739
817.501486	-38.870434
817.724471	-38.848375
817.947577	-39.036003
818.170805	-38.470830
818.394155	-38.940167
818.617627	-38.488251
818.841221	-38.665057
819.064937	-38.562955
819.288775	-38.982642
819.512736	-38.624514
819.736819	-38.775762
819.961025	-38.519282
820.185354	-38.552155
820.409805	-38.658683
820.634379	-38.672198
820.859076	-38.685387
821.083897	-38.679549
821.308840	-38.621080
821.533907	-38.464302
821.759097	-38.602496
821.984411	-38.399684
822.209848	-38.908300
822.435409	-38.613388
822.661093	-38.759976
822.886902	-38.507246
823.112834	-38.520096
823.338891	-38.369422
823.565072	-38.637723
823.791377	-38.786322
824.017807	-38.748669
824.244361	-38.668228
824.471039	-38.266164
824.697843	-38.471096
824.924771	-38.349913
825.151824	-38.714030
825.379002	-38.958413
825.606306	-38.601820
825.833734	-38.524770
826.061288	-38.187042
826.288967	-38.483882
826.516772	-38.561012
826.744703	-38.612232
826.972759	-38.789398
827.200941	-38.402075
827.429249	-38.376599
827.657683	-38.573128
827.886243	-38.373338
828.114930	-38.584239
828.343743	-38.356289
828.572682	-38.928268
828.801748	-38.333985
829.030941	-38.843798
829.260260	-38.105282
829.489706	-38.502213
829.719280	-38.546218
829.948980	-38.894416
830.178808	-38.413615
830.408763	-38.467695
830.638845	-38.555165
830.869055	-38.364147
831.099393	-38.891828
831.329858	-38.355054
831.560451	-38.677636
831.791173	-38.614333
832.022022	-38.747015
832.252999	-38.191558
832.484105	-38.754553
832.715339	-38.474160
832.946702	-39.028156
833.178193	-38.194337
833.409813	-38.787390
833.641561	-38.316347
833.873439	-38.852058
834.105445	-38.369707
834.337581	-38.724775
834.569846	-38.757016
834.802241	-38.685859
835.034764	-38.228143
835.267418	-38.671836
835.500201	-38.686366
835.733114	-38.653445
835.966157	-38.612862
836.199329	-38.655803
836.432632	-38.752428
836.666065	-38.213131
836.899629	-38.678120
837.133323	-38.899649
837.367147	-38.545472
837.601102	-38.955512
837.835188	-38.494955
838.069405	-38.792071
838.303752	-38.276058
838.538231	-38.756271
838.772841	-38.987029
839.007582	-38.581156
839.242455	-38.956314
839.477459	-38.627620
839.712595	-38.460332
839.947863	-38.627063
840.183263	-38.749414
840.418794	-39.097185
840.654458	-38.614770
840.890254	-39.061743
841.126182	-38.259815
841.362242	-38.852395
841.598435	-38.458976
841.834761	-39.038331
842.071220	-38.703752
842.307811	-38.864480
842.544536	-38.662878
842.781393	-38.613706
843.018384	-38.510967
843.255508	-38.830865
843.492765	-38.808501
843.730156	-38.847705
843.967681	-38.748056
844.205339	-38.595624
844.443132	-38.527692
844.681058	-38.840530
844.919118	-38.672766
845.157313	-38.748184
845.395642	-38.808731
845.634105	-38.503286
845.872703	-38.627387
846.111436	-38.725752
846.350303	-38.598413
846.589306	-38.772975
846.828443	-38.784098
847.067716	-38.289236
847.307124	-38.887090
847.546667	-38.378109
847.786345	-38.860872
848.026160	-38.660097
848.266110	-38.615925
848.506195	-38.515529
848.746417	-38.502808
848.986775	-38.518698
849.227269	-38.785854
849.467899	-38.536226
849.708666	-38.844765
849.949569	-38.162818
850.190609	-38.701171
850.431785	-38.247828
850.673099	-38.615846
850.914549	-38.837765
851.156137	-38.327210
851.397861	-38.642647
851.639723	-38.205510
851.881723	-38.238938
852.123860	-38.636364
852.366135	-38.275885
852.608547	-38.979367
852.851098	-37.967668
853.093786	-38.640200
853.336613	-37.920112
853.579578	-38.347406
853.822681	-38.485278
854.065923	-38.433563
854.309304	-38.324241
854.552823	-38.235104
854.796481	-37.899224
855.040278	-38.276983
855.284215	-38.235293
855.528290	-38.225012
855.772505	-38.310908
856.016859	-37.969556
856.261353	-37.865486
856.505987	-38.260364
856.750760	-37.751208
856.995673	-38.299580
857.240727	-37.903514
857.485920	-37.909806
857.731254	-37.760405
857.976729	-37.919061
858.222343	-37.728774
858.468099	-38.071386
858.713995	-37.643515
858.960032	-37.620685
859.206211	-37.671473
859.452530	-37.655993
859.698991	-37.688141
859.945593	-37.751357
860.192336	-37.421090
860.439222	-37.438248
860.686248	-37.414005
860.933417	-37.383883
861.180728	-37.666611
861.428181	-37.450717
861.675776	-37.267670
861.923514	-37.135871
862.171394	-37.132625
862.419417	-37.285044
862.667582	-37.329685
862.915890	-37.291688
863.164342	-37.103420
863.412936	-36.809559
863.661674	-36.967479
863.910555	-36.961640
864.159579	-37.149019
864.408747	-37.107253
864.658059	-36.730264
864.907515	-36.782942
865.157114	-36.532973
865.406858	-36.876601
865.656746	-36.821274
865.906778	-36.816741
866.156955	-36.560370
866.407277	-36.406964
866.657743	-36.527278
866.908354	-36.379920
867.159110	-36.755207
867.410011	-36.331309
867.661057	-36.395770
867.912249	-36.091414
868.163586	-36.315423
868.415069	-36.185429
868.666697	-36.337233
868.918472	-36.018225
869.170392	-36.070533
869.422458	-35.841504
869.674671	-36.089081
869.927030	-35.906786
870.179536	-35.971584
870.432188	-35.650055
870.684987	-35.739542
870.937933	-35.607401
871.191026	-35.774642
871.444266	-35.614521
871.697653	-35.626585
871.951188	-35.237314
872.204870	-35.494993
872.458700	-35.207491
872.712677	-35.608680
872.966803	-35.256247
873.221076	-35.235689
873.475498	-34.971145
873.730068	-35.071979
873.984787	-35.092273
874.239654	-35.215151
874.494669	-34.943032
874.749834	-34.911538
875.005147	-34.671440
875.260610	-34.798373
875.516222	-34.851388
875.771983	-34.850572
876.027894	-34.682262
876.283954	-34.505097
876.540164	-34.445548
876.796524	-34.536548
877.053033	-34.560026
877.309693	-34.515440
877.566503	-34.320424
877.823464	-34.178058
878.080575	-34.259004
878.337837	-34.173102
878.595249	-34.353004
878.852813	-34.034561
879.110528	-34.016404
879.368393	-33.906283
879.626410	-33.986161
879.884579	-33.920092
880.142899	-33.961628
880.401371	-33.642017
880.659994	-33.722618
880.918770	-33.639281
881.177698	-33.731263
881.436778	-33.626817
881.696010	-33.501507
881.955395	-33.348023
882.214933	-33.448544
882.474623	-33.401224
882.734467	-33.454066
882.994463	-33.222864
883.254613	-33.177297
883.514916	-33.019303
883.775372	-33.252154
884.035982	-33.091674
884.296746	-33.156621
884.557664	-32.866672
884.818735	-32.807580
885.079961	-32.859784
885.341341	-32.920546
885.602876	-32.883164
885.864565	-32.796563
886.126409	-32.479066
886.388407	-32.587387
886.650561	-32.616197
886.912870	-32.718394
887.175334	-32.609313
887.437953	-32.325464
887.700728	-32.242363
887.963658	-32.413818
888.226745	-32.424233
888.489987	-32.494686
888.753385	-32.113254
889.016940	-32.092460
889.280651	-32.094097
889.544518	-32.211670
889.808543	-32.217207
890.072723	-32.119509
890.337061	-31.782968
890.601556	-31.936728
890.866208	-31.877242
891.131017	-32.125573
891.395984	-31.856346
891.661109	-31.683946
891.926391	-31.646969
892.191831	-31.772629
892.457429	-31.746719
892.723186	-31.795725
892.989100	-31.467459
893.255173	-31.484336
893.521405	-31.475438
893.787796	-31.594342
894.054345	-31.568080
894.321053	-31.303715
894.587921	-31.247794
894.854948	-31.311286
895.122134	-31.353212
895.389480	-31.347227
895.656986	-31.159065
895.924651	-31.027480
896.192477	-31.069406
896.460463	-31.191013
896.728609	-31.124250
896.996915	-30.963168
897.265382	-30.864036
897.534010	-30.808759
897.802799	-31.036543
898.071749	-30.911383
898.340860	-30.791710
898.610132	-30.647911
898.879566	-30.639582
899.149162	-30.808553
899.418919	-30.741304
899.688838	-30.616452
899.958919	-30.432955
900.229162	-30.486409
900.499568	-30.553822
900.770136	-30.614136
901.040867	-30.353812
901.311761	-30.307454
901.582817	-30.257365
901.854037	-30.346627
902.125420	-30.363431
902.396966	-30.208911
902.668676	-30.088817
902.940550	-30.051168
903.212587	-30.094476
903.484788	-30.130650
903.757153	-30.064433
904.029683	-29.824275
904.302377	-29.832213
904.575236	-29.843219
904.848259	-29.963949
905.121447	-29.837204
905.394800	-29.567808
905.668319	-29.601815
905.942002	-29.695679
906.215852	-29.746995
906.489866	-29.527523
906.764047	-29.383795
907.038393	-29.444208
907.312906	-29.474998
907.587584	-29.488955
907.862429	-29.319141
908.137441	-29.193630
908.412619	-29.236001
908.687964	-29.246598
908.963476	-29.329399
909.239155	-29.045107
909.515002	-28.964207
909.791015	-29.086236
910.067197	-29.089876
910.343546	-29.036674
910.620063	-28.829822
910.896748	-28.822471
911.173601	-28.900235
911.450623	-28.908334
911.727813	-28.818388
912.005171	-28.676077
912.282699	-28.621418
912.560395	-28.805683
912.838261	-28.760281
913.116296	-28.569042
913.394500	-28.586818
913.672874	-28.510384
913.951418	-28.656349
914.230131	-28.607821
914.509015	-28.460573
914.788068	-28.420656
915.067292	-28.428785
915.346687	-28.524599
915.626252	-28.438788
915.905988	-28.371818
916.185895	-28.251270
916.465973	-28.327075
916.746223	-28.340716
917.026644	-28.388045
917.307236	-28.135866
917.588000	-28.129902
917.868937	-28.159751
918.150045	-28.255597
918.431325	-28.218495
918.712778	-27.924588
918.994404	-27.935051
919.276202	-28.116848
919.558173	-28.152845
919.840317	-27.911742
920.122634	-27.749311
920.405125	-27.860269
920.687789	-28.101370
920.970627	-27.871540
921.253639	-27.620203
921.536824	-27.727213
921.820184	-27.899232
922.103718	-27.797117
922.387427	-27.600041
922.671310	-27.558995
922.955368	-27.807553
923.239601	-27.583698
923.524009	-27.531902
923.808592	-27.599379
924.093351	-27.565194
924.378285	-27.427823
924.663396	-27.457906
924.948682	-27.579090
925.234144	-27.427644
925.519782	-27.218994
925.805597	-27.397859
926.091589	-27.590199
926.377757	-27.170589
926.664102	-27.160959
926.950624	-27.388345
927.237323	-27.341730
927.524200	-27.120670
927.811255	-27.140548
928.098487	-27.232705
928.385897	-27.139713
928.673485	-27.123840
928.961251	-27.148145
929.249196	-26.935394
929.537319	-27.011834
929.825621	-27.253400
930.114102	-26.900334
930.402762	-26.760661
930.691601	-27.080410
930.980620	-26.984433
931.269818	-26.830966
931.559196	-26.786239
931.848753	-26.813123
932.138491	-26.792925
932.428409	-26.879025
932.718508	-26.699021
933.008787	-26.454163
933.299246	-26.809115
933.589887	-26.750236
933.880709	-26.429989
934.171712	-26.545273
934.462896	-26.476292
934.754262	-26.493808
935.045810	-26.593796
935.337539	-26.226894
935.629451	-26.244866
935.921545	-26.534201
936.213822	-26.251626
936.506281	-26.238287
936.798922	-26.175744
937.091747	-26.124973
937.384755	-26.346697
937.677946	-26.108587
937.971321	-25.974541
938.264879	-26.124464
938.558621	-26.105927
938.852547	-26.084542
939.146657	-25.979742
939.440952	-25.901740
939.735431	-26.058138
940.030095	-26.046771
940.324943	-25.875875
940.619977	-25.902313
940.915196	-25.911337
941.210600	-25.955439
941.506189	-25.939756
941.801965	-25.747205
942.097926	-25.868321
942.394074	-25.875526
942.690407	-25.850970
942.986927	-25.771278
943.283634	-25.694140
943.580527	-25.811022
943.877608	-25.795461
944.174875	-25.678868
944.472330	-25.617422
944.769972	-25.691693
945.067802	-25.704338
945.365820	-25.609998
945.664026	-25.514775
945.962420	-25.564674
946.261002	-25.617038
946.559773	-25.496164
946.858733	-25.446543
947.157881	-25.434502
947.457219	-25.477723
947.756746	-25.463314
948.056462	-25.311442
948.356368	-25.337134
948.656464	-25.380693
948.956749	-25.377184
949.257225	-25.266747
949.557891	-25.175617
949.858748	-25.373996
950.159796	-25.285366
950.461034	-25.178312
950.762463	-25.158201
951.064084	-25.259971
951.365896	-25.271248
951.667900	-25.117903
951.970095	-25.094112
952.272483	-25.221752
952.575063	-25.213155
952.877835	-25.099986
953.180799	-25.008293
953.483956	-25.193164
953.787307	-25.193502
954.090850	-24.996802
954.394586	-25.025448
954.698516	-25.101912
955.002640	-25.147645
955.306957	-24.978025
955.611469	-24.931589
955.916174	-25.076320
956.221074	-25.058350
956.526169	-24.930594
956.831458	-24.859401
957.136942	-24.998226
957.442622	-24.971683
957.748496	-24.843986
958.054567	-24.805300
958.360833	-24.857453
958.667294	-24.898444
958.973952	-24.762771
959.280806	-24.687333
959.587857	-24.779610
959.895104	-24.764906
960.202548	-24.692631
960.510189	-24.590532
960.818027	-24.637992
961.126062	-24.701598
961.434295	-24.577903
961.742726	-24.480798
962.051355	-24.551037
962.360182	-24.580061
962.669207	-24.514361
962.978431	-24.357540
963.287854	-24.464221
963.597475	-24.523261
963.907296	-24.390776
964.217315	-24.303427
964.527535	-24.379453
964.837954	-24.470581
965.148573	-24.300165
965.459392	-24.228491
965.770411	-24.356905
966.081630	-24.371835
966.393051	-24.243692
966.704672	-24.151415
967.016494	-24.338791
967.328517	-24.277230
967.640742	-24.156024
967.953169	-24.136292
968.265797	-24.252219
968.578627	-24.219013
968.891660	-24.038186
969.204895	-24.125339
969.518332	-24.164820
969.831972	-24.085201
970.145816	-24.006748
970.459862	-24.025441
970.774112	-24.096958
971.088565	-23.953365
971.403223	-23.957450
971.718084	-23.959477
972.033149	-23.959741
972.348419	-23.925668
972.663893	-23.837408
972.979572	-23.923631
973.295456	-23.863752
973.611546	-23.852875
973.927840	-23.794482
974.244340	-23.842025
974.561046	-23.838439
974.877958	-23.752473
975.195076	-23.791864
975.512401	-23.787563
975.829932	-23.781622
976.147670	-23.725619
976.465615	-23.756354
976.783767	-23.766061
977.102126	-23.730956
977.420693	-23.698206
977.739468	-23.742096
978.058451	-23.749283
978.377642	-23.654255
978.697041	-23.724317
979.016649	-23.717342
979.336466	-23.695018
979.656492	-23.642440
979.976727	-23.717803
980.297171	-23.700362
980.617825	-23.616440
980.938689	-23.668960
981.259763	-23.682230
981.581048	-23.657997
981.902542	-23.563182
982.224248	-23.672101
982.546164	-23.651346
982.868291	-23.552204
983.190630	-23.568096
983.513180	-23.628546
983.835942	-23.572344
984.158916	-23.468831
984.482101	-23.546310
984.805500	-23.551400
985.129110	-23.467668
985.452934	-23.385149
985.776970	-23.510376
986.101220	-23.441978
986.425683	-23.330909
986.750359	-23.343391
987.075250	-23.413073
987.400354	-23.323272
987.725673	-23.205234
988.051206	-23.291649
988.376954	-23.324952
988.702916	-23.168579
989.029094	-23.127989
989.355487	-23.268069
989.682095	-23.198911
990.008919	-23.054924
990.335959	-23.111048
990.663216	-23.244833
990.990688	-23.070732
991.318377	-22.992355
991.646283	-23.180644
991.974406	-23.163436
992.302746	-22.978718
992.631304	-23.033813
992.960079	-23.228315
993.289072	-23.042352
993.618283	-22.955008
993.947713	-23.127832
994.277361	-23.174476
994.607227	-22.920149
994.937313	-23.004719
995.267618	-23.170475
995.598142	-22.987892
995.928886	-22.896177
996.259849	-23.027043
996.591033	-23.067284
996.922437	-22.822213
997.254061	-22.874246
997.585906	-22.990875
997.917972	-22.847959
998.250260	-22.726158
998.582768	-22.830222
998.915498	-22.849903
999.248450	-22.653697
999.581624	-22.656466
999.915020	-22.759205
1000.248639	-22.662916
1000.582480	-22.507987
1000.916545	-22.633647
1001.250832	-22.646997
1001.585343	-22.468492
1001.920077	-22.489468
1002.255035	-22.593472
1002.590218	-22.488994
1002.925624	-22.397377
1003.261255	-22.502187
1003.597111	-22.522534
1003.933192	-22.376354
1004.269497	-22.419025
1004.606029	-22.516162
1004.942785	-22.430159
1005.279768	-22.356092
1005.616977	-22.499010
1005.954412	-22.470975
1006.292074	-22.383227
1006.629962	-22.443189
1006.968077	-22.518934
1007.306420	-22.439983
1007.644990	-22.412915
1007.983787	-22.537991
1008.322813	-22.499370
1008.662067	-22.436248
1009.001549	-22.504425
1009.341259	-22.564933
1009.681199	-22.462333
1010.021367	-22.488863
1010.361765	-22.563178
1010.702392	-22.518372
1011.043250	-22.446485
1011.384337	-22.540907
1011.725654	-22.530362
1012.067202	-22.425049
1012.408980	-22.461718
1012.750989	-22.514440
1013.093230	-22.383273
1013.435702	-22.372254
1013.778405	-22.433805
1014.121341	-22.339670
1014.464508	-22.259716
1014.807908	-22.312605
1015.151540	-22.277519
1015.495405	-22.137815
1015.839503	-22.172644
1016.183835	-22.181426
1016.528400	-22.027685
1016.873198	-22.024074
1017.218231	-22.062007
1017.563498	-21.940243
1017.908999	-21.872659
1018.254735	-21.947379
1018.600707	-21.852235
1018.946913	-21.765040
1019.293354	-21.811611
1019.640032	-21.798897
1019.986945	-21.669636
1020.334094	-21.710170
1020.681480	-21.734517
1021.029102	-21.628733
1021.376961	-21.602348
1021.725058	-21.696987
1022.073391	-21.588413
1022.421962	-21.540916
1022.770772	-21.635152
1023.119819	-21.579201
1023.469104	-21.484617
1023.818628	-21.577171
1024.168391	-21.563590
1024.518393	-21.450160
1024.868634	-21.507647
1025.219115	-21.545701
1025.569836	-21.421692
1025.920796	-21.440744
1026.271997	-21.511395
1026.623438	-21.400278
1026.975121	-21.373221
1027.327044	-21.468284
1027.679208	-21.380009
1028.031614	-21.314403
1028.384262	-21.420776
1028.737152	-21.348870
1029.090284	-21.284489
1029.443659	-21.350653
1029.797276	-21.340124
1030.151137	-21.245769
1030.505240	-21.303208
1030.859587	-21.310632
1031.214178	-21.234636
1031.569013	-21.249554
1031.924093	-21.286805
1032.279417	-21.222621
1032.634985	-21.205282
1032.990799	-21.257805
1033.346858	-21.212676
1033.703162	-21.169251
1034.059712	-21.221438
1034.416509	-21.200203
1034.773551	-21.135874
1035.130841	-21.183732
1035.488377	-21.176689
1035.846160	-21.112451
1036.204190	-21.127111
1036.562468	-21.158411
1036.920994	-21.073857
1037.279768	-21.080337
1037.638790	-21.112076
1037.998061	-21.045750
1038.357581	-21.011954
1038.717350	-21.073983
1039.077368	-20.993106
1039.437636	-20.957783
1039.798154	-21.000943
1040.158922	-20.953845
1040.519940	-20.875553
1040.881209	-20.943180
1041.242729	-20.884086
1041.604501	-20.808255
1041.966524	-20.851374
1042.328798	-20.828778
1042.691325	-20.712362
1043.054103	-20.779577
1043.417135	-20.738075
1043.780419	-20.636549
1044.143956	-20.679855
1044.507746	-20.663179
1044.871791	-20.539793
1045.236088	-20.597117
1045.600641	-20.558618
1045.965447	-20.468011
1046.330508	-20.488950
1046.695824	-20.484456
1047.061395	-20.368548
1047.427222	-20.408345
1047.793304	-20.381195
1048.159642	-20.302398
1048.526237	-20.308523
1048.893088	-20.306733
1049.260196	-20.218963
1049.627561	-20.232775
1049.995183	-20.218890
1050.363063	-20.165290
1050.731201	-20.144410
1051.099597	-20.164494
1051.468251	-20.091873
1051.837164	-20.090356
1052.206336	-20.097281
1052.575767	-20.054480
1052.945458	-20.020673
1053.315409	-20.060300
1053.685619	-20.005994
1054.056090	-19.980513
1054.426821	-20.021664
1054.797814	-19.975219
1055.169067	-19.935572
1055.540582	-20.002538
1055.912359	-19.939509
1056.284398	-19.915522
1056.656698	-19.977343
1057.029262	-19.917737
1057.402088	-19.888487
1057.775177	-19.967279
1058.148530	-19.892228
1058.522146	-19.875876
1058.896027	-19.952071
1059.270171	-19.869811
1059.644580	-19.862921
1060.019254	-19.939864
1060.394193	-19.843289
1060.769397	-19.853859
1061.144867	-19.916584
1061.520602	-19.819192
1061.896604	-19.838315
1062.272872	-19.890325
1062.649407	-19.784482
1063.026210	-19.815051
1063.403279	-19.850908
1063.780616	-19.745226
1064.158221	-19.785638
1064.536094	-19.793657
1064.914235	-19.697915
1065.292645	-19.735220
1065.671325	-19.733955
1066.050273	-19.635391
1066.429491	-19.678951
1066.808979	-19.650845
1067.188738	-19.571122
1067.568766	-19.601347
1067.949066	-19.571840
1068.329636	-19.486971
1068.710478	-19.520592
1069.091592	-19.475044
1069.472977	-19.402876
1069.854635	-19.429849
1070.236565	-19.378653
1070.618768	-19.304595
1071.001243	-19.336011
1071.383993	-19.272011
1071.767016	-19.210065
1072.150313	-19.238475
1072.533884	-19.161602
1072.917730	-19.109980
1073.301850	-19.139955
1073.686246	-19.050224
1074.070917	-19.019748
1074.455864	-19.036520
1074.841087	-18.943485
1075.226586	-18.932656
1075.612362	-18.938126
1075.998415	-18.847091
1076.384745	-18.852267
1076.771353	-18.846124
1077.158238	-18.762599
1077.545401	-18.783616
1077.932843	-18.763916
1078.320564	-18.688130
1078.708564	-18.728337
1079.096842	-18.685563
1079.485401	-18.638245
1079.874240	-18.674183
1080.263358	-18.620735
1080.652757	-18.592021
1081.042438	-18.629372
1081.432399	-18.563416
1081.822641	-18.563902
1082.213166	-18.574894
1082.603972	-18.518669
1082.995061	-18.529902
1083.386433	-18.533041
1083.778087	-18.478581
1084.170025	-18.498701
1084.562246	-18.486516
1084.954751	-18.439870
1085.347541	-18.475313
1085.740615	-18.438141
1086.133973	-18.413032
1086.527617	-18.439017
1086.921546	-18.396539
1087.315761	-18.385202
1087.710262	-18.408283
1088.105050	-18.350285
1088.500124	-18.360043
1088.895485	-18.364786
1089.291134	-18.309423
1089.687070	-18.332188
1090.083294	-18.312378
1090.479806	-18.259809
1090.876607	-18.295680
1091.273696	-18.246263
1091.671075	-18.215591
1092.068744	-18.235850
1092.466702	-18.168825
1092.864950	-18.158266
1093.263489	-18.162011
1093.662319	-18.087210
1094.061440	-18.090808
1094.460852	-18.068870
1094.860555	-17.999770
1095.260551	-18.016933
1095.660840	-17.966733
1096.061421	-17.917919
1096.462295	-17.931232
1096.863462	-17.866454
1097.264923	-17.839656
1097.666678	-17.846340
1098.068727	-17.767040
1098.471071	-17.779881
1098.873710	-17.751860
1099.276644	-17.693962
1099.679874	-17.713637
1100.083400	-17.664949
1100.487222	-17.634044
1100.891340	-17.655402
1101.295756	-17.583950
1101.700468	-17.586374
1102.105478	-17.583340
1102.510787	-17.517809
1102.916393	-17.543763
1103.322298	-17.507194
1103.728502	-17.461193
1104.135005	-17.489438
1104.541807	-17.428745
1104.948909	-17.414333
1105.356312	-17.422270
1105.764015	-17.354236
1106.172019	-17.368989
1106.580324	-17.342628
1106.988931	-17.294084
1107.397840	-17.312589
1107.807051	-17.265395
1108.216564	-17.247068
1108.626380	-17.254902
1109.036500	-17.196075
1109.446923	-17.206112
1109.857649	-17.193464
1110.268680	-17.150681
1110.680016	-17.174193
1111.091657	-17.134171
1111.503602	-17.119746
1111.915854	-17.134904
1112.328411	-17.098000
1112.741275	-17.094145
1113.154445	-17.101745
1113.567922	-17.053974
1113.981706	-17.079133
1114.395798	-17.054823
1114.810198	-17.023890
1115.224906	-17.048015
1115.639923	-16.993101
1116.055249	-16.998414
1116.470884	-16.983949
1116.886829	-16.930126
1117.303084	-16.951044
1117.719650	-16.895041
1118.136526	-16.868029
1118.553713	-16.864528
1118.971212	-16.789860
1119.389022	-16.796515
1119.807145	-16.746426
1120.225580	-16.694992
1120.644328	-16.685236
1121.063389	-16.625188
1121.482763	-16.593529
1121.902452	-16.569591
1122.322454	-16.503581
1122.742771	-16.489044
1123.163404	-16.451363
1123.584351	-16.399061
1124.005614	-16.399280
1124.427193	-16.329049
1124.849089	-16.328834
1125.271301	-16.303312
1125.693830	-16.253213
1126.116677	-16.265365
1126.539842	-16.222680
1126.963324	-16.214740
1127.387126	-16.211864
1127.811246	-16.175541
1128.235685	-16.192391
1128.660444	-16.174002
1129.085522	-16.163101
1129.510922	-16.178590
1129.936641	-16.149028
1130.362682	-16.175188
1130.789044	-16.164949
1131.215728	-16.151370
1131.642734	-16.177083
1132.070063	-16.154143
1132.497714	-16.170800
1132.925689	-16.165573
1133.353987	-16.151264
1133.782610	-16.168862
1134.211556	-16.150529
1134.640827	-16.148344
1135.070424	-16.148330
1135.500345	-16.118590
1135.930593	-16.135087
1136.361166	-16.106559
1136.792067	-16.082832
1137.223294	-16.099290
1137.654848	-16.041886
1138.086730	-16.057535
1138.518940	-16.016245
1138.951479	-15.994712
1139.384346	-15.999935
1139.817543	-15.935732
1140.251069	-15.947073
1140.684925	-15.902337
1141.119111	-15.883182
1141.553628	-15.877549
1141.988475	-15.817570
1142.423655	-15.822507
1142.859166	-15.792523
1143.295009	-15.761984
1143.731185	-15.757517
1144.167694	-15.708481
1144.604536	-15.716659
1145.041711	-15.682471
1145.479221	-15.655785
1145.917065	-15.663784
1146.355245	-15.609709
1146.793759	-15.626957
1147.232609	-15.587879
1147.671795	-15.575107
1148.111317	-15.579713
1148.551177	-15.533567
1148.991373	-15.543933
1149.431907	-15.517373
1149.872779	-15.505229
1150.313989	-15.506437
1150.755538	-15.461224
1151.197426	-15.471229
1151.639653	-15.459032
1152.082220	-15.419803
1152.525128	-15.437800
1152.968376	-15.387482
1153.411966	-15.396035
1153.855897	-15.374444
1154.300169	-15.340595
1154.744784	-15.352179
1155.189742	-15.300625
1155.635042	-15.299515
1156.080687	-15.281035
1156.526674	-15.246889
1156.973007	-15.235020
1157.419683	-15.205516
1157.866705	-15.176355
1158.314072	-15.176375
1158.761786	-15.118143
1159.209845	-15.108892
1159.658251	-15.083419
1160.107004	-15.049360
1160.556104	-15.031396
1161.005553	-14.987478
1161.455349	-14.970750
1161.905494	-14.945597
1162.355989	-14.903408
1162.806832	-14.883641
1163.258026	-14.859158
1163.709570	-14.812118
1164.161464	-14.804434
1164.613710	-14.767828
1165.066307	-14.734099
1165.519256	-14.713689
1165.972558	-14.678898
1166.426212	-14.666741
1166.880219	-14.628140
1167.334580	-14.590397
1167.789295	-14.598482
1168.244364	-14.545523
1168.699788	-14.530371
1169.155567	-14.508010
1169.611702	-14.480289
1170.068193	-14.469045
1170.525041	-14.433068
1170.982245	-14.418921
1171.439807	-14.400992
1171.897726	-14.370853
1172.356004	-14.365128
1172.814640	-14.335471
1173.273635	-14.313037
1173.732989	-14.306305
1174.192703	-14.285526
1174.652778	-14.258764
1175.113213	-14.244783
1175.574009	-14.234343
1176.035167	-14.215309
1176.496687	-14.190020
1176.958569	-14.176692
1177.420814	-14.171520
1177.883422	-14.146335
1178.346394	-14.122290
1178.809730	-14.125081
1179.273430	-14.097468
1179.737496	-14.085052
1180.201927	-14.075075
1180.666723	-14.047280
1181.131886	-14.052346
1181.597416	-14.023089
1182.063312	-14.015834
1182.529576	-14.001069
1182.996209	-13.982264
1183.463209	-13.991800
1183.930579	-13.945102
1184.398317	-13.953134
1184.866426	-13.952032
1185.334904	-13.911106
1185.803754	-13.923462
1186.272974	-13.897560
1186.742566	-13.900362
1187.212529	-13.879815
1187.682865	-13.859697
1188.153574	-13.877763
1188.624656	-13.837115
1189.096112	-13.842492
1189.567942	-13.831289
1190.040147	-13.808767
1190.512726	-13.824143
1190.985681	-13.780600
1191.459012	-13.792343
1191.932720	-13.781386
1192.406804	-13.756904
1192.881265	-13.759465
1193.356104	-13.734267
1193.831322	-13.745979
1194.306918	-13.707142
1194.782893	-13.706456
1195.259248	-13.710398
1195.735982	-13.667014
1196.213097	-13.680020
1196.690593	-13.654877
1197.168471	-13.645538
1197.646730	-13.635791
1198.125371	-13.607653
1198.604395	-13.618877
1199.083803	-13.581777
1199.563594	-13.581413
1200.043769	-13.560722
1200.524329	-13.553198
1201.005273	-13.538273
1201.486604	-13.507740
1201.968320	-13.527645
1202.450422	-13.481975
1202.932912	-13.476755
1203.415789	-13.478529
1203.899054	-13.442936
1204.382707	-13.443020
1204.866748	-13.422877
1205.351179	-13.420168
1205.836000	-13.391984
1206.321211	-13.389814
1206.806812	-13.379893
1207.292805	-13.355477
1207.779189	-13.356785
1208.265965	-13.332918
1208.753134	-13.337674
1209.240696	-13.305629
1209.728651	-13.309243
1210.217000	-13.303417
1210.705744	-13.269401
1211.194883	-13.284406
1211.684417	-13.265041
1212.174347	-13.248545
1212.664673	-13.246407
1213.155396	-13.243118
1213.646516	-13.217592
1214.138034	-13.220620
1214.629951	-13.216518
1215.122266	-13.189919
1215.614980	-13.202471
1216.108095	-13.180285
1216.601609	-13.179928
1217.095524	-13.169119
1217.589841	-13.161129
1218.084559	-13.162660
1218.579679	-13.138204
1219.075202	-13.152248
1219.571128	-13.133170
1220.067458	-13.124900
1220.564191	-13.131440
1221.061330	-13.115964
1221.558874	-13.106172
1222.056823	-13.117451
1222.555178	-13.096721
1223.053940	-13.090564
1223.553109	-13.107114
1224.052686	-13.070552
1224.552671	-13.090567
1225.053065	-13.078190
1225.553867	-13.064626
1226.055079	-13.075859
1226.556702	-13.056392
1227.058735	-13.060879
1227.561179	-13.049883
1228.064035	-13.049951
1228.567303	-13.039125
1229.070983	-13.036060
1229.575077	-13.033904
1230.079585	-13.017214
1230.584506	-13.022516
1231.089842	-13.009513
1231.595594	-12.998583
1232.101761	-12.999912
1232.608345	-12.985523
1233.115345	-12.972348
1233.622762	-12.978456
1234.130597	-12.948121
1234.638851	-12.953557
1235.147523	-12.940520
1235.656615	-12.913082
1236.166126	-12.931365
1236.676058	-12.884162
1237.186411	-12.898241
1237.697185	-12.871126
1238.208381	-12.856224
1238.719999	-12.852247
1239.232040	-12.820620
1239.744505	-12.822523
1240.257394	-12.790735
1240.770708	-12.786792
1241.284446	-12.759332
1241.798610	-12.751373
1242.313201	-12.727117
1242.828218	-12.710628
1243.343662	-12.698892
1243.859534	-12.667221
1244.375834	-12.667223
1244.892563	-12.628638
1245.409721	-12.628571
1245.927309	-12.597480
1246.445327	-12.582444
1246.963777	-12.569490
1247.482657	-12.538911
1248.001970	-12.535741
1248.521716	-12.502265
1249.041894	-12.496788
1249.562506	-12.470360
1250.083553	-12.456230
1250.605034	-12.438640
1251.126950	-12.419997
1251.649302	-12.403997
1252.172091	-12.386386
1252.695316	-12.370872
1253.218979	-12.353362
1253.743079	-12.339565
1254.267619	-12.320713
1254.792597	-12.310316
1255.318015	-12.290588
1255.843874	-12.279594
1256.370173	-12.265406
1256.896913	-12.249212
1257.424095	-12.241271
1257.951720	-12.222035
1258.479787	-12.217400
1259.008298	-12.199385
1259.537254	-12.192494
1260.066654	-12.180829
1260.596499	-12.170163
1261.126790	-12.163497
1261.657527	-12.150150
1262.188711	-12.149272
1262.720342	-12.132974
1263.252422	-12.136944
1263.784950	-12.119086
1264.317928	-12.126409
1264.851355	-12.110091
1265.385232	-12.114292
1265.919560	-12.109569
1266.454340	-12.101319
1266.989572	-12.113408
1267.525256	-12.091413
1268.061394	-12.116594
1268.597985	-12.091652
1269.135031	-12.113571
1269.672531	-12.102870
1270.210487	-12.108658
1270.748899	-12.117456
1271.287768	-12.107724
1271.827094	-12.131105
1272.366877	-12.115398
1272.907119	-12.141400
1273.447820	-12.128303
1273.988981	-12.152820
1274.530601	-12.143858
1275.072683	-12.165259
1275.615226	-12.161227
1276.158230	-12.179829
1276.701697	-12.180236
1277.245627	-12.194066
1277.790021	-12.201842
1278.334879	-12.209549
1278.880202	-12.223054
1279.425991	-12.226494
1279.972245	-12.243751
1280.518966	-12.246076
1281.066155	-12.262062
1281.613811	-12.267557
1282.161936	-12.280076
1282.710529	-12.288836
1283.259593	-12.296869
1283.809126	-12.309946
1284.359131	-12.314495
1284.909607	-12.329677
1285.460555	-12.331771
1286.011976	-12.348550
1286.563870	-12.348921
1287.116237	-12.364304
1287.669080	-12.366225
1288.222397	-12.378708
1288.776191	-12.383529
1289.330460	-12.390461
1289.885207	-12.400090
1290.440431	-12.401092
1290.996133	-12.414062
1291.552314	-12.410449
1292.108975	-12.426021
1292.666115	-12.419446
1293.223737	-12.434265
1293.781839	-12.427514
1294.340424	-12.439493
1294.899491	-12.434434
1295.459041	-12.440877
1296.019075	-12.440248
1296.579593	-12.439970
1297.140597	-12.443364
1297.702086	-12.436088
1298.264061	-12.443533
1298.826524	-12.430277
1299.389474	-12.439467
1299.952912	-12.422785
1300.516839	-12.432053
1301.081255	-12.413848
1301.646162	-12.420263
1302.211559	-12.402931
1302.777448	-12.405360
1303.343829	-12.389632
1303.910702	-12.387315
1304.478069	-12.374108
1305.045930	-12.367013
1305.614285	-12.355582
1306.183136	-12.344697
1306.752483	-12.334785
1307.322326	-12.320845
1307.892666	-12.311190
1308.463504	-12.295816
1309.034841	-12.285646
1309.606677	-12.269650
1310.179012	-12.258050
1310.751849	-12.242802
1311.325186	-12.229319
1311.899025	-12.214694
1312.473366	-12.199589
1313.048211	-12.186044
1313.623559	-12.169483
1314.199412	-12.156069
1314.775770	-12.138863
1315.352634	-12.125703
1315.930004	-12.108023
1316.507881	-12.094531
1317.086266	-12.077196
1317.665159	-12.063178
1318.244562	-12.046153
1318.824474	-12.031317
1319.404897	-12.015169
1319.985831	-11.999634
1320.567276	-11.983922
1321.149234	-11.968269
1321.731706	-11.952794
1322.314691	-11.937360
1322.898190	-11.921734
1323.482205	-11.906645
1324.066736	-11.891606
1324.651783	-11.876381
1325.237347	-11.862303
1325.823430	-11.846583
1326.410031	-11.834189
1326.997151	-11.817783
1327.584791	-11.807018
1328.172952	-11.790094
1328.761634	-11.780980
1329.350839	-11.763857
1329.940566	-11.755696
1330.530817	-11.739541
1331.121592	-11.730992
1331.712891	-11.717338
1332.304716	-11.706781
1332.897068	-11.697139
1333.489946	-11.683465
1334.083352	-11.678485
1334.677287	-11.661594
1335.271750	-11.660499
1335.866744	-11.641942
1336.462268	-11.642559
1337.058323	-11.624907
1337.654910	-11.624391
1338.252029	-11.610710
1338.849682	-11.606139
1339.447869	-11.598378
1340.046591	-11.589062
1340.645848	-11.587081
1341.245641	-11.574111
1341.845972	-11.575393
1342.446840	-11.562240
1343.048246	-11.563721
1343.650191	-11.552508
1344.252677	-11.552321
1344.855702	-11.544468
1345.459269	-11.542302
1346.063379	-11.536602
1346.668030	-11.534317
1347.273226	-11.528876
1347.878965	-11.528598
1348.485250	-11.521023
1349.092080	-11.524399
1349.699456	-11.514922
1350.307380	-11.519811
1350.915851	-11.511139
1351.524871	-11.514760
1352.134441	-11.509649
1352.744560	-11.509184
1353.355231	-11.509494
1353.966453	-11.504671
1354.578227	-11.508978
1355.190555	-11.502394
1355.803436	-11.507449
1356.416872	-11.502433
1357.030863	-11.505430
1357.645411	-11.503331
1358.260515	-11.504656
1358.876177	-11.503555
1359.492397	-11.505508
1360.109176	-11.503356
1360.726516	-11.507797
1361.344416	-11.502945
1361.962877	-11.510200
1362.581901	-11.504194
1363.201487	-11.511104
1363.821637	-11.507248
1364.442352	-11.510975
1365.063632	-11.511326
1365.685478	-11.511247
1366.307891	-11.514228
1366.930871	-11.513624
1367.554420	-11.515887
1368.178538	-11.516968
1368.803226	-11.517616
1369.428485	-11.520353
1370.054315	-11.520573
1370.680717	-11.522621
1371.307693	-11.525328
1371.935242	-11.524088
1372.563366	-11.530253
1373.192065	-11.526550
1373.821341	-11.533474
1374.451193	-11.530936
1375.081623	-11.535290
1375.712632	-11.535877
1376.344221	-11.537681
1376.976389	-11.539208
1377.609139	-11.541844
1378.242470	-11.541152
1378.876384	-11.545993
1379.510881	-11.543250
1380.145963	-11.548683
1380.781629	-11.546849
1381.417881	-11.549364
1382.054720	-11.551213
1382.692147	-11.550516
1383.330161	-11.554056
1383.968765	-11.553389
1384.607959	-11.555423
1385.247743	-11.557311
1385.888119	-11.557411
1386.529087	-11.559865
1387.170648	-11.561340
1387.812804	-11.561456
1388.455554	-11.565772
1389.098899	-11.563283
1389.742842	-11.569207
1390.387381	-11.567174
1391.032519	-11.571130
1391.678256	-11.571844
1392.324592	-11.574145
1392.971529	-11.575187
1393.619068	-11.578860
1394.267208	-11.577764
1394.915952	-11.583554
1395.565300	-11.581362
1396.215253	-11.586638
1396.865812	-11.585854
1397.516977	-11.589030
1398.168749	-11.590173
1398.821130	-11.591836
1399.474120	-11.593237
1400.127719	-11.596153
1400.781930	-11.595674
1401.436752	-11.600316
1402.092186	-11.599828
1402.748234	-11.602911
1403.404897	-11.604981
1404.062174	-11.605725
1404.720067	-11.608969
1405.378577	-11.610079
1406.037705	-11.612086
1406.697451	-11.614750
1407.357817	-11.616272
1408.018803	-11.618862
1408.680410	-11.622187
1409.342639	-11.623141
1410.005492	-11.628929
1410.668968	-11.629424
1411.333068	-11.634653
1411.997795	-11.637341
1412.663147	-11.641199
1413.329127	-11.644393
1413.995736	-11.649473
1414.662973	-11.651101
1415.330840	-11.658429
1415.999339	-11.659698
1416.668469	-11.666812
1417.338232	-11.670815
1418.008628	-11.677049
1418.679659	-11.682219
1419.351325	-11.690163
1420.023628	-11.694338
1420.696568	-11.704243
1421.370145	-11.708367
1422.044362	-11.717443
1422.719219	-11.723327
1423.394717	-11.731245
1424.070856	-11.737936
1424.747638	-11.746527
1425.425064	-11.752870
1426.103134	-11.763593
1426.781850	-11.770464
1427.461212	-11.781756
1428.141221	-11.791913
1428.821878	-11.802543
1429.503185	-11.814278
1430.185141	-11.826588
1430.867749	-11.837263
1431.551008	-11.850436
1432.234920	-11.860754
1432.919486	-11.872444
1433.604707	-11.883545
1434.290583	-11.893063
1434.977116	-11.904845
1435.664307	-11.915101
1436.352156	-11.925894
1437.040664	-11.938937
1437.729833	-11.951433
1438.419663	-11.964713
1439.110156	-11.981730
1439.801312	-11.995297
1440.493132	-12.013289
1441.185617	-12.029269
1441.878768	-12.045058
1442.572586	-12.060574
1443.267072	-12.075166
1443.962228	-12.085867
1444.658053	-12.099435
1445.354549	-12.106087
1446.051717	-12.115492
1446.749558	-12.122682
1447.448073	-12.128954
1448.147263	-12.135494
1448.847128	-12.145553
1449.547671	-12.151671
1450.248891	-12.165341
1450.950789	-12.176404
1451.653368	-12.191355
1452.356627	-12.206968
1453.060568	-12.223854
1453.765192	-12.238707
1454.470500	-12.256659
1455.176492	-12.266930
1455.883170	-12.279549
1456.590534	-12.285719
1457.298586	-12.288114
1458.007327	-12.286825
1458.716758	-12.282941
1459.426880	-12.272066
1460.137693	-12.264494
1460.849199	-12.251230
1461.561398	-12.240989
1462.274293	-12.232559
1462.987883	-12.226575
1463.702170	-12.224028
1464.417155	-12.229678
1465.132838	-12.235361
1465.849222	-12.250309
1466.566306	-12.267985
1467.284093	-12.288120
1468.002582	-12.311401
1468.721775	-12.335728
1469.441674	-12.355565
1470.162278	-12.376188
1470.883590	-12.389000
1471.605609	-12.396455
1472.328338	-12.398108
1473.051777	-12.391077
1473.775928	-12.376908
1474.500790	-12.359451
1475.226367	-12.333900
1475.952657	-12.308362
1476.679663	-12.283322
1477.407386	-12.258633
1478.135826	-12.240758
1478.864985	-12.231287
1479.594863	-12.228661
1480.325463	-12.239932
1481.056784	-12.263028
1481.788828	-12.296699
1482.521597	-12.345321
1483.255090	-12.403945
1483.989309	-12.470308
1484.724256	-12.545753
1485.459931	-12.623336
1486.196336	-12.698645
1486.933471	-12.771919
1487.671337	-12.833274
1488.409937	-12.880284
1489.149270	-12.910447
1489.889337	-12.917880
1490.630141	-12.900424
1491.371682	-12.861855
1492.113961	-12.796933
1492.856979	-12.713109
1493.600738	-12.613339
1494.345238	-12.501603
1495.090481	-12.382985
1495.836467	-12.266994
1496.583198	-12.152772
1497.330675	-12.050941
1498.078899	-11.963189
1498.827872	-11.893394
1499.577593	-11.844711
1500.328065	-11.821901
1501.079289	-11.820869
1501.831265	-11.848535
1502.583995	-11.899897
1503.337480	-11.973519
1504.091721	-12.065696
1504.846719	-12.172444
1505.602475	-12.279596
1506.358991	-12.384188
1507.116268	-12.469144
1507.874306	-12.523738
1508.633108	-12.536188
1509.392673	-12.500223
1510.153004	-12.405979
1510.914101	-12.261230
1511.675965	-12.066496
1512.438599	-11.833093
1513.202002	-11.572464
1513.966176	-11.297569
1514.731122	-11.015388
1515.496842	-10.740434
1516.263336	-10.476428
1517.030607	-10.230133
1517.798654	-10.006091
1518.567479	-9.808276
1519.337083	-9.636560
1520.107468	-9.496979
1520.878634	-9.388207
1521.650584	-9.314034
1522.423317	-9.276262
1523.196836	-9.277360
1523.971141	-9.317648
1524.746233	-9.402583
1525.522115	-9.529653
1526.298786	-9.702145
1527.076249	-9.918825
1527.854504	-10.177430
1528.633553	-10.471965
1529.413397	-10.797768
1530.194037	-11.137440
1530.975474	-11.478640
1531.757709	-11.796338
1532.540745	-12.066601
1533.324581	-12.264162
1534.109220	-12.372751
1534.894662	-12.379615
1535.680909	-12.297817
1536.467961	-12.140027
1537.255821	-11.935518
1538.044489	-11.712862
1538.833967	-11.497710
1539.624256	-11.311659
1540.415357	-11.175348
1541.207271	-11.098201
1542.000000	-11.093206
1542.793545	-11.167758
1543.587907	-11.326437
1544.383087	-11.575844
1545.179088	-11.921193
1545.975909	-12.363948
1546.773552	-12.910653
1547.572019	-13.563954
1548.371311	-14.320908
1549.171428	-15.180941
1549.972373	-16.123509
1550.774147	-17.108234
1551.576751	-18.054526
1552.380185	-18.828839
1553.184453	-19.258107
1553.989554	-19.240752
1554.795490	-18.791116
1555.602263	-18.062316
1556.409873	-17.205532
1557.218322	-16.334048
1558.027612	-15.507050
1558.837743	-14.753721
1559.648717	-14.078372
1560.460536	-13.486380
1561.273200	-12.969616
1562.086710	-12.524854
1562.901069	-12.146391
1563.716278	-11.829483
1564.532337	-11.567644
1565.349249	-11.359903
1566.167014	-11.199667
1566.985634	-11.085064
1567.805111	-11.013405
1568.625444	-10.981923
1569.446637	-10.986931
1570.268690	-11.028985
1571.091605	-11.103394
1571.915382	-11.209150
1572.740024	-11.344401
1573.565532	-11.507344
1574.391907	-11.693574
1575.219150	-11.904085
1576.047262	-12.133501
1576.876246	-12.379847
1577.706103	-12.639550
1578.536833	-12.910732
1579.368439	-13.185669
1580.200922	-13.464316
1581.034282	-13.739340
1581.868522	-14.007199
1582.703643	-14.261599
1583.539646	-14.501303
1584.376532	-14.717060
1585.214304	-14.909257
1586.052962	-15.072375
1586.892508	-15.205710
1587.732943	-15.305157
1588.574269	-15.375336
1589.416487	-15.411835
1590.259599	-15.419761
1591.103605	-15.399752
1591.948508	-15.356690
1592.794309	-15.289880
1593.641009	-15.207106
1594.488609	-15.107841
1595.337112	-14.996499
1596.186518	-14.874335
1597.036829	-14.745506
1597.888047	-14.608044
1598.740172	-14.466678
1599.593207	-14.320393
1600.447153	-14.170911
1601.302010	-14.017968
1602.157782	-13.864789
1603.014469	-13.709465
1603.872072	-13.554957
1604.730593	-13.402059
1605.590034	-13.252054
1606.450397	-13.105453
1607.311681	-12.965372
1608.173890	-12.831426
1609.037024	-12.705314
1609.901085	-12.588261
1610.766075	-12.481003
1611.631995	-12.383171
1612.498846	-12.296155
1613.366630	-12.219485
1614.235349	-12.152329
1615.105004	-12.094994
1615.975596	-12.046576
1616.847128	-12.005828
1617.719600	-11.971811
1618.593014	-11.944282
1619.467372	-11.920655
1620.342675	-11.900699
1621.218924	-11.882932
1622.096122	-11.866413
1622.974270	-11.849215
1623.853369	-11.832023
1624.733420	-11.812652
1625.614427	-11.791520
1626.496389	-11.767850
1627.379308	-11.742714
1628.263187	-11.714403
1629.148026	-11.685707
1630.033828	-11.655412
1630.920593	-11.625374
1631.808324	-11.595208
1632.697022	-11.567735
1633.586688	-11.540848
1634.477324	-11.517749
1635.368932	-11.497072
1636.261514	-11.480567
1637.155070	-11.466386
1638.049602	-11.457477
1638.945113	-11.450464
1639.841603	-11.447634
1640.739075	-11.446728
1641.637529	-11.448984
1642.536968	-11.451066
1643.437393	-11.455713
1644.338806	-11.459110
1645.241209	-11.462826
1646.144602	-11.464735
1647.048988	-11.466720
1647.954368	-11.465507
1648.860744	-11.464307
1649.768118	-11.460977
1650.676491	-11.457171
1651.585865	-11.451920
1652.496241	-11.447753
1653.407621	-11.442370
1654.320008	-11.438440
1655.233401	-11.435046
1656.147804	-11.432898
1657.063218	-11.431305
1657.979645	-11.432014
1658.897085	-11.433138
1659.815542	-11.435490
1660.735016	-11.439173
1661.655509	-11.443371
1662.577023	-11.447659
1663.499560	-11.452524
1664.423121	-11.457334
1665.347709	-11.461102
1666.273324	-11.465342
1667.199969	-11.468743
1668.127645	-11.471959
1669.056353	-11.474930
1669.986097	-11.478903
1670.916877	-11.482081
1671.848695	-11.486941
1672.781553	-11.492099
1673.715452	-11.498474
1674.650395	-11.505035
1675.586383	-11.513893
1676.523418	-11.522236
1677.461501	-11.532156
1678.400635	-11.542325
1679.340821	-11.553630
1680.282061	-11.564286
1681.224357	-11.576765
1682.167710	-11.588611
1683.112122	-11.601452
1684.057595	-11.614505
1685.004132	-11.628659
1685.951732	-11.642496
1686.900400	-11.658053
1687.850135	-11.673987
1688.800940	-11.690857
1689.752818	-11.708621
1690.705768	-11.727727
1691.659795	-11.746966
1692.614898	-11.767223
1693.571081	-11.788169
1694.528345	-11.809230
1695.486691	-11.830677
1696.446122	-11.852772
1697.406640	-11.875059
1698.368245	-11.897366
1699.330941	-11.920812
1700.294729	-11.944160
1701.259611	-11.968098
1702.225588	-11.992292
1703.192664	-12.017278
1704.160838	-12.041680
1705.130114	-12.067031
1706.100493	-12.092088
1707.071977	-12.117582
1708.044568	-12.142851
1709.018268	-12.169132
1709.993079	-12.194800
1710.969003	-12.221392
1711.946041	-12.248018
1712.924196	-12.275177
1713.903469	-12.302162
1714.883862	-12.330331
1715.865378	-12.358229
1716.848017	-12.386949
1717.831783	-12.415942
1718.816677	-12.445610
1719.802701	-12.474979
1720.789857	-12.505166
1721.778147	-12.535325
1722.767573	-12.565660
1723.758136	-12.596404
1724.749840	-12.627581
1725.742685	-12.658959
1726.736673	-12.690807
1727.731808	-12.723232
1728.728090	-12.755564
1729.725521	-12.788362
1730.724105	-12.821225
1731.723842	-12.854140
1732.724735	-12.886733
1733.726785	-12.919765
1734.729995	-12.952295
1735.734366	-12.985226
1736.739902	-13.018197
1737.746603	-13.051737
1738.754472	-13.085175
1739.763510	-13.119520
1740.773721	-13.153628
1741.785105	-13.188239
1742.797665	-13.222686
1743.811403	-13.257589
1744.826321	-13.292103
1745.842422	-13.327347
1746.859706	-13.362670
1747.878177	-13.398680
1748.897835	-13.435239
1749.918685	-13.472629
1750.940726	-13.510456
1751.963963	-13.548698
1752.988395	-13.587368
1754.014027	-13.625908
1755.040860	-13.664695
1756.068895	-13.703293
1757.098135	-13.742482
1758.128583	-13.781426
1759.160240	-13.821109
1760.193109	-13.860555
1761.227191	-13.900609
1762.262488	-13.939912
1763.299004	-13.979722
1764.336740	-14.018753
1765.375697	-14.057786
1766.415880	-14.096193
1767.457288	-14.134782
1768.499926	-14.172687
1769.543794	-14.210353
1770.588895	-14.247889
1771.635231	-14.284951
1772.682805	-14.321769
1773.731619	-14.358140
1774.781674	-14.394535
1775.832973	-14.429836
1776.885519	-14.465109
1777.939312	-14.499433
1778.994357	-14.533662
1780.050654	-14.566722
1781.108207	-14.599952
1782.167017	-14.632166
1783.227087	-14.664202
1784.288418	-14.695459
1785.351013	-14.726617
1786.414875	-14.756890
1787.480006	-14.786646
1788.546407	-14.815938
1789.614082	-14.844616
1790.683032	-14.873099
1791.753259	-14.901212
1792.824767	-14.929491
1793.897557	-14.957098
1794.971632	-14.984815
1796.046994	-15.011677
1797.123645	-15.038496
1798.201588	-15.064322
1799.280824	-15.090205
1800.361357	-15.115513
1801.443188	-15.140823
1802.526320	-15.165694
1803.610756	-15.190492
1804.696497	-15.214778
1805.783546	-15.238286
1806.871906	-15.261512
1807.961578	-15.283864
1809.052565	-15.306000
1810.144870	-15.327620
1811.238494	-15.349364
1812.333441	-15.370037
1813.429713	-15.390462
1814.527311	-15.409707
1815.626239	-15.428066
1816.726499	-15.445406
1817.828094	-15.462179
1818.931025	-15.477940
1820.035295	-15.492797
1821.140906	-15.506717
1822.247862	-15.518954
1823.356165	-15.529888
1824.465816	-15.539318
1825.576819	-15.547650
1826.689175	-15.554734
1827.802888	-15.561269
1828.917960	-15.566598
1830.034394	-15.571117
1831.152191	-15.574566
1832.271354	-15.577070
1833.391887	-15.578686
1834.513790	-15.579801
1835.637068	-15.580419
1836.761722	-15.580291
1837.887755	-15.579697
1839.015169	-15.577965
1840.143968	-15.575323
1841.274153	-15.571608
1842.405727	-15.567157
1843.538693	-15.561758
1844.673053	-15.555905
1845.808810	-15.549113
1846.945966	-15.541209
1848.084525	-15.532032
1849.224488	-15.521564
1850.365858	-15.509785
1851.508638	-15.497182
1852.652831	-15.483856
1853.798438	-15.469720
1854.945463	-15.455023
1856.093909	-15.439714
1857.243777	-15.423679
1858.395071	-15.407197
1859.547794	-15.390338
1860.701947	-15.372836
1861.857533	-15.354805
1863.014556	-15.336121
1864.173018	-15.316682
1865.332922	-15.296679
1866.494270	-15.276427
1867.657065	-15.255860
1868.821309	-15.235178
1869.987006	-15.214282
1871.154158	-15.192489
1872.322768	-15.169885
1873.492839	-15.146365
1874.664373	-15.122377
1875.837373	-15.098480
1877.011841	-15.075395
1878.187782	-15.052692
1879.365197	-15.030251
1880.544089	-15.007497
1881.724460	-14.983903
1882.906315	-14.959658
1884.089655	-14.935003
1885.274483	-14.910383
1886.460803	-14.885968
1887.648616	-14.862088
1888.837927	-14.838074
1890.028736	-14.813826
1891.221049	-14.788952
1892.414866	-14.763436
1893.610192	-14.737499
1894.807028	-14.711327
1896.005379	-14.685121
1897.205246	-14.658940
1898.406633	-14.633097
1899.609542	-14.607347
1900.813977	-14.581658
1902.019940	-14.555535
1903.227434	-14.528733
1904.436462	-14.501262
1905.647028	-14.473451
1906.859133	-14.445773
1908.072781	-14.418378
1909.287976	-14.391315
1910.504719	-14.364016
1911.723013	-14.336138
1912.942863	-14.307210
1914.164270	-14.277389
1915.387238	-14.247055
1916.611770	-14.216770
1917.837868	-14.186851
1919.065536	-14.157033
1920.294777	-14.127075
1921.525594	-14.096644
1922.757989	-14.065977
1923.991967	-14.035279
1925.227529	-14.005072
1926.464679	-13.975491
1927.703420	-13.946624
1928.943755	-13.918420
1930.185688	-13.890594
1931.429221	-13.863116
1932.674356	-13.835809
1933.921099	-13.808688
1935.169451	-13.781742
1936.419415	-13.755219
1937.670996	-13.729324
1938.924195	-13.704194
1940.179017	-13.679861
1941.435463	-13.655791
1942.693538	-13.631826
1943.953245	-13.607861
1945.214586	-13.584196
1946.477566	-13.561126
1947.742186	-13.538767
1949.008451	-13.517002
1950.276363	-13.495513
1951.545926	-13.474162
1952.817143	-13.452731
1954.090017	-13.431368
1955.364551	-13.410187
1956.640749	-13.389357
1957.918615	-13.369102
1959.198150	-13.349369
1960.479359	-13.330071
1961.762244	-13.311002
1963.046810	-13.291958
1964.333059	-13.272777
1965.620995	-13.253445
1966.910621	-13.234027
1968.201940	-13.214722
1969.494956	-13.195481
1970.789672	-13.176018
1972.086091	-13.156090
1973.384217	-13.135623
1974.684053	-13.114906
1975.985602	-13.094341
1977.288869	-13.074238
1978.593855	-13.054511
1979.900566	-13.034791
1981.209003	-13.014843
1982.519171	-12.994853
1983.831073	-12.975263
1985.144712	-12.956210
1986.460093	-12.937388
1987.777217	-12.918416
1989.096089	-12.899296
1990.416713	-12.880472
1991.739092	-12.862263
1993.063228	-12.844666
1994.389127	-12.827529
1995.716791	-12.810742
1997.046223	-12.794230
1998.377428	-12.778057
1999.710409	-12.762422
2001.045169	-12.747528
2002.381713	-12.733439
2003.720043	-12.720056
2005.060163	-12.707264
2006.402077	-12.695127
2007.745788	-12.683665
2009.091301	-12.672816
2010.438618	-12.662713
2011.787743	-12.653537
2013.138680	-12.645278
2014.491433	-12.637640
2015.846005	-12.629991
2017.202399	-12.622116
2018.560621	-12.614348
2019.920673	-12.607066
2021.282558	-12.600415
2022.646281	-12.594027
2024.011846	-12.587291
2025.379256	-12.580020
2026.748515	-12.572477
2028.119626	-12.565241
2029.492594	-12.558706
2030.867422	-12.552579
2032.244114	-12.546237
2033.622673	-12.539552
2035.003104	-12.532814
2036.385411	-12.526195
2037.769597	-12.519671
2039.155665	-12.513147
2040.543621	-12.506659
2041.933467	-12.500330
2043.325208	-12.494003
2044.718847	-12.487480
2046.114389	-12.481054
2047.511837	-12.475075
2048.911195	-12.469746
2050.312467	-12.464979
2051.715657	-12.460081
2053.120769	-12.454618
2054.527807	-12.448973
2055.936775	-12.443924
2057.347677	-12.440267
2058.760516	-12.437742
2060.175297	-12.435277
2061.592025	-12.432641
2063.010701	-12.430439
2064.431332	-12.429598
2065.853921	-12.430583
2067.278472	-12.432630
2068.704988	-12.434891
2070.133475	-12.437345
2071.563936	-12.440632
2072.996375	-12.445664
2074.430796	-12.452369
2075.867204	-12.459993
2077.305603	-12.468112
2078.745996	-12.476285
2080.188389	-12.484417
2081.632784	-12.492704
2083.079187	-12.501398
2084.527601	-12.511099
2085.978030	-12.521280
2087.430480	-12.530616
2088.884954	-12.538828
2090.341455	-12.546736
2091.799990	-12.555817
2093.260561	-12.566186
2094.723173	-12.576022
2096.187831	-12.584374
2097.654538	-12.591816
2099.123300	-12.599909
2100.594119	-12.609425
2102.067001	-12.619033
2103.541950	-12.627694
2105.018971	-12.635315
2106.498067	-12.642696
2107.979243	-12.651132
2109.462503	-12.660388
2110.947853	-12.669989
2112.435295	-12.679464
2113.924836	-12.688339
2115.416478	-12.697474
2116.910227	-12.707525
2118.406087	-12.719177
2119.904063	-12.732178
2121.404158	-12.744874
2122.906378	-12.757220
2124.410727	-12.770027
2125.917210	-12.784832
2127.425831	-12.802017
2128.936594	-12.819835
2130.449505	-12.838064
2131.964567	-12.857128
2133.481786	-12.878379
2135.001166	-12.902264
2136.522711	-12.927077
2138.046427	-12.952188
2139.572317	-12.977243
2141.100388	-13.003411
2142.630642	-13.031365
2144.163085	-13.060204
2145.697722	-13.089841
2147.234558	-13.119678
2148.773596	-13.150153
2150.314842	-13.180421
2151.858301	-13.209887
2153.403977	-13.239445
2154.951875	-13.268800
2156.502000	-13.298247
2158.054357	-13.327143
2159.608950	-13.356393
2161.165785	-13.386592
2162.724866	-13.416755
2164.286198	-13.445948
2165.849786	-13.473131
2167.415635	-13.500359
2168.983749	-13.528415
2170.554134	-13.556967
2172.126795	-13.585034
2173.701737	-13.612791
2175.278964	-13.641702
2176.858481	-13.671401
2178.440294	-13.702400
2180.024408	-13.734132
2181.610827	-13.766473
2183.199557	-13.798244
2184.790602	-13.829849
2186.383968	-13.863602
2187.979660	-13.899928
2189.577683	-13.937441
2191.178041	-13.973835
2192.780741	-14.010759
2194.385787	-14.049720
2195.993185	-14.090941
2197.602939	-14.132415
2199.215054	-14.173374
2200.829537	-14.215819
2202.446392	-14.262691
2204.065624	-14.316044
2205.687239	-14.374766
2207.311242	-14.437939
2208.937638	-14.503293
2210.566433	-14.569374
2212.197631	-14.634130
2213.831239	-14.696785
2215.467261	-14.755986
2217.105703	-14.810614
2218.746570	-14.860802
2220.389867	-14.909657
2222.035601	-14.960928
2223.683776	-15.014666
2225.334398	-15.069457
2226.987472	-15.124895
2228.643004	-15.183552
2230.300999	-15.245698
2231.961463	-15.309266
2233.624402	-15.371057
2235.289820	-15.430017
2236.957723	-15.485135
2238.628118	-15.538490
2240.301009	-15.590823
2241.976402	-15.641550
2243.654303	-15.689617
2245.334717	-15.737328
2247.017650	-15.787415
2248.703108	-15.841410
2250.391096	-15.897335
2252.081620	-15.954927
2253.774686	-16.015674
2255.470300	-16.081982
2257.168467	-16.153139
2258.869193	-16.227563
2260.572484	-16.304576
2262.278345	-16.385093
2263.986783	-16.469104
2265.697804	-16.556750
2267.411412	-16.645698
2269.127615	-16.733460
2270.846417	-16.820504
2272.567826	-16.909957
2274.291846	-17.001068
2276.018484	-17.089208
2277.747745	-17.175169
2279.479637	-17.265139
2281.214164	-17.360183
2282.951333	-17.454598
2284.691149	-17.547413
2286.433619	-17.642872
2288.178750	-17.742011
2289.926546	-17.838745
2291.677014	-17.930989
2293.430161	-18.019879
2295.185992	-18.106998
2296.944513	-18.190068
2298.705732	-18.268022
2300.469653	-18.340242
2302.236283	-18.408533
2304.005629	-18.480432
2305.777696	-18.558795
2307.552492	-18.640798
2309.330022	-18.726444
2311.110292	-18.824271
2312.893310	-18.934918
2314.679080	-19.048754
2316.467611	-19.159342
2318.258907	-19.267006
2320.052976	-19.369430
2321.849824	-19.462335
2323.649457	-19.550682
2325.451883	-19.639211
2327.257106	-19.729578
2329.065135	-19.824050
2330.875975	-19.926621
2332.689633	-20.038361
2334.506116	-20.152597
2336.325430	-20.271155
2338.147581	-20.393936
2339.972578	-20.519213
2341.800425	-20.645018
2343.631130	-20.773014
2345.464700	-20.905860
2347.301141	-21.043442
2349.140461	-21.186530
2350.982665	-21.327292
2352.827760	-21.462091
2354.675754	-21.601600
2356.526653	-21.745013
2358.380464	-21.880951
2360.237195	-22.007942
2362.096851	-22.135038
2363.959440	-22.265646
2365.824968	-22.389118
2367.693444	-22.504615
2369.564873	-22.621474
2371.439263	-22.738277
2373.316620	-22.851987
2375.196953	-22.961405
2377.080267	-23.068526
2378.966570	-23.181620
2380.855869	-23.299725
2382.748171	-23.412787
2384.643484	-23.524827
2386.541815	-23.643301
2388.443170	-23.767838
2390.347557	-23.888036
2392.254984	-24.004596
2394.165457	-24.126773
2396.078984	-24.257629
2397.995572	-24.389943
2399.915229	-24.518868
2401.837961	-24.646271
2403.763777	-24.785275
2405.692684	-24.936389
2407.624689	-25.084422
2409.559800	-25.236135
2411.498023	-25.405574
2413.439368	-25.581290
2415.383840	-25.752055
2417.331449	-25.930853
2419.282201	-26.121389
2421.236104	-26.311450
2423.193165	-26.493667
2425.153393	-26.681054
2427.116795	-26.871435
2429.083378	-27.055660
2431.053151	-27.229792
2433.026121	-27.397447
2435.002297	-27.562950
2436.981685	-27.717829
2438.964293	-27.856568
2440.950131	-27.988700
2442.939204	-28.122919
2444.931522	-28.250762
2446.927092	-28.366043
2448.925923	-28.479660
2450.928022	-28.599124
2452.933397	-28.717518
2454.942056	-28.834648
2456.954008	-28.953212
2458.969260	-29.075796
2460.987821	-29.201350
2463.009699	-29.329200
2465.034902	-29.468937
2467.063437	-29.611799
2469.095315	-29.751555
2471.130542	-29.898043
2473.169127	-30.043042
2475.211078	-30.187482
2477.256404	-30.349165
2479.305112	-30.524033
2481.357212	-30.701366
2483.412713	-30.891287
2485.471621	-31.099183
2487.533946	-31.319034
2489.599696	-31.565264
2491.668880	-31.829886
2493.741507	-32.089689
2495.817585	-32.352936
2497.897122	-32.625717
2499.980127	-32.898956
2502.066609	-33.149743
2504.156578	-33.380320
2506.250040	-33.613822
2508.347006	-33.829465
2510.447483	-34.003461
2512.551482	-34.167314
2514.659010	-34.322803
2516.770076	-34.444777
2518.884690	-34.554804
2521.002861	-34.651700
2523.124597	-34.734735
2525.249907	-34.823751
2527.378801	-34.903176
2529.511287	-34.994828
2531.647375	-35.087351
2533.787074	-35.155569
2535.930393	-35.245575
2538.077340	-35.352637
2540.227927	-35.461129
2542.382160	-35.589544
2544.540051	-35.701803
2546.701608	-35.815409
2548.866840	-35.968101
2551.035757	-36.102114
2553.208369	-36.239641
2555.384684	-36.411579
2557.564713	-36.588928
2559.748465	-36.808038
2561.935948	-37.061952
2564.127174	-37.341061
2566.322152	-37.678393
2568.520890	-38.036929
2570.723399	-38.413414
2572.929689	-38.840609
2575.139769	-39.282214
2577.353649	-39.716030
2579.571340	-40.099170
2581.792849	-40.493438
2584.018189	-40.886434
2586.247368	-41.204780
2588.480396	-41.529721
2590.717284	-41.762564
2592.958041	-41.918383
2595.202678	-42.084988
2597.451204	-42.219671
2599.703630	-42.293364
2601.959966	-42.291363
2604.220222	-42.292552
2606.484408	-42.294936
2608.752535	-42.259221
2611.024612	-42.238263
2613.300651	-42.181270
2615.580661	-42.138535
2617.864653	-42.152815
2620.152638	-42.127841
2622.444625	-42.116593
2624.740626	-42.084199
2627.040651	-42.089664
2629.344710	-42.149940
2631.652814	-42.165998
2633.964974	-42.184179
2636.281200	-42.189604
2638.601504	-42.313681
2640.925896	-42.528874
2643.254386	-42.743048
2645.586987	-43.077061
2647.923707	-43.446928
2650.264559	-43.875683
2652.609554	-44.412958
2654.958702	-44.959392
2657.312015	-45.528269
2659.669503	-46.162264
2662.031178	-46.882521
2664.397051	-47.511603
2666.767132	-48.137438
2669.141434	-48.888906
2671.519968	-49.580453
2673.902745	-50.347595
2676.289776	-50.905170
2678.681072	-51.363677
2681.076646	-51.855221
2683.476508	-52.145726
2685.880671	-52.248495
2688.289145	-52.247858
2690.701942	-52.293338
2693.119075	-52.099471
2695.540554	-51.884190
2697.966391	-51.589358
2700.396599	-51.308225
2702.831189	-50.979025
2705.270172	-50.490949
2707.713561	-50.121130
2710.161368	-49.787595
2712.613605	-49.427816
2715.070283	-48.970930
2717.531416	-48.596901
2719.997014	-48.424996
2722.467090	-48.280957
2724.941657	-48.171705
2727.420726	-48.191848
2729.904310	-48.536899
2732.392421	-48.802160
2734.885072	-49.122134
2737.382275	-49.542998
2739.884042	-50.061728
2742.390387	-50.680993
2744.901321	-51.010267
2747.416857	-51.486888
2749.937008	-52.164726
2752.461787	-52.943887
2754.991206	-53.273310
2757.525279	-53.954435
2760.064017	-54.939617
2762.607434	-55.587819
2765.155544	-56.235740
2767.708358	-56.992929
2770.265890	-58.196068
2772.828153	-59.458489
2775.395160	-60.120279
2777.966924	-61.429540
2780.543459	-64.455742
2783.124778	-65.864106
2785.710894	-69.494461
2788.301821	-71.496991
2790.897572	-68.680892
2793.498160	-66.147484
2796.103599	-62.812447
2798.713903	-60.963550
2801.329085	-59.003881
2803.949159	-57.483135
2806.574139	-57.356381
2809.204038	-56.092275
2811.838871	-55.736803
2814.478650	-55.912027
2817.123391	-55.526674
2819.773107	-56.154606
2822.427812	-56.169147
2825.087521	-56.527469
2827.752247	-57.130747
2830.422005	-56.950655
2833.096808	-57.486085
2835.776672	-57.824420
2838.461611	-57.891713
2841.151638	-58.594759
2843.846769	-58.611221
2846.547019	-58.715106
2849.252401	-59.416934
2851.962930	-59.170845
2854.678621	-59.686960
2857.399489	-59.009247
2860.125549	-59.593482
2862.856815	-59.498846
2865.593302	-59.805377
2868.335026	-60.188532
2871.082002	-61.104637
2873.834244	-61.539094
2876.591767	-62.005331
2879.354588	-64.600929
2882.122721	-65.144630
2884.896181	-66.709880
2887.674984	-69.462608
2890.459146	-72.903211
2893.248681	-70.545174
2896.043606	-69.434012
2898.843937	-69.912618
2901.649687	-67.653336
2904.460875	-67.677566
2907.277515	-66.247008
2910.099623	-67.058784
2912.927215	-66.637053
2915.760308	-66.591777
2918.598916	-66.857752
2921.443057	-67.688307
2924.292747	-66.771100
2927.148002	-67.920962
2930.008837	-68.992759
2932.875270	-68.018130
2935.747318	-71.525405
2938.624995	-69.483587
2941.508320	-70.754443
2944.397308	-70.945656
2947.291977	-68.726765
2950.192343	-67.609467
2953.098423	-66.765886
2956.010234	-64.929672
2958.927792	-64.899979
2961.851116	-64.280705
2964.780221	-63.906813
2967.715126	-63.668894
2970.655847	-63.806261
2973.602402	-63.480563
2976.554808	-64.581268
2979.513083	-64.796890
2982.477243	-65.741162
2985.447308	-67.050081
2988.423293	-71.376149
2991.405218	-70.747806
2994.393099	-75.771614
2997.386955	-80.526923
