# 2022-03-22_11.58.23
# shape = sech2
# FWHM_ps = 0.11
# carrier_nm = 1542
# frep_MHz = 12126
# pow_mW = 8000
# GDD = 0.0
# propa_len = 0.14622222222222223
# untap_len = 0.01
# taper_len = 0.08622222222222223
# waist_len = 0.02
# uptap_len = 0.02
# untap_scale = 1.0
# waist_scale = 0.13157894736842107
# workingDir = NL_20110305_12 (Spirou)
# axis = slow
# window_ps = 10.0
# steps = 200
# points = 21700
# 
# wavelength [nm]	 power spectral density [dB]
600.043425	-89.063198
600.163550	-91.621438
600.283723	-92.510643
600.403943	-93.789223
600.524212	-95.241513
600.644529	-107.741723
600.764895	-96.084510
600.885308	-100.203678
601.005770	-90.973583
601.126280	-94.269551
601.246839	-92.300762
601.367446	-89.337822
601.488101	-90.630226
601.608804	-87.464988
601.729557	-94.194474
601.850357	-92.687584
601.971206	-98.448577
602.092104	-92.217369
602.213050	-95.276453
602.334045	-88.626269
602.455089	-88.274300
602.576181	-91.218792
602.697322	-93.068613
602.818511	-99.027387
602.939749	-103.924663
603.061036	-101.038313
603.182372	-96.576891
603.303757	-97.727376
603.425191	-96.288691
603.546673	-92.355839
603.668204	-102.423962
603.789785	-94.741958
603.911414	-95.775886
604.033092	-107.004067
604.154820	-95.972928
604.276596	-90.243171
604.398422	-94.978676
604.520297	-89.309883
604.642220	-91.187824
604.764193	-87.673004
604.886216	-86.766470
605.008287	-90.534150
605.130408	-91.898798
605.252578	-88.570957
605.374798	-87.253567
605.497066	-88.108505
605.619385	-87.391385
605.741752	-84.638064
605.864169	-87.081716
605.986636	-86.439176
606.109152	-91.159780
606.231718	-86.309668
606.354333	-90.592794
606.476998	-92.409589
606.599712	-98.716957
606.722476	-89.678129
606.845290	-91.619311
606.968154	-93.934765
607.091067	-92.046415
607.214030	-90.981349
607.337043	-93.071931
607.460106	-92.487866
607.583219	-96.216865
607.706381	-88.569900
607.829594	-95.958220
607.952856	-101.211929
608.076169	-93.591032
608.199531	-87.269209
608.322944	-92.686275
608.446407	-90.096009
608.569920	-92.053908
608.693483	-88.936428
608.817096	-93.627043
608.940759	-94.714381
609.064473	-90.955961
609.188237	-93.963482
609.312051	-87.294100
609.435916	-89.593584
609.559831	-84.594089
609.683796	-89.258355
609.807812	-90.530067
609.931878	-95.607017
610.055995	-89.382802
610.180162	-94.143531
610.304380	-90.435499
610.428648	-98.418251
610.552967	-89.217169
610.677337	-96.876889
610.801757	-95.175696
610.926228	-103.520920
611.050750	-102.631146
611.175323	-90.902602
611.299946	-93.467079
611.424620	-87.768574
611.549345	-96.104614
611.674121	-84.672429
611.798948	-88.622087
611.923826	-88.193468
612.048755	-89.426581
612.173734	-93.191784
612.298765	-88.647316
612.423847	-97.472977
612.548980	-96.554963
612.674165	-89.571074
612.799400	-97.426781
612.924687	-93.486636
613.050025	-94.291718
613.175414	-98.887069
613.300854	-105.609281
613.426346	-102.993250
613.551889	-91.850759
613.677484	-94.857668
613.803130	-90.122651
613.928827	-88.098795
614.054576	-89.596278
614.180377	-86.366606
614.306229	-94.710102
614.432132	-86.376692
614.558087	-89.977908
614.684094	-88.431482
614.810153	-101.021117
614.936263	-91.099809
615.062425	-90.667850
615.188639	-88.309639
615.314904	-86.448734
615.441222	-84.757055
615.567591	-87.458973
615.694012	-88.472501
615.820486	-96.445328
615.947011	-95.795667
616.073588	-89.504909
616.200217	-89.825730
616.326898	-82.911628
616.453632	-87.182527
616.580417	-84.591177
616.707255	-86.695300
616.834144	-85.405023
616.961086	-91.280214
617.088081	-91.903220
617.215127	-92.588710
617.342226	-100.044565
617.469378	-86.255040
617.596581	-93.391768
617.723837	-85.706635
617.851146	-91.802205
617.978507	-89.098519
618.105920	-97.739646
618.233386	-90.767665
618.360905	-98.679600
618.488476	-90.771311
618.616100	-103.118053
618.743777	-92.930609
618.871506	-93.219481
618.999288	-92.873874
619.127123	-91.878385
619.255011	-89.858946
619.382951	-85.045450
619.510945	-88.985707
619.638991	-83.599447
619.767090	-86.101064
619.895243	-85.250688
620.023448	-89.972287
620.151706	-92.257646
620.280017	-89.765299
620.408382	-96.242657
620.536799	-86.736635
620.665270	-87.621141
620.793794	-85.097656
620.922371	-88.273850
621.051002	-84.963768
621.179686	-90.623171
621.308423	-88.886628
621.437213	-93.044229
621.566057	-91.349211
621.694954	-97.872000
621.823905	-100.093060
621.952909	-89.186700
622.081967	-97.741659
622.211079	-87.070900
622.340244	-98.619006
622.469462	-85.920529
622.598735	-94.359431
622.728061	-90.820858
622.857441	-99.517358
622.986874	-98.301331
623.116361	-96.093484
623.245903	-106.123760
623.375498	-92.825616
623.505147	-93.182781
623.634850	-89.163226
623.764606	-92.121400
623.894417	-91.847182
624.024282	-92.875781
624.154201	-97.129680
624.284174	-93.452659
624.414202	-95.874528
624.544283	-94.291555
624.674419	-94.513689
624.804609	-108.253628
624.934853	-90.652917
625.065151	-97.263390
625.195504	-90.701397
625.325911	-94.127918
625.456373	-90.078713
625.586889	-93.841782
625.717460	-90.188121
625.848085	-86.847725
625.978764	-90.258436
626.109498	-89.708506
626.240287	-106.401810
626.371131	-92.448204
626.502029	-97.383562
626.632982	-102.908340
626.763989	-93.940206
626.895052	-96.600287
627.026169	-94.155108
627.157341	-106.127218
627.288568	-92.761039
627.419850	-88.268765
627.551187	-93.250156
627.682579	-94.857052
627.814026	-93.715903
627.945528	-97.538741
628.077085	-88.147202
628.208697	-96.709233
628.340364	-87.848124
628.472087	-90.550284
628.603865	-90.198843
628.735698	-84.258379
628.867586	-86.865157
628.999530	-84.342298
629.131529	-87.143368
629.263584	-85.596421
629.395694	-95.645010
629.527859	-94.186624
629.660080	-92.281730
629.792357	-95.577670
629.924689	-88.121032
630.057077	-96.894248
630.189520	-90.271967
630.322019	-94.210865
630.454574	-87.332188
630.587184	-92.219657
630.719851	-87.818641
630.852573	-100.094003
630.985351	-88.273853
631.118185	-86.066382
631.251075	-89.749705
631.384021	-82.939217
631.517023	-90.981380
631.650081	-89.491575
631.783195	-99.326372
631.916365	-89.625956
632.049592	-90.451329
632.182874	-87.961793
632.316213	-89.962149
632.449608	-93.165701
632.583059	-95.081052
632.716567	-90.736396
632.850131	-101.737983
632.983751	-94.292268
633.117428	-90.555712
633.251161	-89.042637
633.384951	-100.811362
633.518797	-87.012373
633.652700	-91.528428
633.786660	-82.443976
633.920676	-88.679142
634.054749	-84.370862
634.188879	-93.575717
634.323065	-86.683596
634.457308	-90.738132
634.591608	-87.583364
634.725965	-92.014932
634.860379	-86.981048
634.994850	-85.079126
635.129377	-87.988251
635.263962	-84.080894
635.398604	-91.089910
635.533303	-86.389887
635.668058	-88.004171
635.802872	-88.923713
635.937742	-88.960101
636.072669	-86.299527
636.207654	-101.451727
636.342696	-83.136964
636.477796	-93.424588
636.612953	-83.349743
636.748167	-85.562251
636.883439	-85.651830
637.018768	-85.616695
637.154155	-94.970915
637.289599	-85.726280
637.425101	-84.241467
637.560660	-86.116894
637.696277	-93.593570
637.831952	-94.336465
637.967685	-86.993407
638.103475	-88.772141
638.239324	-87.781942
638.375230	-91.735882
638.511194	-85.530915
638.647215	-84.449309
638.783295	-84.870626
638.919433	-87.731697
639.055629	-94.561167
639.191883	-96.736033
639.328195	-87.098557
639.464565	-90.559561
639.600994	-90.411772
639.737481	-87.863192
639.874025	-96.953298
640.010629	-81.798660
640.147290	-92.686099
640.284010	-82.816884
640.420789	-91.654248
640.557625	-88.793644
640.694521	-85.871424
640.831474	-91.677963
640.968487	-86.313056
641.105558	-80.848062
641.242687	-81.651026
641.379876	-80.610780
641.517123	-82.052269
641.654429	-93.752115
641.791793	-81.806103
641.929216	-83.983274
642.066699	-81.454453
642.204240	-88.038207
642.341840	-91.265515
642.479499	-94.917822
642.617217	-85.942890
642.754994	-93.541996
642.892830	-95.630664
643.030726	-86.353488
643.168680	-86.048410
643.306694	-80.705539
643.444767	-81.103176
643.582899	-85.432914
643.721091	-89.633597
643.859342	-88.980097
643.997652	-88.279573
644.136022	-84.016499
644.274451	-84.981439
644.412940	-80.442965
644.551488	-81.361213
644.690096	-78.877147
644.828763	-85.453872
644.967490	-79.625664
645.106277	-82.243755
645.245124	-79.146329
645.384030	-79.873270
645.522997	-84.004527
645.662023	-82.282356
645.801109	-83.354773
645.940255	-85.549609
646.079460	-85.038848
646.218726	-81.419096
646.358052	-98.537638
646.497438	-81.004399
646.636884	-83.010921
646.776391	-82.291327
646.915957	-87.099445
647.055584	-94.334311
647.195271	-88.968612
647.335019	-84.293247
647.474826	-87.737345
647.614695	-85.000979
647.754623	-86.535537
647.894612	-87.062122
648.034662	-101.294875
648.174772	-91.603956
648.314943	-94.407357
648.455174	-86.722846
648.595466	-90.526060
648.735819	-80.611046
648.876233	-91.101557
649.016707	-81.955129
649.157242	-83.133068
649.297838	-89.731472
649.438495	-81.815913
649.579213	-85.532069
649.719992	-90.211573
649.860832	-79.368418
650.001733	-82.940492
650.142695	-85.059953
650.283718	-77.928507
650.424803	-87.330965
650.565949	-78.093041
650.707156	-84.582875
650.848424	-91.628392
650.989754	-83.992306
651.131145	-82.060282
651.272597	-91.080531
651.414111	-84.258590
651.555687	-85.439478
651.697324	-88.407548
651.839022	-85.999715
651.980782	-94.835339
652.122604	-97.838994
652.264488	-87.005732
652.406433	-82.355524
652.548441	-79.581939
652.690510	-80.835067
652.832640	-82.950332
652.974833	-78.895239
653.117088	-78.001682
653.259405	-74.046319
653.401784	-78.396369
653.544224	-80.596390
653.686727	-78.182700
653.829293	-88.097040
653.971920	-80.282721
654.114609	-87.890056
654.257361	-80.950281
654.400175	-87.315559
654.543052	-76.448505
654.685991	-82.869652
654.828992	-79.931998
654.972056	-77.924740
655.115183	-94.995139
655.258372	-81.577271
655.401623	-81.026173
655.544937	-91.696975
655.688314	-80.660664
655.831754	-87.982959
655.975256	-95.935922
656.118822	-83.520986
656.262450	-92.920176
656.406141	-81.524552
656.549894	-80.388517
656.693711	-81.080948
656.837591	-85.741074
656.981534	-80.826129
657.125540	-77.105773
657.269610	-78.138258
657.413742	-81.774092
657.557938	-78.347144
657.702196	-79.557237
657.846519	-84.568407
657.990904	-81.471762
658.135353	-77.612092
658.279866	-80.165161
658.424441	-80.721585
658.569081	-77.727256
658.713784	-80.548078
658.858550	-79.667847
659.003381	-86.300087
659.148274	-83.362467
659.293232	-88.177284
659.438253	-76.997440
659.583339	-79.219080
659.728488	-82.033786
659.873701	-77.820199
660.018978	-85.018610
660.164318	-84.154707
660.309723	-81.216199
660.455192	-77.247341
660.600725	-78.293150
660.746323	-75.051827
660.891984	-85.613009
661.037710	-78.305628
661.183500	-86.405968
661.329354	-80.741178
661.475272	-86.855292
661.621255	-78.334262
661.767303	-86.584046
661.913415	-83.838768
662.059591	-78.854367
662.205833	-86.990945
662.352138	-82.201013
662.498509	-77.523256
662.644944	-77.933450
662.791443	-74.976298
662.938008	-78.475634
663.084638	-77.307130
663.231332	-78.938810
663.378091	-101.704760
663.524915	-86.717604
663.671804	-78.611262
663.818759	-84.641876
663.965778	-84.402512
664.112863	-83.190419
664.260012	-81.906796
664.407227	-81.675069
664.554507	-77.486121
664.701853	-78.332176
664.849264	-79.453978
664.996740	-76.426748
665.144282	-79.882001
665.291889	-85.594543
665.439561	-80.445678
665.587300	-81.823258
665.735103	-90.524579
665.882973	-83.473540
666.030908	-77.681864
666.178909	-82.755937
666.326976	-82.193973
666.475109	-78.179806
666.623307	-78.480388
666.771571	-75.983816
666.919902	-76.633009
667.068298	-79.449471
667.216761	-77.698089
667.365289	-83.893030
667.513884	-87.982106
667.662545	-77.338853
667.811272	-82.404373
667.960065	-84.849225
668.108925	-85.096504
668.257851	-80.405357
668.406843	-88.918359
668.555902	-78.368118
668.705027	-82.620188
668.854219	-89.449314
669.003478	-84.661711
669.152803	-82.477861
669.302195	-97.766754
669.451653	-92.486160
669.601179	-83.716177
669.750771	-80.750021
669.900430	-82.641111
670.050156	-81.751897
670.199949	-85.407241
670.349808	-80.521156
670.499735	-74.857734
670.649729	-74.918456
670.799790	-79.120189
670.949918	-77.492942
671.100114	-79.711253
671.250377	-78.427999
671.400707	-77.683642
671.551104	-84.459049
671.701569	-79.074066
671.852101	-81.549787
672.002700	-88.990121
672.153368	-81.917695
672.304102	-81.564585
672.454905	-79.099741
672.605775	-82.406496
672.756713	-76.829959
672.907718	-76.145434
673.058791	-87.602103
673.209933	-76.479884
673.361142	-73.376070
673.512419	-79.667820
673.663764	-76.611940
673.815177	-83.338519
673.966658	-81.357173
674.118207	-79.564939
674.269825	-79.186088
674.421510	-89.097049
674.573264	-99.962878
674.725086	-86.975977
674.876977	-81.117835
675.028936	-80.691116
675.180963	-82.048807
675.333059	-78.779510
675.485224	-82.092820
675.637457	-78.185537
675.789758	-79.195895
675.942129	-88.223633
676.094568	-89.236669
676.247075	-77.105608
676.399652	-80.442657
676.552298	-78.650154
676.705012	-83.638197
676.857795	-101.880206
677.010648	-80.096558
677.163569	-82.133820
677.316560	-95.387633
677.469619	-80.600488
677.622748	-84.488966
677.775946	-78.825727
677.929214	-77.069996
678.082551	-80.214073
678.235957	-74.509118
678.389432	-77.219386
678.542977	-78.701940
678.696592	-72.597293
678.850276	-79.589391
679.004030	-81.186454
679.157853	-73.851737
679.311746	-78.865070
679.465709	-79.490800
679.619742	-82.684033
679.773844	-88.169433
679.928017	-88.789259
680.082259	-83.478920
680.236571	-85.748632
680.390954	-87.033638
680.545406	-87.276106
680.699929	-96.164511
680.854522	-99.329263
681.009185	-84.616648
681.163918	-82.315538
681.318722	-77.303627
681.473596	-81.159148
681.628540	-77.046337
681.783555	-84.049657
681.938641	-79.129728
682.093797	-88.004239
682.249023	-85.312525
682.404321	-79.688168
682.559689	-78.575024
682.715128	-83.575759
682.870637	-76.909815
683.026218	-85.422854
683.181869	-85.510418
683.337591	-87.853974
683.493385	-79.130947
683.649249	-80.227796
683.805185	-80.998411
683.961191	-74.193795
684.117269	-77.047533
684.273418	-78.143852
684.429639	-83.874575
684.585930	-84.883578
684.742294	-87.593753
684.898728	-77.806089
685.055234	-78.615527
685.211812	-78.357114
685.368461	-80.467548
685.525182	-81.869582
685.681975	-94.356372
685.838839	-81.901939
685.995775	-82.198917
686.152783	-77.365083
686.309863	-74.877173
686.467014	-79.156282
686.624238	-75.398817
686.781534	-82.662960
686.938902	-96.610914
687.096342	-98.588125
687.253854	-77.797836
687.411438	-79.315887
687.569095	-78.489560
687.726824	-75.792483
687.884626	-86.023014
688.042499	-78.436894
688.200446	-85.889887
688.358465	-81.420819
688.516556	-86.340090
688.674720	-76.724331
688.832957	-75.936570
688.991266	-73.501526
689.149649	-78.763069
689.308104	-81.773935
689.466632	-82.459015
689.625233	-85.567544
689.783906	-88.584657
689.942653	-76.465732
690.101473	-76.125774
690.260367	-82.304807
690.419333	-78.745355
690.578372	-83.109165
690.737485	-85.696745
690.896672	-89.899030
691.055931	-81.320692
691.215264	-86.826762
691.374671	-82.877497
691.534151	-83.010592
691.693704	-80.698221
691.853332	-76.965004
692.013033	-83.230677
692.172807	-83.404563
692.332656	-79.770892
692.492578	-75.073047
692.652575	-78.176563
692.812645	-78.575334
692.972789	-76.338243
693.133007	-81.947621
693.293300	-85.542000
693.453666	-82.683255
693.614107	-75.247631
693.774622	-76.380190
693.935211	-82.551706
694.095875	-81.110543
694.256613	-80.473627
694.417426	-81.458898
694.578313	-82.696135
694.739274	-76.285251
694.900311	-77.273179
695.061421	-75.603555
695.222607	-74.985996
695.383868	-76.881051
695.545203	-83.847955
695.706613	-79.564539
695.868098	-75.812743
696.029658	-76.249142
696.191293	-80.357879
696.353003	-77.197467
696.514789	-77.607070
696.676649	-85.526961
696.838585	-82.081344
697.000596	-100.618785
697.162682	-75.436169
697.324844	-74.003636
697.487081	-78.726108
697.649394	-79.788797
697.811782	-76.722824
697.974246	-77.603799
698.136786	-79.877257
698.299401	-78.705432
698.462092	-74.514885
698.624859	-78.288086
698.787702	-82.374788
698.950621	-78.996204
699.113616	-76.164452
699.276686	-75.122037
699.439833	-75.143573
699.603056	-74.081755
699.766355	-77.859941
699.929731	-75.515434
700.093183	-77.496925
700.256711	-80.523843
700.420315	-91.272595
700.583996	-86.962154
700.747754	-83.623309
700.911588	-75.457773
701.075499	-77.991360
701.239486	-80.477541
701.403550	-74.385575
701.567691	-71.472689
701.731909	-74.032031
701.896203	-74.959932
702.060575	-73.493727
702.225024	-72.365898
702.389549	-78.511924
702.554152	-85.273057
702.718832	-83.481159
702.883589	-76.788075
703.048424	-76.612320
703.213335	-78.551050
703.378324	-77.054855
703.543391	-80.375343
703.708535	-76.048439
703.873757	-75.153525
704.039056	-73.924898
704.204433	-76.980215
704.369887	-78.317180
704.535420	-76.667745
704.701030	-79.710243
704.866718	-83.527749
705.032484	-79.330311
705.198328	-76.100743
705.364250	-75.863922
705.530250	-97.670081
705.696328	-84.373061
705.862485	-79.125692
706.028720	-73.199796
706.195033	-76.722274
706.361424	-85.104880
706.527894	-87.449503
706.694442	-78.845496
706.861069	-76.939050
707.027775	-76.102966
707.194559	-76.324120
707.361422	-75.329259
707.528363	-79.705913
707.695384	-80.194020
707.862483	-75.688081
708.029661	-72.709599
708.196918	-76.381126
708.364254	-83.452325
708.531670	-91.268119
708.699164	-76.387625
708.866738	-74.754292
709.034391	-72.964365
709.202123	-71.992687
709.369935	-70.072148
709.537826	-71.670042
709.705796	-78.513077
709.873847	-80.780551
710.041976	-84.829024
710.210186	-83.923126
710.378475	-76.595784
710.546844	-73.485213
710.715292	-72.637007
710.883821	-75.627577
711.052429	-75.261162
711.221118	-75.159850
711.389887	-74.635374
711.558735	-79.829358
711.727664	-82.345579
711.896673	-80.506636
712.065763	-74.750495
712.234932	-76.234949
712.404183	-80.156152
712.573513	-85.229449
712.742924	-78.475783
712.912416	-74.833172
713.081988	-75.591132
713.251641	-86.061245
713.421375	-84.367975
713.591190	-79.005641
713.761085	-84.673328
713.931061	-77.625815
714.101119	-78.113431
714.271257	-81.284549
714.441476	-73.458069
714.611777	-70.458907
714.782159	-70.806663
714.952622	-74.534605
715.123166	-77.273039
715.293792	-84.752133
715.464499	-81.665158
715.635288	-86.424219
715.806158	-75.222649
715.977110	-74.413538
716.148143	-74.800719
716.319259	-78.475374
716.490456	-72.265644
716.661735	-70.664984
716.833096	-73.899164
717.004538	-79.171035
717.176063	-80.760901
717.347670	-82.994408
717.519359	-78.769179
717.691130	-71.625328
717.862984	-73.361839
718.034920	-73.443985
718.206938	-70.850658
718.379039	-71.708277
718.551222	-76.892040
718.723488	-79.535849
718.895836	-74.914613
719.068267	-71.049215
719.240781	-68.653248
719.413377	-68.109986
719.586057	-68.678063
719.758819	-69.448583
719.931664	-74.059730
720.104593	-86.428208
720.277604	-78.366505
720.450699	-70.733583
720.623876	-71.194685
720.797137	-70.633464
720.970482	-69.364703
721.143910	-68.274001
721.317421	-70.338880
721.491016	-83.437867
721.664694	-74.823960
721.838456	-74.706270
722.012302	-70.411833
722.186231	-67.802938
722.360244	-66.364758
722.534342	-69.572701
722.708523	-73.248843
722.882788	-74.905552
723.057137	-72.067487
723.231570	-70.478645
723.406088	-73.162264
723.580689	-74.158809
723.755375	-70.793125
723.930146	-67.945452
724.105000	-70.014272
724.279940	-69.977939
724.454963	-68.286297
724.630072	-65.451322
724.805265	-66.815867
724.980543	-69.118282
725.155905	-70.441225
725.331353	-77.682885
725.506885	-77.188036
725.682503	-68.011484
725.858205	-66.699073
726.033993	-65.951115
726.209865	-65.759612
726.385823	-67.557430
726.561866	-69.144856
726.737995	-70.492469
726.914209	-66.804796
727.090508	-66.750891
727.266893	-67.057053
727.443364	-70.501836
727.619920	-67.449911
727.796562	-69.031289
727.973290	-73.497145
728.150103	-68.898576
728.327003	-63.983714
728.503988	-63.808557
728.681060	-70.014495
728.858218	-67.318599
729.035461	-65.581563
729.212791	-66.176597
729.390208	-73.875238
729.567710	-65.971723
729.745299	-64.736762
729.922975	-68.511512
730.100737	-69.902973
730.278586	-63.023217
730.456521	-61.570799
730.634543	-62.853945
730.812652	-63.752581
730.990848	-65.853230
731.169130	-67.905749
731.347500	-71.630712
731.525957	-67.009398
731.704500	-64.540541
731.883131	-63.996785
732.061850	-65.277205
732.240655	-68.874582
732.419548	-71.896795
732.598528	-66.184314
732.777596	-62.127511
732.956751	-61.314574
733.135994	-63.707307
733.315325	-64.653748
733.494744	-62.680984
733.674250	-63.020364
733.853844	-65.487416
734.033526	-65.376336
734.213296	-62.914736
734.393154	-62.922083
734.573101	-67.097319
734.753135	-68.906341
734.933258	-64.692199
735.113469	-63.968994
735.293769	-64.444526
735.474157	-63.897786
735.654633	-62.588193
735.835198	-63.036380
736.015852	-64.670276
736.196594	-65.856293
736.377426	-63.265775
736.558346	-61.553193
736.739355	-61.746813
736.920453	-64.875561
737.101640	-64.190478
737.282916	-61.237940
737.464282	-60.415421
737.645736	-63.136521
737.827280	-63.497370
738.008914	-60.210231
738.190637	-60.241567
738.372449	-62.195612
738.554351	-64.985253
738.736342	-63.070018
738.918424	-62.631390
739.100595	-63.432256
739.282855	-63.722087
739.465206	-63.021919
739.647647	-61.400939
739.830178	-61.273439
740.012799	-62.550730
740.195510	-63.249009
740.378311	-60.942462
740.561203	-59.342256
740.744185	-60.644951
740.927258	-64.794114
741.110421	-63.501058
741.293674	-62.524774
741.477018	-63.833592
741.660453	-63.471501
741.843979	-62.269277
742.027596	-61.317273
742.211303	-61.774661
742.395102	-60.036470
742.578991	-60.592853
742.762972	-61.839115
742.947044	-59.972285
743.131207	-58.562202
743.315461	-60.062181
743.499807	-64.958655
743.684244	-60.588558
743.868773	-59.795305
744.053394	-61.830327
744.238106	-63.784960
744.422910	-64.630691
744.607805	-62.449580
744.792793	-58.671151
744.977872	-58.684233
745.163044	-63.055560
745.348307	-63.099394
745.533663	-59.205873
745.719111	-58.739834
745.904651	-62.027533
746.090283	-60.749917
746.276008	-59.018069
746.461826	-61.143831
746.647735	-64.018496
746.833738	-62.005131
747.019833	-60.751851
747.206021	-61.128010
747.392302	-60.464250
747.578676	-60.492348
747.765143	-61.489136
747.951703	-61.984271
748.138356	-60.717324
748.325102	-60.916031
748.511941	-61.067752
748.698874	-60.555726
748.885900	-60.939315
749.073019	-62.162687
749.260232	-60.674604
749.447539	-58.870151
749.634939	-59.910431
749.822433	-64.137520
750.010021	-64.995233
750.197703	-62.805917
750.385479	-58.903862
750.573348	-56.809652
750.761312	-58.314540
750.949370	-61.897521
751.137523	-61.220536
751.325769	-59.863323
751.514110	-62.741990
751.702545	-62.932001
751.891075	-60.794592
752.079700	-62.063626
752.268419	-63.259467
752.457233	-59.673660
752.646142	-58.827084
752.835145	-62.547784
753.024244	-62.882173
753.213437	-60.420131
753.402726	-60.122893
753.592110	-60.055866
753.781589	-60.348138
753.971163	-63.057515
754.160833	-61.341383
754.350598	-58.903928
754.540459	-59.334527
754.730415	-61.616792
754.920467	-63.412659
755.110615	-63.246298
755.300858	-62.559720
755.491198	-58.794918
755.681633	-57.830391
755.872164	-62.222946
756.062792	-66.270767
756.253515	-62.321276
756.444335	-60.780534
756.635252	-60.601225
756.826264	-59.930083
757.017373	-60.304939
757.208579	-65.138521
757.399881	-62.686444
757.591280	-61.450899
757.782776	-62.753372
757.974368	-64.485069
758.166058	-60.097963
758.357844	-61.898437
758.549728	-62.755804
758.741708	-62.271516
758.933786	-65.430951
759.125961	-65.885213
759.318233	-60.953587
759.510603	-60.394824
759.703071	-61.702661
759.895635	-61.522161
760.088298	-66.585294
760.281058	-66.420719
760.473916	-61.826061
760.666872	-60.527389
760.859926	-63.361404
761.053078	-61.778778
761.246328	-61.034643
761.439676	-66.864067
761.633122	-69.640925
761.826667	-62.313105
762.020310	-61.691916
762.214052	-64.135829
762.407892	-62.168804
762.601831	-66.158762
762.795868	-71.027582
762.990004	-64.784872
763.184239	-64.693071
763.378573	-66.155410
763.573006	-63.158674
763.767538	-61.140188
763.962169	-63.013720
764.156900	-65.373370
764.351729	-62.987591
764.546658	-69.953172
764.741687	-75.903319
764.936815	-67.122405
765.132042	-67.302053
765.327370	-65.526827
765.522797	-64.719037
765.718324	-67.510112
765.913950	-64.497863
766.109677	-65.388792
766.305504	-71.224653
766.501431	-70.554752
766.697458	-62.469578
766.893586	-66.381548
767.089814	-65.888531
767.286142	-62.889557
767.482571	-71.234389
767.679100	-77.461736
767.875730	-68.388012
768.072461	-64.952976
768.269293	-70.902776
768.466225	-66.481153
768.663259	-65.584476
768.860393	-69.690500
769.057629	-65.029179
769.254966	-67.383588
769.452404	-79.420820
769.649944	-81.534357
769.847585	-72.358244
770.045328	-68.485515
770.243172	-68.937130
770.441118	-69.637768
770.639166	-70.962948
770.837315	-66.524452
771.035567	-76.382813
771.233920	-73.304365
771.432376	-69.910749
771.630934	-69.185794
771.829594	-74.834032
772.028356	-61.473583
772.227220	-60.165235
772.426188	-65.303776
772.625257	-70.732973
772.824430	-82.401891
773.023705	-71.559546
773.223083	-70.674373
773.422563	-72.245779
773.622147	-65.721752
773.821834	-61.517746
774.021624	-63.396840
774.221517	-64.544199
774.421513	-65.251035
774.621613	-64.816141
774.821816	-67.490292
775.022122	-64.131599
775.222532	-63.796354
775.423046	-65.482010
775.623664	-65.332556
775.824385	-62.148081
776.025211	-65.888909
776.226140	-61.864609
776.427173	-60.868875
776.628311	-64.322100
776.829553	-63.676255
777.030899	-62.951900
777.232350	-62.402043
777.433905	-60.979180
777.635564	-62.924490
777.837328	-60.295635
778.039197	-58.832609
778.241171	-62.073043
778.443250	-61.224889
778.645433	-59.144829
778.847722	-63.543425
779.050116	-65.260975
779.252615	-59.596522
779.455219	-58.275741
779.657929	-59.965344
779.860744	-58.335949
780.063665	-60.327591
780.266691	-59.242041
780.469823	-58.448530
780.673061	-60.057162
780.876405	-59.024592
781.079855	-58.682819
781.283410	-61.103939
781.487072	-58.495172
781.690840	-57.247928
781.894715	-57.983627
782.098695	-56.814102
782.302783	-57.466556
782.506976	-57.324021
782.711277	-56.722572
782.915684	-56.827218
783.120198	-57.434720
783.324818	-57.810631
783.529546	-56.664052
783.734381	-58.109408
783.939322	-58.830989
784.144372	-55.678360
784.349528	-55.736362
784.554792	-56.360547
784.760163	-53.832947
784.965642	-55.597305
785.171228	-57.173257
785.376922	-55.808320
785.582724	-59.702606
785.788634	-55.434272
785.994651	-54.428655
786.200777	-55.388962
786.407011	-53.255453
786.613353	-54.164333
786.819804	-56.448725
787.026363	-53.201101
787.233030	-55.736411
787.439806	-54.623677
787.646691	-53.550212
787.853684	-56.360519
788.060786	-54.354013
788.267997	-54.557428
788.475317	-55.824070
788.682746	-54.692189
788.890285	-54.824719
789.097932	-52.953857
789.305689	-52.679344
789.513555	-53.144348
789.721531	-52.483455
789.929617	-53.507129
790.137812	-53.252386
790.346117	-52.749713
790.554531	-53.738783
790.763056	-53.059545
790.971691	-53.291306
791.180436	-53.659318
791.389291	-52.782530
791.598256	-52.247425
791.807332	-52.091278
792.016518	-51.979700
792.225815	-54.757359
792.435222	-52.197261
792.644740	-53.671908
792.854369	-52.164163
793.064109	-51.023745
793.273960	-52.782197
793.483922	-51.887752
793.693995	-51.026847
793.904180	-53.110423
794.114475	-51.002955
794.324882	-50.916430
794.535401	-52.547037
794.746031	-51.380357
794.956774	-53.128350
795.167627	-50.934277
795.378593	-49.742691
795.589671	-51.809474
795.800861	-49.880471
796.012162	-51.809849
796.223577	-52.953752
796.435103	-50.695411
796.646742	-51.555581
796.858493	-51.217456
797.070357	-50.535818
797.282334	-51.292973
797.494423	-49.844608
797.706626	-50.549678
797.918941	-50.392559
798.131369	-50.326391
798.343911	-51.505326
798.556566	-49.706080
798.769334	-50.442454
798.982215	-51.372921
799.195210	-49.095390
799.408319	-50.522785
799.621541	-50.545526
799.834877	-50.440871
800.048327	-50.372133
800.261890	-49.288001
800.475568	-51.707706
800.689360	-50.399546
800.903266	-49.730006
801.117287	-50.049439
801.331422	-48.893507
801.545671	-49.790193
801.760036	-48.989477
801.974514	-47.827890
802.189108	-49.952204
802.403816	-49.608138
802.618640	-49.680925
802.833578	-49.492409
803.048632	-48.610717
803.263800	-51.531052
803.479085	-49.721784
803.694484	-48.656414
803.909999	-49.881394
804.125630	-48.862376
804.341376	-48.959344
804.557239	-49.397410
804.773217	-49.072581
804.989311	-50.097067
805.205521	-48.530778
805.421847	-48.567352
805.638290	-50.355974
805.854849	-49.421697
806.071524	-48.951254
806.288316	-48.100923
806.505225	-49.129802
806.722250	-49.295105
806.939393	-48.365136
807.156652	-48.662406
807.374028	-48.130487
807.591521	-49.084315
807.809132	-49.934037
808.026859	-48.344115
808.244705	-49.489124
808.462667	-49.235665
808.680748	-48.151809
808.898946	-47.755030
809.117261	-48.248452
809.335695	-50.063703
809.554246	-48.655438
809.772916	-47.442834
809.991704	-49.308213
810.210610	-48.530124
810.429634	-48.282748
810.648777	-47.995939
810.868039	-48.492811
811.087419	-49.463452
811.306918	-47.886192
811.526535	-48.080129
811.746272	-48.662736
811.966127	-48.070795
812.186102	-48.453412
812.406196	-49.651769
812.626409	-47.682491
812.846742	-49.511069
813.067194	-47.581223
813.287766	-48.460748
813.508457	-48.977186
813.729269	-47.548994
813.950200	-48.418564
814.171251	-48.400005
814.392422	-47.459858
814.613714	-48.784196
814.835126	-48.476477
815.056658	-47.904234
815.278311	-47.689423
815.500084	-47.834425
815.721978	-48.188469
815.943993	-48.105376
816.166128	-48.031508
816.388385	-48.128389
816.610762	-47.455869
816.833261	-48.290432
817.055881	-47.567548
817.278623	-48.338928
817.501486	-48.599521
817.724471	-47.050366
817.947577	-48.477978
818.170805	-47.550148
818.394155	-48.202058
818.617627	-48.600342
818.841221	-47.138561
819.064937	-48.104931
819.288775	-48.237395
819.512736	-47.247493
819.736819	-48.997678
819.961025	-47.990202
820.185354	-47.444011
820.409805	-47.967372
820.634379	-47.453365
820.859076	-47.774158
821.083897	-47.900997
821.308840	-47.328315
821.533907	-47.570764
821.759097	-47.967378
821.984411	-48.147902
822.209848	-47.752991
822.435409	-46.918928
822.661093	-47.678473
822.886902	-47.426689
823.112834	-48.592453
823.338891	-47.927011
823.565072	-46.885709
823.791377	-48.506136
824.017807	-47.439191
824.244361	-47.355324
824.471039	-48.032954
824.697843	-47.163924
824.924771	-47.825498
825.151824	-48.409410
825.379002	-47.276431
825.606306	-47.847375
825.833734	-48.008530
826.061288	-47.322823
826.288967	-48.312362
826.516772	-47.861519
826.744703	-46.544187
826.972759	-47.764240
827.200941	-48.549491
827.429249	-46.591455
827.657683	-48.445281
827.886243	-47.097215
828.114930	-46.486316
828.343743	-49.466367
828.572682	-47.295338
828.801748	-46.607008
829.030941	-49.097398
829.260260	-46.939595
829.489706	-47.570488
829.719280	-48.925908
829.948980	-46.764160
830.178808	-47.340918
830.408763	-48.173159
830.638845	-46.965291
830.869055	-47.282496
831.099393	-48.885357
831.329858	-47.127908
831.560451	-46.720773
831.791173	-49.366651
832.022022	-46.505358
832.252999	-47.832807
832.484105	-47.785698
832.715339	-46.578078
832.946702	-47.687585
833.178193	-48.144819
833.409813	-46.831565
833.641561	-48.263464
833.873439	-47.745871
834.105445	-47.627535
834.337581	-47.426216
834.569846	-47.476607
834.802241	-47.917306
835.034764	-47.144052
835.267418	-47.705745
835.500201	-47.387937
835.733114	-47.054410
835.966157	-48.276688
836.199329	-47.252841
836.432632	-48.107859
836.666065	-46.953039
836.899629	-47.892607
837.133323	-46.772035
837.367147	-48.367212
837.601102	-47.601046
837.835188	-47.126214
838.069405	-47.689152
838.303752	-47.593825
838.538231	-47.686116
838.772841	-47.986904
839.007582	-47.038131
839.242455	-47.732888
839.477459	-47.275469
839.712595	-47.554663
839.947863	-47.793550
840.183263	-46.907318
840.418794	-48.099153
840.654458	-46.699662
840.890254	-47.626886
841.126182	-48.180862
841.362242	-46.417313
841.598435	-47.477187
841.834761	-46.785927
842.071220	-48.022826
842.307811	-47.061055
842.544536	-47.240612
842.781393	-47.275015
843.018384	-47.091091
843.255508	-47.687281
843.492765	-46.689042
843.730156	-46.921127
843.967681	-47.806880
844.205339	-46.347144
844.443132	-47.537754
844.681058	-47.216220
844.919118	-47.481282
845.157313	-46.546512
845.395642	-47.209946
845.634105	-46.882610
845.872703	-47.220178
846.111436	-48.002441
846.350303	-46.691430
846.589306	-47.078315
846.828443	-46.857638
847.067716	-46.077343
847.307124	-47.445868
847.546667	-46.577035
847.786345	-47.146977
848.026160	-46.391296
848.266110	-46.780332
848.506195	-45.857709
848.746417	-45.808245
848.986775	-47.085569
849.227269	-46.162255
849.467899	-47.154095
849.708666	-45.708446
849.949569	-45.686577
850.190609	-46.163653
850.431785	-45.652175
850.673099	-45.983878
850.914549	-45.571713
851.156137	-46.554884
851.397861	-45.311978
851.639723	-44.941016
851.881723	-45.599312
852.123860	-44.836138
852.366135	-46.278960
852.608547	-44.891793
852.851098	-45.545920
853.093786	-45.305350
853.336613	-45.114723
853.579578	-45.362422
853.822681	-45.042359
854.065923	-45.528320
854.309304	-44.055184
854.552823	-45.033441
854.796481	-44.798292
855.040278	-44.896192
855.284215	-44.766045
855.528290	-43.980331
855.772505	-44.766832
856.016859	-43.621948
856.261353	-44.748843
856.505987	-44.227663
856.750760	-44.504550
856.995673	-43.827935
857.240727	-43.278012
857.485920	-44.319944
857.731254	-43.608863
857.976729	-43.764404
858.222343	-43.021914
858.468099	-43.222050
858.713995	-43.703258
858.960032	-43.209131
859.206211	-43.793494
859.452530	-43.132093
859.698991	-43.505177
859.945593	-42.361729
860.192336	-43.106763
860.439222	-43.416621
860.686248	-43.229245
860.933417	-42.588022
861.180728	-42.112258
861.428181	-43.063476
861.675776	-42.201555
861.923514	-42.385434
862.171394	-42.252780
862.419417	-42.383083
862.667582	-42.724542
862.915890	-41.674927
863.164342	-42.185642
863.412936	-41.468375
863.661674	-41.706734
863.910555	-41.328562
864.159579	-41.656760
864.408747	-41.739689
864.658059	-41.443919
864.907515	-41.625076
865.157114	-41.214608
865.406858	-41.663260
865.656746	-40.861735
865.906778	-41.169488
866.156955	-40.855815
866.407277	-41.202179
866.657743	-40.758196
866.908354	-40.741425
867.159110	-41.094792
867.410011	-40.714575
867.661057	-40.651392
867.912249	-39.939743
868.163586	-40.539821
868.415069	-40.201553
868.666697	-40.240238
868.918472	-39.903315
869.170392	-40.141068
869.422458	-40.022777
869.674671	-39.789093
869.927030	-40.375242
870.179536	-39.467975
870.432188	-39.956679
870.684987	-39.470786
870.937933	-39.978884
871.191026	-39.415196
871.444266	-39.533695
871.697653	-39.652420
871.951188	-39.133814
872.204870	-39.479692
872.458700	-38.769675
872.712677	-39.524031
872.966803	-38.817185
873.221076	-39.178514
873.475498	-38.896233
873.730068	-38.829940
873.984787	-38.779259
874.239654	-38.573012
874.494669	-39.080182
874.749834	-38.401373
875.005147	-38.966838
875.260610	-38.279751
875.516222	-38.436360
875.771983	-38.354348
876.027894	-38.415771
876.283954	-38.153810
876.540164	-38.085566
876.796524	-38.124392
877.053033	-38.038018
877.309693	-37.905329
877.566503	-37.705561
877.823464	-38.077664
878.080575	-37.817035
878.337837	-37.773451
878.595249	-37.440640
878.852813	-37.990366
879.110528	-37.329912
879.368393	-37.709745
879.626410	-37.538323
879.884579	-37.230299
880.142899	-37.608620
880.401371	-37.147787
880.659994	-37.345482
880.918770	-37.074127
881.177698	-37.367813
881.436778	-36.939578
881.696010	-37.246665
881.955395	-37.046675
882.214933	-37.028301
882.474623	-37.043111
882.734467	-36.945859
882.994463	-36.848011
883.254613	-36.968180
883.514916	-36.736196
883.775372	-36.784601
884.035982	-36.856251
884.296746	-36.385784
884.557664	-36.770233
884.818735	-36.461268
885.079961	-36.780147
885.341341	-36.381643
885.602876	-36.527115
885.864565	-36.328984
886.126409	-36.555361
886.388407	-36.415070
886.650561	-36.014009
886.912870	-36.514693
887.175334	-36.131532
887.437953	-36.203607
887.700728	-36.178767
887.963658	-36.023632
888.226745	-36.098400
888.489987	-36.113879
888.753385	-35.897973
889.016940	-36.036235
889.280651	-35.943289
889.544518	-35.973840
889.808543	-35.751327
890.072723	-35.986453
890.337061	-35.466657
890.601556	-35.911301
890.866208	-35.936332
891.131017	-35.358656
891.395984	-35.960243
891.661109	-35.464608
891.926391	-35.484924
892.191831	-35.727344
892.457429	-35.510990
892.723186	-35.292388
892.989100	-35.597556
893.255173	-35.450454
893.521405	-35.180010
893.787796	-35.368421
894.054345	-35.466785
894.321053	-34.883891
894.587921	-35.750202
894.854948	-35.048347
895.122134	-35.071653
895.389480	-35.343752
895.656986	-34.925928
895.924651	-35.063761
896.192477	-35.119180
896.460463	-34.965359
896.728609	-34.910416
896.996915	-34.964687
897.265382	-34.995551
897.534010	-34.775882
897.802799	-34.824959
898.071749	-34.886998
898.340860	-34.509396
898.610132	-34.818162
898.879566	-34.737383
899.149162	-34.574568
899.418919	-34.574434
899.688838	-34.692537
899.958919	-34.380441
900.229162	-34.611220
900.499568	-34.385682
900.770136	-34.481853
901.040867	-34.394337
901.311761	-34.383390
901.582817	-34.290680
901.854037	-34.427393
902.125420	-34.197562
902.396966	-34.324662
902.668676	-34.077716
902.940550	-34.276377
903.212587	-34.187801
903.484788	-34.052858
903.757153	-34.137094
904.029683	-34.099747
904.302377	-33.874949
904.575236	-34.073767
904.848259	-33.919694
905.121447	-33.895534
905.394800	-33.933122
905.668319	-33.751531
905.942002	-33.842824
906.215852	-33.859719
906.489866	-33.806959
906.764047	-33.666345
907.038393	-33.779250
907.312906	-33.609126
907.587584	-33.724092
907.862429	-33.573555
908.137441	-33.687579
908.412619	-33.525018
908.687964	-33.489884
908.963476	-33.537635
909.239155	-33.568242
909.515002	-33.244722
909.791015	-33.604465
910.067197	-33.208255
910.343546	-33.390611
910.620063	-33.314188
910.896748	-33.107959
911.173601	-33.375246
911.450623	-33.222385
911.727813	-33.005264
912.005171	-33.234285
912.282699	-32.964835
912.560395	-33.221233
912.838261	-32.945542
913.116296	-32.975181
913.394500	-32.958500
913.672874	-32.959775
913.951418	-32.884701
914.230131	-32.882612
914.509015	-32.835595
914.788068	-32.781372
915.067292	-32.740029
915.346687	-32.689400
915.626252	-32.820985
915.905988	-32.532965
916.185895	-32.626902
916.465973	-32.412586
916.746223	-32.660849
917.026644	-32.548077
917.307236	-32.405881
917.588000	-32.359931
917.868937	-32.442460
918.150045	-32.167262
918.431325	-32.611167
918.712778	-32.074295
918.994404	-32.423339
919.276202	-32.110024
919.558173	-32.212364
919.840317	-32.066434
920.122634	-32.449623
920.405125	-31.773919
920.687789	-32.411540
920.970627	-31.808060
921.253639	-32.087299
921.536824	-31.867015
921.820184	-32.092477
922.103718	-31.679372
922.387427	-32.166575
922.671310	-31.472256
922.955368	-31.934421
923.239601	-31.544892
923.524009	-31.813136
923.808592	-31.508229
924.093351	-31.834339
924.378285	-31.257725
924.663396	-31.772958
924.948682	-31.265161
925.234144	-31.592288
925.519782	-31.395298
925.805597	-31.585087
926.091589	-31.128080
926.377757	-31.572030
926.664102	-31.145697
926.950624	-31.417033
927.237323	-31.104018
927.524200	-31.348872
927.811255	-31.055040
928.098487	-31.251358
928.385897	-30.970814
928.673485	-31.115264
928.961251	-30.855712
929.249196	-31.009659
929.537319	-30.840560
929.825621	-30.878425
930.114102	-30.833379
930.402762	-30.633566
930.691601	-30.740720
930.980620	-30.558021
931.269818	-30.545859
931.559196	-30.655565
931.848753	-30.432196
932.138491	-30.434707
932.428409	-30.490635
932.718508	-30.373918
933.008787	-30.219040
933.299246	-30.431155
933.589887	-30.197933
933.880709	-30.248121
934.171712	-30.371703
934.462896	-30.058582
934.754262	-30.116688
935.045810	-30.174572
935.337539	-29.966667
935.629451	-29.978575
935.921545	-30.080558
936.213822	-29.807468
936.506281	-29.960245
936.798922	-29.952833
937.091747	-29.745832
937.384755	-29.710390
937.677946	-29.888069
937.971321	-29.547247
938.264879	-29.772189
938.558621	-29.606532
938.852547	-29.648255
939.146657	-29.611182
939.440952	-29.705868
939.735431	-29.406650
940.030095	-29.756902
940.324943	-29.460709
940.619977	-29.639972
940.915196	-29.403380
941.210600	-29.633934
941.506189	-29.461167
941.801965	-29.520648
942.097926	-29.384396
942.394074	-29.534944
942.690407	-29.368159
942.986927	-29.399320
943.283634	-29.325969
943.580527	-29.373386
943.877608	-29.149545
944.174875	-29.421573
944.472330	-29.075756
944.769972	-29.143586
945.067802	-29.241113
945.365820	-29.017203
945.664026	-28.970245
945.962420	-29.122842
946.261002	-28.914491
946.559773	-28.870226
946.858733	-29.034553
947.157881	-28.807449
947.457219	-28.820103
947.756746	-28.927560
948.056462	-28.815384
948.356368	-28.624766
948.656464	-28.992915
948.956749	-28.618374
949.257225	-28.801440
949.557891	-28.713675
949.858748	-28.742116
950.159796	-28.590562
950.461034	-28.803811
950.762463	-28.547854
951.064084	-28.666206
951.365896	-28.585239
951.667900	-28.565163
951.970095	-28.525484
952.272483	-28.527699
952.575063	-28.442604
952.877835	-28.476094
953.180799	-28.446390
953.483956	-28.231742
953.787307	-28.504317
954.090850	-28.261346
954.394586	-28.198725
954.698516	-28.359923
955.002640	-28.187618
955.306957	-28.075524
955.611469	-28.263550
955.916174	-28.156532
956.221074	-27.950188
956.526169	-28.122329
956.831458	-28.132144
957.136942	-27.821640
957.442622	-28.094583
957.748496	-27.976367
958.054567	-27.815069
958.360833	-27.954935
958.667294	-27.941502
958.973952	-27.690061
959.280806	-27.964462
959.587857	-27.770211
959.895104	-27.812421
960.202548	-27.724224
960.510189	-27.854396
960.818027	-27.584501
961.126062	-27.855948
961.434295	-27.697407
961.742726	-27.596536
962.051355	-27.799307
962.360182	-27.663090
962.669207	-27.544574
962.978431	-27.757068
963.287854	-27.710538
963.597475	-27.461091
963.907296	-27.730300
964.217315	-27.701179
964.527535	-27.487337
964.837954	-27.573005
965.148573	-27.818471
965.459392	-27.365498
965.770411	-27.688597
966.081630	-27.562264
966.393051	-27.628738
966.704672	-27.385937
967.016494	-27.724252
967.328517	-27.441365
967.640742	-27.533606
967.953169	-27.516022
968.265797	-27.547373
968.578627	-27.348024
968.891660	-27.662174
969.204895	-27.288630
969.518332	-27.572717
969.831972	-27.392273
970.145816	-27.492034
970.459862	-27.262386
970.774112	-27.644801
971.088565	-27.239683
971.403223	-27.456151
971.718084	-27.342866
972.033149	-27.542749
972.348419	-27.156428
972.663893	-27.517224
972.979572	-27.406625
973.295456	-27.261030
973.611546	-27.315568
973.927840	-27.551284
974.244340	-27.162244
974.561046	-27.396006
974.877958	-27.339239
975.195076	-27.364808
975.512401	-27.239215
975.829932	-27.271102
976.147670	-27.437350
976.465615	-27.127543
976.783767	-27.315507
977.102126	-27.275706
977.420693	-27.205663
977.739468	-27.190501
978.058451	-27.280106
978.377642	-27.073567
978.697041	-27.279634
979.016649	-27.071789
979.336466	-27.196901
979.656492	-27.108201
979.976727	-27.031314
980.297171	-27.248164
980.617825	-26.909090
980.938689	-27.148053
981.259763	-27.093379
981.581048	-26.931062
981.902542	-27.088695
982.224248	-27.022027
982.546164	-27.047822
982.868291	-26.917759
983.190630	-26.980808
983.513180	-27.099054
983.835942	-26.872283
984.158916	-26.924683
984.482101	-27.090435
984.805500	-26.839863
985.129110	-26.920451
985.452934	-26.986353
985.776970	-26.918718
986.101220	-26.857385
986.425683	-26.857341
986.750359	-27.020184
987.075250	-26.721380
987.400354	-26.938326
987.725673	-26.844059
988.051206	-26.834640
988.376954	-26.757521
988.702916	-26.886113
989.029094	-26.884909
989.355487	-26.533623
989.682095	-27.030257
990.008919	-26.713863
990.335959	-26.703557
990.663216	-26.758628
990.990688	-26.853702
991.318377	-26.741603
991.646283	-26.575120
991.974406	-26.908875
992.302746	-26.760312
992.631304	-26.650053
992.960079	-26.712472
993.289072	-26.893283
993.618283	-26.630530
993.947713	-26.723578
994.277361	-26.818612
994.607227	-26.738882
994.937313	-26.710294
995.267618	-26.721170
995.598142	-26.801318
995.928886	-26.744667
996.259849	-26.643051
996.591033	-26.808902
996.922437	-26.745009
997.254061	-26.562952
997.585906	-26.829571
997.917972	-26.646733
998.250260	-26.647053
998.582768	-26.629388
998.915498	-26.624017
999.248450	-26.684013
999.581624	-26.486682
999.915020	-26.543617
1000.248639	-26.626889
1000.582480	-26.472477
1000.916545	-26.418003
1001.250832	-26.519047
1001.585343	-26.386128
1001.920077	-26.486317
1002.255035	-26.266469
1002.590218	-26.373141
1002.925624	-26.464686
1003.261255	-26.107131
1003.597111	-26.386052
1003.933192	-26.291228
1004.269497	-26.186817
1004.606029	-26.227909
1004.942785	-26.168650
1005.279768	-26.300915
1005.616977	-26.054635
1005.954412	-26.102183
1006.292074	-26.269638
1006.629962	-26.059904
1006.968077	-26.030041
1007.306420	-26.078138
1007.644990	-26.126670
1007.983787	-26.040737
1008.322813	-25.889028
1008.662067	-26.066733
1009.001549	-26.020443
1009.341259	-25.889701
1009.681199	-25.905546
1010.021367	-25.878442
1010.361765	-25.998615
1010.702392	-25.729237
1011.043250	-25.820178
1011.384337	-25.864434
1011.725654	-25.725533
1012.067202	-25.752079
1012.408980	-25.677233
1012.750989	-25.809549
1013.093230	-25.559636
1013.435702	-25.626130
1013.778405	-25.713248
1014.121341	-25.607708
1014.464508	-25.475452
1014.807908	-25.525808
1015.151540	-25.722334
1015.495405	-25.418718
1015.839503	-25.394164
1016.183835	-25.532395
1016.528400	-25.540274
1016.873198	-25.375009
1017.218231	-25.325113
1017.563498	-25.467238
1017.908999	-25.363598
1018.254735	-25.346805
1018.600707	-25.302196
1018.946913	-25.284319
1019.293354	-25.263439
1019.640032	-25.296357
1019.986945	-25.223985
1020.334094	-25.084444
1020.681480	-25.241033
1021.029102	-25.188685
1021.376961	-25.002933
1021.725058	-25.053034
1022.073391	-25.202454
1022.421962	-24.898891
1022.770772	-24.864718
1023.119819	-25.126234
1023.469104	-24.964237
1023.818628	-24.706457
1024.168391	-24.816097
1024.518393	-25.007066
1024.868634	-24.749361
1025.219115	-24.638161
1025.569836	-24.730364
1025.920796	-24.714709
1026.271997	-24.637665
1026.623438	-24.667290
1026.975121	-24.481892
1027.327044	-24.385488
1027.679208	-24.680947
1028.031614	-24.505439
1028.384262	-24.188566
1028.737152	-24.344153
1029.090284	-24.459659
1029.443659	-24.195204
1029.797276	-24.149467
1030.151137	-24.251718
1030.505240	-24.026684
1030.859587	-24.075042
1031.214178	-24.095340
1031.569013	-23.947010
1031.924093	-23.927542
1032.279417	-23.881513
1032.634985	-23.776729
1032.990799	-23.852893
1033.346858	-23.909711
1033.703162	-23.566318
1034.059712	-23.581445
1034.416509	-23.771454
1034.773551	-23.703348
1035.130841	-23.545672
1035.488377	-23.448125
1035.846160	-23.460232
1036.204190	-23.599562
1036.562468	-23.605385
1036.920994	-23.274523
1037.279768	-23.261164
1037.638790	-23.473465
1037.998061	-23.475986
1038.357581	-23.320168
1038.717350	-23.161912
1039.077368	-23.226130
1039.437636	-23.315305
1039.798154	-23.333781
1040.158922	-23.124200
1040.519940	-23.077408
1040.881209	-23.153029
1041.242729	-23.164707
1041.604501	-23.155670
1041.966524	-23.020334
1042.328798	-22.976778
1042.691325	-23.013426
1043.054103	-23.081757
1043.417135	-22.953213
1043.780419	-22.877955
1044.143956	-22.934078
1044.507746	-22.902360
1044.871791	-22.865972
1045.236088	-22.792076
1045.600641	-22.822495
1045.965447	-22.798210
1046.330508	-22.699648
1046.695824	-22.666647
1047.061395	-22.697556
1047.427222	-22.684441
1047.793304	-22.526072
1048.159642	-22.537256
1048.526237	-22.549866
1048.893088	-22.483069
1049.260196	-22.383741
1049.627561	-22.376265
1049.995183	-22.419381
1050.363063	-22.294373
1050.731201	-22.204888
1051.099597	-22.200314
1051.468251	-22.257999
1051.837164	-22.167839
1052.206336	-22.024799
1052.575767	-22.039851
1052.945458	-22.041742
1053.315409	-22.013429
1053.685619	-21.907705
1054.056090	-21.896108
1054.426821	-21.858165
1054.797814	-21.788587
1055.169067	-21.770673
1055.540582	-21.758208
1055.912359	-21.751364
1056.284398	-21.621702
1056.656698	-21.576711
1057.029262	-21.601466
1057.402088	-21.620690
1057.775177	-21.557487
1058.148530	-21.443478
1058.522146	-21.444954
1058.896027	-21.447951
1059.270171	-21.463575
1059.644580	-21.386513
1060.019254	-21.322505
1060.394193	-21.327860
1060.769397	-21.331234
1061.144867	-21.308763
1061.520602	-21.204908
1061.896604	-21.230102
1062.272872	-21.258184
1062.649407	-21.244571
1063.026210	-21.122316
1063.403279	-21.068061
1063.780616	-21.160528
1064.158221	-21.215991
1064.536094	-21.126190
1064.914235	-20.980225
1065.292645	-20.978090
1065.671325	-21.095311
1066.050273	-21.111612
1066.429491	-21.007616
1066.808979	-20.879124
1067.188738	-20.918469
1067.568766	-20.956835
1067.949066	-20.958186
1068.329636	-20.873588
1068.710478	-20.801802
1069.091592	-20.810573
1069.472977	-20.797406
1069.854635	-20.790643
1070.236565	-20.723556
1070.618768	-20.692489
1071.001243	-20.669468
1071.383993	-20.662969
1071.767016	-20.625409
1072.150313	-20.566030
1072.533884	-20.534258
1072.917730	-20.512105
1073.301850	-20.526371
1073.686246	-20.474766
1074.070917	-20.382800
1074.455864	-20.334499
1074.841087	-20.338603
1075.226586	-20.360033
1075.612362	-20.284645
1075.998415	-20.202189
1076.384745	-20.140911
1076.771353	-20.163947
1077.158238	-20.162601
1077.545401	-20.092257
1077.932843	-20.024056
1078.320564	-20.003616
1078.708564	-20.019584
1079.096842	-19.976524
1079.485401	-19.914057
1079.874240	-19.893616
1080.263358	-19.873839
1080.652757	-19.878814
1081.042438	-19.836513
1081.432399	-19.795042
1081.822641	-19.743154
1082.213166	-19.715641
1082.603972	-19.722089
1082.995061	-19.728503
1083.386433	-19.694598
1083.778087	-19.593153
1084.170025	-19.552088
1084.562246	-19.584259
1084.954751	-19.610700
1085.347541	-19.587903
1085.740615	-19.494916
1086.133973	-19.464795
1086.527617	-19.463136
1086.921546	-19.510768
1087.315761	-19.476185
1087.710262	-19.435374
1088.105050	-19.395028
1088.500124	-19.395455
1088.895485	-19.401008
1089.291134	-19.378709
1089.687070	-19.319000
1090.083294	-19.291026
1090.479806	-19.284689
1090.876607	-19.297077
1091.273696	-19.241788
1091.671075	-19.188539
1092.068744	-19.109699
1092.466702	-19.136479
1092.864950	-19.133008
1093.263489	-19.128667
1093.662319	-19.051971
1094.061440	-18.984406
1094.460852	-18.967304
1094.860555	-18.981122
1095.260551	-19.002651
1095.660840	-18.960932
1096.061421	-18.903181
1096.462295	-18.859088
1096.863462	-18.854167
1097.264923	-18.862662
1097.666678	-18.843031
1098.068727	-18.794557
1098.471071	-18.747949
1098.873710	-18.715880
1099.276644	-18.707722
1099.679874	-18.664128
1100.083400	-18.626122
1100.487222	-18.559597
1100.891340	-18.546911
1101.295756	-18.523239
1101.700468	-18.509273
1102.105478	-18.451498
1102.510787	-18.398305
1102.916393	-18.378567
1103.322298	-18.380864
1103.728502	-18.394118
1104.135005	-18.372667
1104.541807	-18.331568
1104.948909	-18.303887
1105.356312	-18.301308
1105.764015	-18.324025
1106.172019	-18.323457
1106.580324	-18.306624
1106.988931	-18.267650
1107.397840	-18.241080
1107.807051	-18.233907
1108.216564	-18.219786
1108.626380	-18.195520
1109.036500	-18.139903
1109.446923	-18.099313
1109.857649	-18.055688
1110.268680	-18.038968
1110.680016	-17.991485
1111.091657	-17.930804
1111.503602	-17.873171
1111.915854	-17.831345
1112.328411	-17.817045
1112.741275	-17.804017
1113.154445	-17.764308
1113.567922	-17.707636
1113.981706	-17.679395
1114.395798	-17.676188
1114.810198	-17.694887
1115.224906	-17.718813
1115.639923	-17.704713
1116.055249	-17.674143
1116.470884	-17.684442
1116.886829	-17.713723
1117.303084	-17.755919
1117.719650	-17.786834
1118.136526	-17.790453
1118.553713	-17.770625
1118.971212	-17.799002
1119.389022	-17.815544
1119.807145	-17.842504
1120.225580	-17.848966
1120.644328	-17.818546
1121.063389	-17.811657
1121.482763	-17.793661
1121.902452	-17.798525
1122.322454	-17.774987
1122.742771	-17.739696
1123.163404	-17.681250
1123.584351	-17.647027
1124.005614	-17.627771
1124.427193	-17.604201
1124.849089	-17.573918
1125.271301	-17.514403
1125.693830	-17.459041
1126.116677	-17.413320
1126.539842	-17.398496
1126.963324	-17.398603
1127.387126	-17.371088
1127.811246	-17.330884
1128.235685	-17.291025
1128.660444	-17.262830
1129.085522	-17.260949
1129.510922	-17.262796
1129.936641	-17.243914
1130.362682	-17.214406
1130.789044	-17.187185
1131.215728	-17.165938
1131.642734	-17.148566
1132.070063	-17.140529
1132.497714	-17.099400
1132.925689	-17.049676
1133.353987	-17.001376
1133.782610	-16.965141
1134.211556	-16.918944
1134.640827	-16.884757
1135.070424	-16.829971
1135.500345	-16.741779
1135.930593	-16.670304
1136.361166	-16.606394
1136.792067	-16.566919
1137.223294	-16.523800
1137.654848	-16.472919
1138.086730	-16.393559
1138.518940	-16.325621
1138.951479	-16.286570
1139.384346	-16.255339
1139.817543	-16.248184
1140.251069	-16.220599
1140.684925	-16.190575
1141.119111	-16.146934
1141.553628	-16.129643
1141.988475	-16.138979
1142.423655	-16.162879
1142.859166	-16.183542
1143.295009	-16.175125
1143.731185	-16.171313
1144.167694	-16.180790
1144.604536	-16.215943
1145.041711	-16.237053
1145.479221	-16.236048
1145.917065	-16.229594
1146.355245	-16.238429
1146.793759	-16.277448
1147.232609	-16.303386
1147.671795	-16.316084
1148.111317	-16.294384
1148.551177	-16.270282
1148.991373	-16.238796
1149.431907	-16.212727
1149.872779	-16.199353
1150.313989	-16.193471
1150.755538	-16.197554
1151.197426	-16.178250
1151.639653	-16.143358
1152.082220	-16.088078
1152.525128	-16.031952
1152.968376	-15.982463
1153.411966	-15.935835
1153.855897	-15.907725
1154.300169	-15.884028
1154.744784	-15.877010
1155.189742	-15.862781
1155.635042	-15.834670
1156.080687	-15.789989
1156.526674	-15.731180
1156.973007	-15.682811
1157.419683	-15.647258
1157.866705	-15.645089
1158.314072	-15.656966
1158.761786	-15.672394
1159.209845	-15.665001
1159.658251	-15.631757
1160.107004	-15.580598
1160.556104	-15.540197
1161.005553	-15.524494
1161.455349	-15.536468
1161.905494	-15.554761
1162.355989	-15.564361
1162.806832	-15.542323
1163.258026	-15.504912
1163.709570	-15.467896
1164.161464	-15.447230
1164.613710	-15.448355
1165.066307	-15.450720
1165.519256	-15.443344
1165.972558	-15.422159
1166.426212	-15.391761
1166.880219	-15.373116
1167.334580	-15.352035
1167.789295	-15.345573
1168.244364	-15.321211
1168.699788	-15.300461
1169.155567	-15.277921
1169.611702	-15.261200
1170.068193	-15.258702
1170.525041	-15.245854
1170.982245	-15.230102
1171.439807	-15.197788
1171.897726	-15.162586
1172.356004	-15.142583
1172.814640	-15.130784
1173.273635	-15.141704
1173.732989	-15.140798
1174.192703	-15.124366
1174.652778	-15.088267
1175.113213	-15.043865
1175.574009	-15.012948
1176.035167	-15.002920
1176.496687	-15.005445
1176.958569	-15.016110
1177.420814	-15.006153
1177.883422	-14.977039
1178.346394	-14.923228
1178.809730	-14.860780
1179.273430	-14.830480
1179.737496	-14.826007
1180.201927	-14.857784
1180.666723	-14.869740
1181.131886	-14.837421
1181.597416	-14.760279
1182.063312	-14.666465
1182.529576	-14.625648
1182.996209	-14.637726
1183.463209	-14.691111
1183.930579	-14.717584
1184.398317	-14.666842
1184.866426	-14.571362
1185.334904	-14.479775
1185.803754	-14.456325
1186.272974	-14.503430
1186.742566	-14.555356
1187.212529	-14.566270
1187.682865	-14.501505
1188.153574	-14.412426
1188.624656	-14.366357
1189.096112	-14.373085
1189.567942	-14.430872
1190.040147	-14.463351
1190.512726	-14.440468
1190.985681	-14.389576
1191.459012	-14.329653
1191.932720	-14.327280
1192.406804	-14.358518
1192.881265	-14.387708
1193.356104	-14.402696
1193.831322	-14.362039
1194.306918	-14.326263
1194.782893	-14.311199
1195.259248	-14.318684
1195.735982	-14.350229
1196.213097	-14.356412
1196.690593	-14.337985
1197.168471	-14.314424
1197.646730	-14.288926
1198.125371	-14.293091
1198.604395	-14.305823
1199.083803	-14.304275
1199.563594	-14.298254
1200.043769	-14.270288
1200.524329	-14.252593
1201.005273	-14.246630
1201.486604	-14.240505
1201.968320	-14.235796
1202.450422	-14.220744
1202.932912	-14.195795
1203.415789	-14.183284
1203.899054	-14.166588
1204.382707	-14.150470
1204.866748	-14.139748
1205.351179	-14.108902
1205.836000	-14.095320
1206.321211	-14.074718
1206.806812	-14.053024
1207.292805	-14.042243
1207.779189	-14.009108
1208.265965	-13.984721
1208.753134	-13.964537
1209.240696	-13.936516
1209.728651	-13.926974
1210.217000	-13.901497
1210.705744	-13.868521
1211.194883	-13.847746
1211.684417	-13.813472
1212.174347	-13.795310
1212.664673	-13.778636
1213.155396	-13.751304
1213.646516	-13.727446
1214.138034	-13.699608
1214.629951	-13.666603
1215.122266	-13.648923
1215.614980	-13.632990
1216.108095	-13.605586
1216.601609	-13.589886
1217.095524	-13.559464
1217.589841	-13.529925
1218.084559	-13.519457
1218.579679	-13.495261
1219.075202	-13.480636
1219.571128	-13.467842
1220.067458	-13.436705
1220.564191	-13.420263
1221.061330	-13.406494
1221.558874	-13.388284
1222.056823	-13.382657
1222.555178	-13.368657
1223.053940	-13.346665
1223.553109	-13.337429
1224.052686	-13.324939
1224.552671	-13.312842
1225.053065	-13.314728
1225.553867	-13.298811
1226.055079	-13.287278
1226.556702	-13.283701
1227.058735	-13.267899
1227.561179	-13.270159
1228.064035	-13.265922
1228.567303	-13.253564
1229.070983	-13.251153
1229.575077	-13.242843
1230.079585	-13.233657
1230.584506	-13.236825
1231.089842	-13.228288
1231.595594	-13.218897
1232.101761	-13.218729
1232.608345	-13.205001
1233.115345	-13.200685
1233.622762	-13.198322
1234.130597	-13.186323
1234.638851	-13.178049
1235.147523	-13.173482
1235.656615	-13.157956
1236.166126	-13.150476
1236.676058	-13.145013
1237.186411	-13.127782
1237.697185	-13.118866
1238.208381	-13.108462
1238.719999	-13.090807
1239.232040	-13.081080
1239.744505	-13.071330
1240.257394	-13.050181
1240.770708	-13.037864
1241.284446	-13.025848
1241.798610	-13.004880
1242.313201	-12.995000
1242.828218	-12.980724
1243.343662	-12.956166
1243.859534	-12.944962
1244.375834	-12.929261
1244.892563	-12.909645
1245.409721	-12.897443
1245.927309	-12.878864
1246.445327	-12.859515
1246.963777	-12.842353
1247.482657	-12.827184
1248.001970	-12.810574
1248.521716	-12.797488
1249.041894	-12.775619
1249.562506	-12.754187
1250.083553	-12.745259
1250.605034	-12.727074
1251.126950	-12.706930
1251.649302	-12.698900
1252.172091	-12.675838
1252.695316	-12.653185
1253.218979	-12.646832
1253.743079	-12.631379
1254.267619	-12.611946
1254.792597	-12.599208
1255.318015	-12.581455
1255.843874	-12.561289
1256.370173	-12.555264
1256.896913	-12.542819
1257.424095	-12.522655
1257.951720	-12.511594
1258.479787	-12.496663
1259.008298	-12.480296
1259.537254	-12.476879
1260.066654	-12.466706
1260.596499	-12.447942
1261.126790	-12.437173
1261.657527	-12.429566
1262.188711	-12.419192
1262.720342	-12.414039
1263.252422	-12.408270
1263.784950	-12.392275
1264.317928	-12.382994
1264.851355	-12.383744
1265.385232	-12.377650
1265.919560	-12.371054
1266.454340	-12.368837
1266.989572	-12.356502
1267.525256	-12.349712
1268.061394	-12.355890
1268.597985	-12.354548
1269.135031	-12.343183
1269.672531	-12.341662
1270.210487	-12.337370
1270.748899	-12.330246
1271.287768	-12.337818
1271.827094	-12.339012
1272.366877	-12.323648
1272.907119	-12.317646
1273.447820	-12.321235
1273.988981	-12.320695
1274.530601	-12.318715
1275.072683	-12.314588
1275.615226	-12.301189
1276.158230	-12.294785
1276.701697	-12.303500
1277.245627	-12.302323
1277.790021	-12.285660
1278.334879	-12.278804
1278.880202	-12.276801
1279.425991	-12.269848
1279.972245	-12.268749
1280.518966	-12.264752
1281.066155	-12.248388
1281.613811	-12.238618
1282.161936	-12.238326
1282.710529	-12.234494
1283.259593	-12.223861
1283.809126	-12.215402
1284.359131	-12.202552
1284.909607	-12.192020
1285.460555	-12.192767
1286.011976	-12.187973
1286.563870	-12.169060
1287.116237	-12.154882
1287.669080	-12.153539
1288.222397	-12.144988
1288.776191	-12.133665
1289.330460	-12.126379
1289.885207	-12.112623
1290.440431	-12.093937
1290.996133	-12.091982
1291.552314	-12.091097
1292.108975	-12.070627
1292.666115	-12.050285
1293.223737	-12.047829
1293.781839	-12.039669
1294.340424	-12.022946
1294.899491	-12.015161
1295.459041	-12.003294
1296.019075	-11.981641
1296.579593	-11.973450
1297.140597	-11.973835
1297.702086	-11.957068
1298.264061	-11.933411
1298.826524	-11.926313
1299.389474	-11.922001
1299.952912	-11.907332
1300.516839	-11.895175
1301.081255	-11.884453
1301.646162	-11.869428
1302.211559	-11.858464
1302.777448	-11.855830
1303.343829	-11.847072
1303.910702	-11.826004
1304.478069	-11.815875
1305.045930	-11.817249
1305.614285	-11.807092
1306.183136	-11.793594
1306.752483	-11.785837
1307.322326	-11.779094
1307.892666	-11.768505
1308.463504	-11.766760
1309.034841	-11.762620
1309.606677	-11.747860
1310.179012	-11.737277
1310.751849	-11.742235
1311.325186	-11.740098
1311.899025	-11.725362
1312.473366	-11.716926
1313.048211	-11.720073
1313.623559	-11.716822
1314.199412	-11.706928
1314.775770	-11.705463
1315.352634	-11.701854
1315.930004	-11.693308
1316.507881	-11.692045
1317.086266	-11.695934
1317.665159	-11.687426
1318.244562	-11.676663
1318.824474	-11.679002
1319.404897	-11.685410
1319.985831	-11.675729
1320.567276	-11.667209
1321.149234	-11.669960
1321.731706	-11.671493
1322.314691	-11.666440
1322.898190	-11.664106
1323.482205	-11.664268
1324.066736	-11.661575
1324.651783	-11.659275
1325.237347	-11.664578
1325.823430	-11.663177
1326.410031	-11.655249
1326.997151	-11.656908
1327.584791	-11.664633
1328.172952	-11.663884
1328.761634	-11.656433
1329.350839	-11.656640
1329.940566	-11.666214
1330.530817	-11.665593
1331.121592	-11.658115
1331.712891	-11.660961
1332.304716	-11.665662
1332.897068	-11.664030
1333.489946	-11.661285
1334.083352	-11.662845
1334.677287	-11.664808
1335.271750	-11.660019
1335.866744	-11.659570
1336.462268	-11.665096
1337.058323	-11.659202
1337.654910	-11.652958
1338.252029	-11.657086
1338.849682	-11.659384
1339.447869	-11.653904
1340.046591	-11.646234
1340.645848	-11.647872
1341.245641	-11.654414
1341.845972	-11.645727
1342.446840	-11.636715
1343.048246	-11.641946
1343.650191	-11.644350
1344.252677	-11.637396
1344.855702	-11.631588
1345.459269	-11.632600
1346.063379	-11.636031
1346.668030	-11.629258
1347.273226	-11.622876
1347.878965	-11.626425
1348.485250	-11.626263
1349.092080	-11.619291
1349.699456	-11.617095
1350.307380	-11.617636
1350.915851	-11.616166
1351.524871	-11.610263
1352.134441	-11.607507
1352.744560	-11.609205
1353.355231	-11.605980
1353.966453	-11.598626
1354.578227	-11.598177
1355.190555	-11.599093
1355.803436	-11.594264
1356.416872	-11.587284
1357.030863	-11.586680
1357.645411	-11.588983
1358.260515	-11.583957
1358.876177	-11.574900
1359.492397	-11.574550
1360.109176	-11.579920
1360.726516	-11.572644
1361.344416	-11.563570
1361.962877	-11.564710
1362.581901	-11.570670
1363.201487	-11.563109
1363.821637	-11.555061
1364.442352	-11.553769
1365.063632	-11.561873
1365.685478	-11.557979
1366.307891	-11.546756
1366.930871	-11.547885
1367.554420	-11.552955
1368.178538	-11.554883
1368.803226	-11.542202
1369.428485	-11.542116
1370.054315	-11.550278
1370.680717	-11.550058
1371.307693	-11.543439
1371.935242	-11.539677
1372.563366	-11.546360
1373.192065	-11.550688
1373.821341	-11.544566
1374.451193	-11.540928
1375.081623	-11.547048
1375.712632	-11.552369
1376.344221	-11.548346
1376.976389	-11.544709
1377.609139	-11.550317
1378.242470	-11.556596
1378.876384	-11.553757
1379.510881	-11.549581
1380.145963	-11.555185
1380.781629	-11.561911
1381.417881	-11.560910
1382.054720	-11.556791
1382.692147	-11.561028
1383.330161	-11.569705
1383.968765	-11.570738
1384.607959	-11.566928
1385.247743	-11.570775
1385.888119	-11.580202
1386.529087	-11.583165
1387.170648	-11.580531
1387.812804	-11.583824
1388.455554	-11.592103
1389.098899	-11.596350
1389.742842	-11.597102
1390.387381	-11.599167
1391.032519	-11.604373
1391.678256	-11.611033
1392.324592	-11.614864
1392.971529	-11.615737
1393.619068	-11.619199
1394.267208	-11.626696
1394.915952	-11.633192
1395.565300	-11.634820
1396.215253	-11.637354
1396.865812	-11.645586
1397.516977	-11.654262
1398.168749	-11.658773
1398.821130	-11.660837
1399.474120	-11.665648
1400.127719	-11.677950
1400.781930	-11.687883
1401.436752	-11.686312
1402.092186	-11.687919
1402.748234	-11.702271
1403.404897	-11.716013
1404.062174	-11.716927
1404.720067	-11.713552
1405.378577	-11.723521
1406.037705	-11.743825
1406.697451	-11.748568
1407.357817	-11.741193
1408.018803	-11.748293
1408.680410	-11.767195
1409.342639	-11.776344
1410.005492	-11.775170
1410.668968	-11.778072
1411.333068	-11.791088
1411.997795	-11.804046
1412.663147	-11.809889
1413.329127	-11.815400
1413.995736	-11.823654
1414.662973	-11.831674
1415.330840	-11.843353
1415.999339	-11.857260
1416.668469	-11.863133
1417.338232	-11.864740
1418.008628	-11.878439
1418.679659	-11.899941
1419.351325	-11.907374
1420.023628	-11.905819
1420.696568	-11.919258
1421.370145	-11.941960
1422.044362	-11.951821
1422.719219	-11.953638
1423.394717	-11.963964
1424.070856	-11.982292
1424.747638	-11.997708
1425.425064	-12.006427
1426.103134	-12.013425
1426.781850	-12.026971
1427.461212	-12.047303
1428.141221	-12.062013
1428.821878	-12.067247
1429.503185	-12.077807
1430.185141	-12.098382
1430.867749	-12.113737
1431.551008	-12.120499
1432.234920	-12.131110
1432.919486	-12.151290
1433.604707	-12.169456
1434.290583	-12.177145
1434.977116	-12.188233
1435.664307	-12.214311
1436.352156	-12.236258
1437.040664	-12.243495
1437.729833	-12.253429
1438.419663	-12.275856
1439.110156	-12.301093
1439.801312	-12.316663
1440.493132	-12.319891
1441.185617	-12.329296
1441.878768	-12.358428
1442.572586	-12.388849
1443.267072	-12.399803
1443.962228	-12.402583
1444.658053	-12.422863
1445.354549	-12.463802
1446.051717	-12.499012
1446.749558	-12.508215
1447.448073	-12.510546
1448.147263	-12.535696
1448.847128	-12.579899
1449.547671	-12.610331
1450.248891	-12.611744
1450.950789	-12.610011
1451.653368	-12.637155
1452.356627	-12.685477
1453.060568	-12.718658
1453.765192	-12.725672
1454.470500	-12.738326
1455.176492	-12.783360
1455.883170	-12.843971
1456.590534	-12.887964
1457.298586	-12.911248
1458.007327	-12.939222
1458.716758	-12.989057
1459.426880	-13.047037
1460.137693	-13.087675
1460.849199	-13.110228
1461.561398	-13.137844
1462.274293	-13.185646
1462.987883	-13.240798
1463.702170	-13.286342
1464.417155	-13.327987
1465.132838	-13.383115
1465.849222	-13.456799
1466.566306	-13.542942
1467.284093	-13.631150
1468.002582	-13.718013
1468.721775	-13.811544
1469.441674	-13.915575
1470.162278	-14.021122
1470.883590	-14.122712
1471.605609	-14.219776
1472.328338	-14.308144
1473.051777	-14.383623
1473.775928	-14.454463
1474.500790	-14.529683
1475.226367	-14.603992
1475.952657	-14.669580
1476.679663	-14.730103
1477.407386	-14.795469
1478.135826	-14.878362
1478.864985	-14.983524
1479.594863	-15.093888
1480.325463	-15.195517
1481.056784	-15.302743
1481.788828	-15.431988
1482.521597	-15.571246
1483.255090	-15.695328
1483.989309	-15.793198
1484.724256	-15.870836
1485.459931	-15.936620
1486.196336	-15.983778
1486.933471	-15.991166
1487.671337	-15.953786
1488.409937	-15.894800
1489.149270	-15.830062
1489.889337	-15.755239
1490.630141	-15.668637
1491.371682	-15.580108
1492.113961	-15.504192
1492.856979	-15.453772
1493.600738	-15.428033
1494.345238	-15.419212
1495.090481	-15.433399
1495.836467	-15.480730
1496.583198	-15.557017
1497.330675	-15.655781
1498.078899	-15.777482
1498.827872	-15.922395
1499.577593	-16.090043
1500.328065	-16.275718
1501.079289	-16.466125
1501.831265	-16.655550
1502.583995	-16.847950
1503.337480	-17.034398
1504.091721	-17.192663
1504.846719	-17.309525
1505.602475	-17.380378
1506.358991	-17.400734
1507.116268	-17.363261
1507.874306	-17.259747
1508.633108	-17.089986
1509.392673	-16.868714
1510.153004	-16.613671
1510.914101	-16.335901
1511.675965	-16.044851
1512.438599	-15.753590
1513.202002	-15.481091
1513.966176	-15.246077
1514.731122	-15.055663
1515.496842	-14.912611
1516.263336	-14.831494
1517.030607	-14.829956
1517.798654	-14.918445
1518.567479	-15.107391
1519.337083	-15.411453
1520.107468	-15.855171
1520.878634	-16.476646
1521.650584	-17.319567
1522.423317	-18.441448
1523.196836	-19.954906
1523.971141	-22.081816
1524.746233	-25.306475
1525.522115	-31.053842
1526.298786	-39.247253
1527.076249	-28.796137
1527.854504	-23.230970
1528.633553	-19.680179
1529.413397	-17.082605
1530.194037	-15.044617
1530.975474	-13.371337
1531.757709	-11.951629
1532.540745	-10.722434
1533.324581	-9.653023
1534.109220	-8.721457
1534.894662	-7.902154
1535.680909	-7.175009
1536.467961	-6.531327
1537.255821	-5.968609
1538.044489	-5.484011
1538.833967	-5.070864
1539.624256	-4.721968
1540.415357	-4.435284
1541.207271	-4.213265
1542.000000	-4.056321
1542.793545	-3.959985
1543.587907	-3.919206
1544.383087	-3.934184
1545.179088	-4.007381
1545.975909	-4.136833
1546.773552	-4.317201
1547.572019	-4.546051
1548.371311	-4.824408
1549.171428	-5.153123
1549.972373	-5.529556
1550.774147	-5.949279
1551.576751	-6.413184
1552.380185	-6.927108
1553.184453	-7.491801
1553.989554	-8.103811
1554.795490	-8.764373
1555.602263	-9.481842
1556.409873	-10.264514
1557.218322	-11.110324
1558.027612	-12.010391
1558.837743	-12.966620
1559.648717	-13.982505
1560.460536	-15.031217
1561.273200	-16.047803
1562.086710	-16.956821
1562.901069	-17.682141
1563.716278	-18.127507
1564.532337	-18.214892
1565.349249	-17.984861
1566.167014	-17.566189
1566.985634	-17.055030
1567.805111	-16.499878
1568.625444	-15.957532
1569.446637	-15.477864
1570.268690	-15.066755
1571.091605	-14.708416
1571.915382	-14.404115
1572.740024	-14.167638
1573.565532	-13.995361
1574.391907	-13.867540
1575.219150	-13.774885
1576.047262	-13.726059
1576.876246	-13.721952
1577.706103	-13.743263
1578.536833	-13.777541
1579.368439	-13.831337
1580.200922	-13.908283
1581.034282	-13.996236
1581.868522	-14.080210
1582.703643	-14.164875
1583.539646	-14.263566
1584.376532	-14.368560
1585.214304	-14.465981
1586.052962	-14.563398
1586.892508	-14.675451
1587.732943	-14.801636
1588.574269	-14.929863
1589.416487	-15.062675
1590.259599	-15.218642
1591.103605	-15.398073
1591.948508	-15.583573
1592.794309	-15.779170
1593.641009	-16.001195
1594.488609	-16.244469
1595.337112	-16.492491
1596.186518	-16.747531
1597.036829	-17.023705
1597.888047	-17.314475
1598.740172	-17.598288
1599.593207	-17.880403
1600.447153	-18.176995
1601.302010	-18.470480
1602.157782	-18.740363
1603.014469	-19.000958
1603.872072	-19.259207
1604.730593	-19.494543
1605.590034	-19.691476
1606.450397	-19.867670
1607.311681	-20.026070
1608.173890	-20.143576
1609.037024	-20.211106
1609.901085	-20.257564
1610.766075	-20.275669
1611.631995	-20.241366
1612.498846	-20.171506
1613.366630	-20.084279
1614.235349	-19.967523
1615.105004	-19.811944
1615.975596	-19.639176
1616.847128	-19.459667
1617.719600	-19.259420
1618.593014	-19.040238
1619.467372	-18.823957
1620.342675	-18.611025
1621.218924	-18.388344
1622.096122	-18.167411
1622.974270	-17.961207
1623.853369	-17.759429
1624.733420	-17.558336
1625.614427	-17.368000
1626.496389	-17.190527
1627.379308	-17.016219
1628.263187	-16.844907
1629.148026	-16.685661
1630.033828	-16.532227
1630.920593	-16.376639
1631.808324	-16.226563
1632.697022	-16.082582
1633.586688	-15.935479
1634.477324	-15.787707
1635.368932	-15.644948
1636.261514	-15.502445
1637.155070	-15.356676
1638.049602	-15.214153
1638.945113	-15.076870
1639.841603	-14.937622
1640.739075	-14.799588
1641.637529	-14.670816
1642.536968	-14.545261
1643.437393	-14.420863
1644.338806	-14.306956
1645.241209	-14.199443
1646.144602	-14.093474
1647.048988	-13.994445
1647.954368	-13.902264
1648.860744	-13.812865
1649.768118	-13.724846
1650.676491	-13.641874
1651.585865	-13.563395
1652.496241	-13.482976
1653.407621	-13.407183
1654.320008	-13.337189
1655.233401	-13.264324
1656.147804	-13.194029
1657.063218	-13.130112
1657.979645	-13.066287
1658.897085	-13.003939
1659.815542	-12.948694
1660.735016	-12.896369
1661.655509	-12.844662
1662.577023	-12.799343
1663.499560	-12.758785
1664.423121	-12.717187
1665.347709	-12.678856
1666.273324	-12.646152
1667.199969	-12.611704
1668.127645	-12.579357
1669.056353	-12.552612
1669.986097	-12.524417
1670.916877	-12.497454
1671.848695	-12.476004
1672.781553	-12.453736
1673.715452	-12.431411
1674.650395	-12.414313
1675.586383	-12.397518
1676.523418	-12.380750
1677.461501	-12.368863
1678.400635	-12.358104
1679.340821	-12.346341
1680.282061	-12.338739
1681.224357	-12.332245
1682.167710	-12.323218
1683.112122	-12.317763
1684.057595	-12.313258
1685.004132	-12.306039
1685.951732	-12.302662
1686.900400	-12.300493
1687.850135	-12.295623
1688.800940	-12.294575
1689.752818	-12.294384
1690.705768	-12.291434
1691.659795	-12.292010
1692.614898	-12.293061
1693.571081	-12.291785
1694.528345	-12.293931
1695.486691	-12.296185
1696.446122	-12.296319
1697.406640	-12.299684
1698.368245	-12.302744
1699.330941	-12.304062
1700.294729	-12.308515
1701.259611	-12.312414
1702.225588	-12.315243
1703.192664	-12.321150
1704.160838	-12.326226
1705.130114	-12.330864
1706.100493	-12.338199
1707.071977	-12.344041
1708.044568	-12.349876
1709.018268	-12.357803
1709.993079	-12.363764
1710.969003	-12.370737
1711.946041	-12.379368
1712.924196	-12.386346
1713.903469	-12.395336
1714.883862	-12.404914
1715.865378	-12.413390
1716.848017	-12.423947
1717.831783	-12.433627
1718.816677	-12.442954
1719.802701	-12.453936
1720.789857	-12.463539
1721.778147	-12.474418
1722.767573	-12.486568
1723.758136	-12.497598
1724.749840	-12.510718
1725.742685	-12.523798
1726.736673	-12.536158
1727.731808	-12.550384
1728.728090	-12.563647
1729.725521	-12.577326
1730.724105	-12.592101
1731.723842	-12.605854
1732.724735	-12.620757
1733.726785	-12.635216
1734.729995	-12.649035
1735.734366	-12.663881
1736.739902	-12.677120
1737.746603	-12.690865
1738.754472	-12.705193
1739.763510	-12.717969
1740.773721	-12.732151
1741.785105	-12.745396
1742.797665	-12.757347
1743.811403	-12.770348
1744.826321	-12.781665
1745.842422	-12.793712
1746.859706	-12.806655
1747.878177	-12.818873
1748.897835	-12.832953
1749.918685	-12.846385
1750.940726	-12.859919
1751.963963	-12.874163
1752.988395	-12.887215
1754.014027	-12.901547
1755.040860	-12.915657
1756.068895	-12.930201
1757.098135	-12.946075
1758.128583	-12.961276
1759.160240	-12.977501
1760.193109	-12.993157
1761.227191	-13.008499
1762.262488	-13.024299
1763.299004	-13.039392
1764.336740	-13.055351
1765.375697	-13.070536
1766.415880	-13.085419
1767.457288	-13.100103
1768.499926	-13.113557
1769.543794	-13.127757
1770.588895	-13.141416
1771.635231	-13.155360
1772.682805	-13.169399
1773.731619	-13.182473
1774.781674	-13.195844
1775.832973	-13.208148
1776.885519	-13.220621
1777.939312	-13.233186
1778.994357	-13.245824
1780.050654	-13.259455
1781.108207	-13.272769
1782.167017	-13.286748
1783.227087	-13.300260
1784.288418	-13.313654
1785.351013	-13.327082
1786.414875	-13.340174
1787.480006	-13.354367
1788.546407	-13.368507
1789.614082	-13.383689
1790.683032	-13.398653
1791.753259	-13.413506
1792.824767	-13.428328
1793.897557	-13.442318
1794.971632	-13.457112
1796.046994	-13.471343
1797.123645	-13.486569
1798.201588	-13.501978
1799.280824	-13.517551
1800.361357	-13.533490
1801.443188	-13.548303
1802.526320	-13.563315
1803.610756	-13.577207
1804.696497	-13.591456
1805.783546	-13.605404
1806.871906	-13.619076
1807.961578	-13.632936
1809.052565	-13.645649
1810.144870	-13.658301
1811.238494	-13.669707
1812.333441	-13.681043
1813.429713	-13.691764
1814.527311	-13.702339
1815.626239	-13.712810
1816.726499	-13.722663
1817.828094	-13.732554
1818.931025	-13.741507
1820.035295	-13.750593
1821.140906	-13.759205
1822.247862	-13.768078
1823.356165	-13.776523
1824.465816	-13.784520
1825.576819	-13.792078
1826.689175	-13.799107
1827.802888	-13.806294
1828.917960	-13.813410
1830.034394	-13.820871
1831.152191	-13.828125
1832.271354	-13.835260
1833.391887	-13.841917
1834.513790	-13.848472
1835.637068	-13.854557
1836.761722	-13.860392
1837.887755	-13.865465
1839.015169	-13.870335
1840.143968	-13.874798
1841.274153	-13.879399
1842.405727	-13.884034
1843.538693	-13.888735
1844.673053	-13.893259
1845.808810	-13.897562
1846.945966	-13.901521
1848.084525	-13.905251
1849.224488	-13.908806
1850.365858	-13.912474
1851.508638	-13.916139
1852.652831	-13.919925
1853.798438	-13.923158
1854.945463	-13.926089
1856.093909	-13.928211
1857.243777	-13.930386
1858.395071	-13.931776
1859.547794	-13.933438
1860.701947	-13.934223
1861.857533	-13.934851
1863.014556	-13.934159
1864.173018	-13.933557
1865.332922	-13.932432
1866.494270	-13.931551
1867.657065	-13.929720
1868.821309	-13.927189
1869.987006	-13.923300
1871.154158	-13.918836
1872.322768	-13.914080
1873.492839	-13.909365
1874.664373	-13.904514
1875.837373	-13.898983
1877.011841	-13.892734
1878.187782	-13.885402
1879.365197	-13.877599
1880.544089	-13.869219
1881.724460	-13.861063
1882.906315	-13.852876
1884.089655	-13.845076
1885.274483	-13.836883
1886.460803	-13.828746
1887.648616	-13.820359
1888.837927	-13.811969
1890.028736	-13.803190
1891.221049	-13.794061
1892.414866	-13.784633
1893.610192	-13.775121
1894.807028	-13.766029
1896.005379	-13.757423
1897.205246	-13.749138
1898.406633	-13.740644
1899.609542	-13.731943
1900.813977	-13.723009
1902.019940	-13.714355
1903.227434	-13.706292
1904.436462	-13.699056
1905.647028	-13.692147
1906.859133	-13.685073
1908.072781	-13.677444
1909.287976	-13.669425
1910.504719	-13.661214
1911.723013	-13.653134
1912.942863	-13.645165
1914.164270	-13.637069
1915.387238	-13.628352
1916.611770	-13.618968
1917.837868	-13.609135
1919.065536	-13.599195
1920.294777	-13.589179
1921.525594	-13.578966
1922.757989	-13.568186
1923.991967	-13.556790
1925.227529	-13.544811
1926.464679	-13.532757
1927.703420	-13.520960
1928.943755	-13.509428
1930.185688	-13.497617
1931.429221	-13.485066
1932.674356	-13.471719
1933.921099	-13.458400
1935.169451	-13.445937
1936.419415	-13.434537
1937.670996	-13.423349
1938.924195	-13.411314
1940.179017	-13.398000
1941.435463	-13.384118
1942.693538	-13.370616
1943.953245	-13.357988
1945.214586	-13.345916
1946.477566	-13.333799
1947.742186	-13.321129
1949.008451	-13.308026
1950.276363	-13.295085
1951.545926	-13.283093
1952.817143	-13.272180
1954.090017	-13.261999
1955.364551	-13.252016
1956.640749	-13.242129
1957.918615	-13.232461
1959.198150	-13.223482
1960.479359	-13.214987
1961.762244	-13.206629
1963.046810	-13.198035
1964.333059	-13.189253
1965.620995	-13.180376
1966.910621	-13.171664
1968.201940	-13.162901
1969.494956	-13.153971
1970.789672	-13.144596
1972.086091	-13.134779
1973.384217	-13.124740
1974.684053	-13.115187
1975.985602	-13.105897
1977.288869	-13.096071
1978.593855	-13.085039
1979.900566	-13.073139
1981.209003	-13.061184
1982.519171	-13.049779
1983.831073	-13.038815
1985.144712	-13.027898
1986.460093	-13.016489
1987.777217	-13.004367
1989.096089	-12.991610
1990.416713	-12.978727
1991.739092	-12.966040
1993.063228	-12.953520
1994.389127	-12.940691
1995.716791	-12.927779
1997.046223	-12.915456
1998.377428	-12.903912
1999.710409	-12.892628
2001.045169	-12.881307
2002.381713	-12.870500
2003.720043	-12.860930
2005.060163	-12.852558
2006.402077	-12.844954
2007.745788	-12.837980
2009.091301	-12.831714
2010.438618	-12.826534
2011.787743	-12.822708
2013.138680	-12.819958
2014.491433	-12.817642
2015.846005	-12.815405
2017.202399	-12.813180
2018.560621	-12.811406
2019.920673	-12.810450
2021.282558	-12.810179
2022.646281	-12.809820
2024.011846	-12.809126
2025.379256	-12.808471
2026.748515	-12.808210
2028.119626	-12.808043
2029.492594	-12.807588
2030.867422	-12.806860
2032.244114	-12.806052
2033.622673	-12.804934
2035.003104	-12.802957
2036.385411	-12.799915
2037.769597	-12.796299
2039.155665	-12.792668
2040.543621	-12.789322
2041.933467	-12.785781
2043.325208	-12.781297
2044.718847	-12.776243
2046.114389	-12.771604
2047.511837	-12.767718
2048.911195	-12.763995
2050.312467	-12.759948
2051.715657	-12.756000
2053.120769	-12.753083
2054.527807	-12.751359
2055.936775	-12.750254
2057.347677	-12.749285
2058.760516	-12.748705
2060.175297	-12.748880
2061.592025	-12.749880
2063.010701	-12.751572
2064.431332	-12.753924
2065.853921	-12.757099
2067.278472	-12.761543
2068.704988	-12.766996
2070.133475	-12.772678
2071.563936	-12.778557
2072.996375	-12.785168
2074.430796	-12.793134
2075.867204	-12.802351
2077.305603	-12.811999
2078.745996	-12.821664
2080.188389	-12.831941
2081.632784	-12.843423
2083.079187	-12.855421
2084.527601	-12.866472
2085.978030	-12.876665
2087.430480	-12.887482
2088.884954	-12.899129
2090.341455	-12.910221
2091.799990	-12.919841
2093.260561	-12.928905
2094.723173	-12.938332
2096.187831	-12.947498
2097.654538	-12.955553
2099.123300	-12.962787
2100.594119	-12.970302
2102.067001	-12.978542
2103.541950	-12.986554
2105.018971	-12.993743
2106.498067	-13.001073
2107.979243	-13.009337
2109.462503	-13.018293
2110.947853	-13.027263
2112.435295	-13.036669
2113.924836	-13.047703
2115.416478	-13.060192
2116.910227	-13.072785
2118.406087	-13.084839
2119.904063	-13.097423
2121.404158	-13.112054
2122.906378	-13.128417
2124.410727	-13.145104
2125.917210	-13.161629
2127.425831	-13.178776
2128.936594	-13.197926
2130.449505	-13.218676
2131.964567	-13.239462
2133.481786	-13.260645
2135.001166	-13.283915
2136.522711	-13.308907
2138.046427	-13.333501
2139.572317	-13.357395
2141.100388	-13.381867
2142.630642	-13.406773
2144.163085	-13.431072
2145.697722	-13.454809
2147.234558	-13.478958
2148.773596	-13.503867
2150.314842	-13.528621
2151.858301	-13.552641
2153.403977	-13.577065
2154.951875	-13.603481
2156.502000	-13.631800
2158.054357	-13.659638
2159.608950	-13.685829
2161.165785	-13.712428
2162.724866	-13.740538
2164.286198	-13.768225
2165.849786	-13.793573
2167.415635	-13.817419
2168.983749	-13.840947
2170.554134	-13.863413
2172.126795	-13.883368
2173.701737	-13.901265
2175.278964	-13.918804
2176.858481	-13.936014
2178.440294	-13.951431
2180.024408	-13.965355
2181.610827	-13.979964
2183.199557	-13.995961
2184.790602	-14.012791
2186.383968	-14.031962
2187.979660	-14.056492
2189.577683	-14.086345
2191.178041	-14.119523
2192.780741	-14.157391
2194.385787	-14.203253
2195.993185	-14.255811
2197.602939	-14.311735
2199.215054	-14.371657
2200.829537	-14.437246
2202.446392	-14.506871
2204.065624	-14.577974
2205.687239	-14.649365
2207.311242	-14.721396
2208.937638	-14.793519
2210.566433	-14.862307
2212.197631	-14.926048
2213.831239	-14.987369
2215.467261	-15.046886
2217.105703	-15.101042
2218.746570	-15.149604
2220.389867	-15.194918
2222.035601	-15.235759
2223.683776	-15.269791
2225.334398	-15.298221
2226.987472	-15.323973
2228.643004	-15.348085
2230.300999	-15.369581
2231.961463	-15.388832
2233.624402	-15.407919
2235.289820	-15.427138
2236.957723	-15.446963
2238.628118	-15.470622
2240.301009	-15.499287
2241.976402	-15.531043
2243.654303	-15.567065
2245.334717	-15.610690
2247.017650	-15.659791
2248.703108	-15.712467
2250.391096	-15.771714
2252.081620	-15.838530
2253.774686	-15.909331
2255.470300	-15.981979
2257.168467	-16.058451
2258.869193	-16.139537
2260.572484	-16.221250
2262.278345	-16.301650
2263.986783	-16.382866
2265.697804	-16.463632
2267.411412	-16.539751
2269.127615	-16.609995
2270.846417	-16.676801
2272.567826	-16.740120
2274.291846	-16.797296
2276.018484	-16.849455
2277.747745	-16.900016
2279.479637	-16.949152
2281.214164	-16.996779
2282.951333	-17.045128
2284.691149	-17.095154
2286.433619	-17.146641
2288.178750	-17.200896
2289.926546	-17.259373
2291.677014	-17.319945
2293.430161	-17.381486
2295.185992	-17.448063
2296.944513	-17.518176
2298.705732	-17.588779
2300.469653	-17.662458
2302.236283	-17.741723
2304.005629	-17.821072
2305.777696	-17.903319
2307.552492	-17.988425
2309.330022	-18.076800
2311.110292	-18.164777
2312.893310	-18.250503
2314.679080	-18.345767
2316.467611	-18.430684
2318.258907	-18.524522
2320.052976	-18.615081
2321.849824	-18.703017
2323.649457	-18.797602
2325.451883	-18.879883
2327.257106	-18.973230
2329.065135	-19.056024
2330.875975	-19.141107
2332.689633	-19.223767
2334.506116	-19.299329
2336.325430	-19.380569
2338.147581	-19.453259
2339.972578	-19.527311
2341.800425	-19.596835
2343.631130	-19.664575
2345.464700	-19.740720
2347.301141	-19.806091
2349.140461	-19.878632
2350.982665	-19.956423
2352.827760	-20.026792
2354.675754	-20.108341
2356.526653	-20.191342
2358.380464	-20.275164
2360.237195	-20.368346
2362.096851	-20.460471
2363.959440	-20.562635
2365.824968	-20.670791
2367.693444	-20.777071
2369.564873	-20.890230
2371.439263	-21.001605
2373.316620	-21.118080
2375.196953	-21.233311
2377.080267	-21.342995
2378.966570	-21.458918
2380.855869	-21.574716
2382.748171	-21.683177
2384.643484	-21.800007
2386.541815	-21.917319
2388.443170	-22.027119
2390.347557	-22.147443
2392.254984	-22.258834
2394.165457	-22.370748
2396.078984	-22.484167
2397.995572	-22.585684
2399.915229	-22.676765
2401.837961	-22.776937
2403.763777	-22.863453
2405.692684	-22.940791
2407.624689	-23.015818
2409.559800	-23.103705
2411.498023	-23.183038
2413.439368	-23.255054
2415.383840	-23.335584
2417.331449	-23.438886
2419.282201	-23.533149
2421.236104	-23.609800
2423.193165	-23.724839
2425.153393	-23.858341
2427.116795	-23.944407
2429.083378	-24.049525
2431.053151	-24.219822
2433.026121	-24.343277
2435.002297	-24.431930
2436.981685	-24.604041
2438.964293	-24.771476
2440.950131	-24.857928
2442.939204	-25.003004
2444.931522	-25.200259
2446.927092	-25.303206
2448.925923	-25.421633
2450.928022	-25.628904
2452.933397	-25.759798
2454.942056	-25.852358
2456.954008	-26.056089
2458.969260	-26.196782
2460.987821	-26.267324
2463.009699	-26.451905
2465.034902	-26.578957
2467.063437	-26.632527
2469.095315	-26.780694
2471.130542	-26.868282
2473.169127	-26.910369
2475.211078	-27.022936
2477.256404	-27.087650
2479.305112	-27.143135
2481.357212	-27.247149
2483.412713	-27.324110
2485.471621	-27.417810
2487.533946	-27.533126
2489.599696	-27.629923
2491.668880	-27.754471
2493.741507	-27.898084
2495.817585	-28.026050
2497.897122	-28.180079
2499.980127	-28.326280
2502.066609	-28.472313
2504.156578	-28.649214
2506.250040	-28.801876
2508.347006	-28.959981
2510.447483	-29.140031
2512.551482	-29.312658
2514.659010	-29.512453
2516.770076	-29.696405
2518.884690	-29.869628
2521.002861	-30.073687
2523.124597	-30.263659
2525.249907	-30.435024
2527.378801	-30.622214
2529.511287	-30.797442
2531.647375	-30.953380
2533.787074	-31.111520
2535.930393	-31.249704
2538.077340	-31.335364
2540.227927	-31.448115
2542.382160	-31.512244
2544.540051	-31.530164
2546.701608	-31.615000
2548.866840	-31.653345
2551.035757	-31.706687
2553.208369	-31.813055
2555.384684	-31.871871
2557.564713	-31.957596
2559.748465	-32.099872
2561.935948	-32.216793
2564.127174	-32.327648
2566.322152	-32.464869
2568.520890	-32.628647
2570.723399	-32.763094
2572.929689	-32.924210
2575.139769	-33.095083
2577.353649	-33.255511
2579.571340	-33.469149
2581.792849	-33.654629
2584.018189	-33.864685
2586.247368	-34.115813
2588.480396	-34.341355
2590.717284	-34.588971
2592.958041	-34.874473
2595.202678	-35.125829
2597.451204	-35.419714
2599.703630	-35.694098
2601.959966	-35.928286
2604.220222	-36.228070
2606.484408	-36.434319
2608.752535	-36.550516
2611.024612	-36.737710
2613.300651	-36.809676
2615.580661	-36.849662
2617.864653	-36.901005
2620.152638	-36.915496
2622.444625	-36.940787
2624.740626	-36.985255
2627.040651	-37.068573
2629.344710	-37.062535
2631.652814	-37.179323
2633.964974	-37.288569
2636.281200	-37.284039
2638.601504	-37.391312
2640.925896	-37.466964
2643.254386	-37.568548
2645.586987	-37.610134
2647.923707	-37.675284
2650.264559	-37.912324
2652.609554	-38.012535
2654.958702	-38.167892
2657.312015	-38.377152
2659.669503	-38.587118
2662.031178	-38.800838
2664.397051	-39.069936
2666.767132	-39.374793
2669.141434	-39.740813
2671.519968	-40.151451
2673.902745	-40.539946
2676.289776	-40.894445
2678.681072	-41.493807
2681.076646	-41.789214
2683.476508	-42.142899
2685.880671	-42.504266
2688.289145	-42.769675
2690.701942	-42.894074
2693.119075	-43.031418
2695.540554	-43.254205
2697.966391	-43.151873
2700.396599	-43.535835
2702.831189	-43.373667
2705.270172	-43.655453
2707.713561	-43.683240
2710.161368	-43.671232
2712.613605	-43.761534
2715.070283	-43.632769
2717.531416	-43.641991
2719.997014	-43.492811
2722.467090	-43.615402
2724.941657	-43.393989
2727.420726	-43.531086
2729.904310	-43.363877
2732.392421	-43.427334
2734.885072	-43.419080
2737.382275	-43.397482
2739.884042	-43.575305
2742.390387	-43.618884
2744.901321	-44.010009
2747.416857	-44.105454
2749.937008	-44.617502
2752.461787	-44.874601
2754.991206	-45.484209
2757.525279	-45.906556
2760.064017	-46.364469
2762.607434	-46.892777
2765.155544	-47.259786
2767.708358	-47.685613
2770.265890	-47.997534
2772.828153	-48.380310
2775.395160	-48.579326
2777.966924	-49.193423
2780.543459	-49.413312
2783.124778	-50.309013
2785.710894	-50.468536
2788.301821	-51.260958
2790.897572	-51.503195
2793.498160	-51.798775
2796.103599	-51.959547
2798.713903	-52.253096
2801.329085	-52.213674
2803.949159	-52.259257
2806.574139	-51.758092
2809.204038	-51.742764
2811.838871	-51.027085
2814.478650	-50.838165
2817.123391	-50.273619
2819.773107	-50.052393
2822.427812	-49.880399
2825.087521	-49.781284
2827.752247	-49.853566
2830.422005	-49.965265
2833.096808	-50.239310
2835.776672	-50.605722
2838.461611	-50.857468
2841.151638	-51.202845
2843.846769	-51.537005
2846.547019	-51.862846
2849.252401	-52.084223
2851.962930	-51.970348
2854.678621	-52.340590
2857.399489	-52.244166
2860.125549	-52.801028
2862.856815	-52.915051
2865.593302	-53.616613
2868.335026	-53.798327
2871.082002	-54.462776
2873.834244	-54.715767
2876.591767	-55.453731
2879.354588	-56.078064
2882.122721	-57.024126
2884.896181	-58.571852
2887.674984	-59.414074
2890.459146	-62.088927
2893.248681	-62.003646
2896.043606	-64.259340
2898.843937	-62.577306
2901.649687	-62.425542
2904.460875	-60.657613
2907.277515	-60.028643
2910.099623	-59.193152
2912.927215	-58.830049
2915.760308	-58.342572
2918.598916	-58.801150
2921.443057	-58.204285
2924.292747	-59.517544
2927.148002	-58.994896
2930.008837	-59.786924
2932.875270	-60.071810
2935.747318	-59.202974
2938.624995	-59.978521
2941.508320	-59.041225
2944.397308	-59.738115
2947.291977	-59.673936
2950.192343	-59.079983
2953.098423	-60.200790
2956.010234	-58.645267
2958.927792	-59.245839
2961.851116	-58.554471
2964.780221	-58.403708
2967.715126	-58.672803
2970.655847	-58.731711
2973.602402	-59.545535
2976.554808	-59.772264
2979.513083	-60.693865
2982.477243	-62.369104
2985.447308	-62.800833
2988.423293	-65.506138
2991.405218	-67.508882
2994.393099	-68.654552
2997.386955	-70.429938
