# 2022-03-21_17.33.03
# shape = sech2
# FWHM_ps = 0.1
# carrier_nm = 1542
# frep_MHz = 12126
# pow_mW = 8000
# GDD = 0.0
# propa_len = 0.13666666666666666
# untap_len = 0.01
# taper_len = 0.07666666666666666
# waist_len = 0.02
# uptap_len = 0.02
# untap_scale = 1.0
# waist_scale = 0.18333333333333335
# workingDir = NL_20110305_12 (Spirou)
# axis = slow
# window_ps = 10.0
# steps = 200
# points = 21700
# 
# wavelength [nm]	 power spectral density [dB]
600.043425	-87.967527
600.163550	-88.091687
600.283723	-88.640740
600.403943	-89.532853
600.524212	-90.560454
600.644529	-91.631018
600.764895	-92.805741
600.885308	-93.637936
601.005770	-93.238650
601.126280	-91.896543
601.246839	-90.568232
601.367446	-89.735350
601.488101	-89.730982
601.608804	-90.423077
601.729557	-91.326557
601.850357	-92.735463
601.971206	-94.204549
602.092104	-93.950399
602.213050	-93.412037
602.334045	-92.927829
602.455089	-92.453920
602.576181	-92.476843
602.697322	-93.091686
602.818511	-94.442624
602.939749	-96.440048
603.061036	-98.527370
603.182372	-99.508071
603.303757	-99.308785
603.425191	-97.670041
603.546673	-96.529843
603.668204	-96.820145
603.789785	-98.305634
603.911414	-100.994204
604.033092	-104.591495
604.154820	-101.288612
604.276596	-97.290645
604.398422	-94.236753
604.520297	-92.513822
604.642220	-92.508997
604.764193	-91.458827
604.886216	-89.617556
605.008287	-88.600044
605.130408	-87.476427
605.252578	-86.681491
605.374798	-86.945267
605.497066	-87.325799
605.619385	-88.069229
605.741752	-89.763052
605.864169	-91.608346
605.986636	-93.828616
606.109152	-97.413169
606.231718	-101.655600
606.354333	-112.569575
606.476998	-106.490282
606.599712	-100.645721
606.722476	-98.563888
606.845290	-97.315299
606.968154	-97.786753
607.091067	-100.628784
607.214030	-103.485222
607.337043	-103.812346
607.460106	-106.604696
607.583219	-109.751202
607.706381	-106.944355
607.829594	-106.664971
607.952856	-105.429715
608.076169	-104.710006
608.199531	-106.652439
608.322944	-108.525040
608.446407	-106.847067
608.569920	-99.326863
608.693483	-95.195944
608.817096	-93.790985
608.940759	-92.423012
609.064473	-91.581338
609.188237	-91.700496
609.312051	-90.451294
609.435916	-89.189559
609.559831	-88.773421
609.683796	-87.820332
609.807812	-87.306476
609.931878	-87.719991
610.055995	-87.727479
610.180162	-87.729993
610.304380	-87.747152
610.428648	-86.962954
610.552967	-86.183745
610.677337	-85.432397
610.801757	-85.096353
610.926228	-85.146913
611.050750	-85.080255
611.175323	-85.266888
611.299946	-85.483721
611.424620	-85.561809
611.549345	-85.923711
611.674121	-86.237081
611.798948	-87.165777
611.923826	-88.971652
612.048755	-90.910711
612.173734	-94.676158
612.298765	-100.796938
612.423847	-105.186009
612.548980	-104.032633
612.674165	-103.802498
612.799400	-104.817909
612.924687	-105.560377
613.050025	-122.745887
613.175414	-108.460916
613.300854	-101.615470
613.426346	-95.818606
613.551889	-94.535031
613.677484	-91.755933
613.803130	-89.335172
613.928827	-88.962070
614.054576	-87.361573
614.180377	-85.926966
614.306229	-85.773432
614.432132	-84.919610
614.558087	-84.291076
614.684094	-84.739719
614.810153	-84.281343
614.936263	-83.894629
615.062425	-83.839185
615.188639	-82.907372
615.314904	-82.509063
615.441222	-82.642769
615.567591	-82.974949
615.694012	-83.860981
615.820486	-84.815299
615.947011	-85.875910
616.073588	-86.271874
616.200217	-85.917785
616.326898	-86.468098
616.453632	-86.613077
616.580417	-87.576924
616.707255	-89.871839
616.834144	-90.383543
616.961086	-90.456145
617.088081	-89.973462
617.215127	-88.365939
617.342226	-88.087975
617.469378	-88.129266
617.596581	-87.651996
617.723837	-87.148760
617.851146	-85.917422
617.978507	-84.551777
618.105920	-83.482991
618.233386	-82.526898
618.360905	-82.021420
618.488476	-82.212428
618.616100	-82.806740
618.743777	-83.979357
618.871506	-85.688148
618.999288	-87.669811
619.127123	-89.753285
619.255011	-92.863163
619.382951	-97.743045
619.510945	-102.132219
619.638991	-95.982897
619.767090	-92.096595
619.895243	-90.691671
620.023448	-90.138999
620.151706	-89.242814
620.280017	-88.659521
620.408382	-88.170084
620.536799	-87.586242
620.665270	-87.499748
620.793794	-88.260987
620.922371	-89.161559
621.051002	-89.930160
621.179686	-91.110528
621.308423	-92.566600
621.437213	-95.541466
621.566057	-95.183418
621.694954	-92.728004
621.823905	-92.806267
621.952909	-92.642439
622.081967	-92.553586
622.211079	-92.783184
622.340244	-91.688178
622.469462	-91.910353
622.598735	-93.874925
622.728061	-96.052638
622.857441	-97.064674
622.986874	-98.213372
623.116361	-100.564222
623.245903	-101.200062
623.375498	-102.035176
623.505147	-97.622557
623.634850	-93.224246
623.764606	-91.004630
623.894417	-88.484891
624.024282	-87.093599
624.154201	-86.297329
624.284174	-85.181400
624.414202	-84.585268
624.544283	-85.227794
624.674419	-86.642634
624.804609	-88.586809
624.934853	-90.262652
625.065151	-90.253479
625.195504	-89.197891
625.325911	-87.775757
625.456373	-86.255072
625.586889	-84.619225
625.717460	-83.742466
625.848085	-83.181382
625.978764	-82.777907
626.109498	-82.664731
626.240287	-82.680549
626.371131	-82.440175
626.502029	-82.197859
626.632982	-81.810536
626.763989	-81.323132
626.895052	-80.861702
627.026169	-80.477707
627.157341	-80.325445
627.288568	-80.577902
627.419850	-80.976436
627.551187	-81.760236
627.682579	-83.528006
627.814026	-85.259840
627.945528	-86.980454
628.077085	-90.822877
628.208697	-99.140216
628.340364	-100.008208
628.472087	-90.408596
628.603865	-86.665975
628.735698	-84.782970
628.867586	-84.018143
628.999530	-84.313975
629.131529	-84.715245
629.263584	-84.829348
629.395694	-85.666544
629.527859	-86.352105
629.660080	-86.874537
629.792357	-87.955512
629.924689	-88.183095
630.057077	-87.405638
630.189520	-86.672690
630.322019	-84.327016
630.454574	-82.002875
630.587184	-80.342279
630.719851	-79.153096
630.852573	-78.643439
630.985351	-78.962247
631.118185	-79.511543
631.251075	-80.228210
631.384021	-81.258782
631.517023	-82.284100
631.650081	-83.130890
631.783195	-83.747248
631.916365	-83.764803
632.049592	-83.977662
632.182874	-84.572135
632.316213	-84.310044
632.449608	-83.504323
632.583059	-82.437628
632.716567	-80.953946
632.850131	-80.280299
632.983751	-80.694496
633.117428	-81.874711
633.251161	-83.560509
633.384951	-85.349123
633.518797	-86.137584
633.652700	-85.437665
633.786660	-83.690248
633.920676	-81.617412
634.054749	-80.263522
634.188879	-79.710792
634.323065	-79.780887
634.457308	-80.670567
634.591608	-82.156577
634.725965	-83.398365
634.860379	-84.721312
634.994850	-86.151565
635.129377	-88.778914
635.263962	-94.994765
635.398604	-113.793407
635.533303	-96.213305
635.668058	-94.579838
635.802872	-102.757554
635.937742	-99.531966
636.072669	-90.977772
636.207654	-86.663828
636.342696	-84.894518
636.477796	-85.138321
636.612953	-86.068120
636.748167	-88.163699
636.883439	-89.783242
637.018768	-90.523499
637.154155	-95.069761
637.289599	-103.212732
637.425101	-97.773290
637.560660	-92.100929
637.696277	-92.562656
637.831952	-100.880248
637.967685	-98.289742
638.103475	-88.531798
638.239324	-85.021652
638.375230	-84.345729
638.511194	-84.971573
638.647215	-87.053590
638.783295	-90.273048
638.919433	-90.468505
639.055629	-89.849983
639.191883	-88.534372
639.328195	-87.235120
639.464565	-85.447903
639.600994	-84.242169
639.737481	-84.741626
639.874025	-87.030834
640.010629	-89.552344
640.147290	-86.542064
640.284010	-83.120957
640.420789	-81.470723
640.557625	-81.487600
640.694521	-82.153291
640.831474	-82.951337
640.968487	-84.425971
641.105558	-87.085480
641.242687	-94.638935
641.379876	-86.704335
641.517123	-80.584243
641.654429	-77.104205
641.791793	-75.265172
641.929216	-74.837292
642.066699	-75.002852
642.204240	-75.351971
642.341840	-75.951739
642.479499	-76.725107
642.617217	-77.808304
642.754994	-79.261308
642.892830	-80.742450
643.030726	-81.861873
643.168680	-82.189048
643.306694	-81.831068
643.444767	-81.130866
643.582899	-80.004069
643.721091	-79.471984
643.859342	-79.745388
643.997652	-80.840583
644.136022	-82.904216
644.274451	-83.447168
644.412940	-83.479151
644.551488	-83.522688
644.690096	-82.310000
644.828763	-80.147004
644.967490	-77.983206
645.106277	-76.947122
645.245124	-77.108399
645.384030	-78.465514
645.522997	-80.904540
645.662023	-83.166099
645.801109	-83.968315
645.940255	-83.262365
646.079460	-81.222649
646.218726	-79.151981
646.358052	-77.962955
646.497438	-77.288951
646.636884	-77.652208
646.776391	-78.871231
646.915957	-80.015459
647.055584	-81.472674
647.195271	-82.885283
647.335019	-86.196712
647.474826	-98.431890
647.614695	-91.677063
647.754623	-84.475664
647.894612	-81.822597
648.034662	-81.571385
648.174772	-82.137076
648.314943	-83.727772
648.455174	-87.333750
648.595466	-96.258846
648.735819	-90.224630
648.876233	-82.145717
649.016707	-78.420401
649.157242	-76.669400
649.297838	-76.033115
649.438495	-76.523390
649.579213	-77.604314
649.719992	-78.689853
649.860832	-80.799502
650.001733	-84.306936
650.142695	-86.480614
650.283718	-82.922303
650.424803	-80.413528
650.565949	-79.504148
650.707156	-80.170033
650.848424	-82.647996
650.989754	-83.422359
651.131145	-81.243623
651.272597	-79.149002
651.414111	-77.985727
651.555687	-77.699665
651.697324	-78.275009
651.839022	-79.972872
651.980782	-83.535027
652.122604	-85.475716
652.264488	-82.477659
652.406433	-80.587974
652.548441	-81.423882
652.690510	-87.382818
652.832640	-91.730451
652.974833	-84.301768
653.117088	-81.374153
653.259405	-81.994817
653.401784	-86.487884
653.544224	-95.223029
653.686727	-98.247750
653.829293	-89.147806
653.971920	-83.929072
654.114609	-79.423337
654.257361	-76.894462
654.400175	-75.607108
654.543052	-75.214558
654.685991	-75.566235
654.828992	-75.858149
654.972056	-76.362963
655.115183	-78.261411
655.258372	-82.673150
655.401623	-93.501201
655.544937	-87.424602
655.688314	-83.844578
655.831754	-85.731867
655.975256	-93.708720
656.118822	-86.887497
656.262450	-81.879959
656.406141	-79.676209
656.549894	-78.890076
656.693711	-78.376748
656.837591	-78.000308
656.981534	-78.803121
657.125540	-81.333406
657.269610	-88.927886
657.413742	-91.496218
657.557938	-83.667122
657.702196	-80.901067
657.846519	-79.935304
657.990904	-79.685801
658.135353	-79.264785
658.279866	-80.698627
658.424441	-85.286203
658.569081	-99.088126
658.713784	-86.047743
658.858550	-82.181229
659.003381	-81.039409
659.148274	-79.616362
659.293232	-78.269669
659.438253	-77.328114
659.583339	-77.678410
659.728488	-79.901056
659.873701	-83.788984
660.018978	-88.995976
660.164318	-94.276428
660.309723	-89.495270
660.455192	-83.650554
660.600725	-80.501736
660.746323	-79.312689
660.891984	-79.184062
661.037710	-79.177658
661.183500	-77.414938
661.329354	-76.073848
661.475272	-75.872238
661.621255	-76.540459
661.767303	-78.283420
661.913415	-79.271077
662.059591	-80.644683
662.205833	-85.878400
662.352138	-103.101495
662.498509	-83.403802
662.644944	-78.948448
662.791443	-77.732906
662.938008	-78.085588
663.084638	-79.779837
663.231332	-83.153885
663.378091	-88.445887
663.524915	-99.265439
663.671804	-87.054921
663.818759	-82.404496
663.965778	-79.931307
664.112863	-80.045585
664.260012	-83.431539
664.407227	-88.908569
664.554507	-88.512809
664.701853	-84.651342
664.849264	-82.751400
664.996740	-80.352759
665.144282	-77.904997
665.291889	-77.155403
665.439561	-78.173320
665.587300	-80.679165
665.735103	-84.898161
665.882973	-88.271532
666.030908	-92.739669
666.178909	-90.957328
666.326976	-83.474009
666.475109	-79.361522
666.623307	-78.066455
666.771571	-77.739705
666.919902	-77.914522
667.068298	-77.293400
667.216761	-76.799515
667.365289	-78.144103
667.513884	-82.498352
667.662545	-93.280134
667.811272	-88.696019
667.960065	-87.463960
668.108925	-86.145796
668.257851	-81.786471
668.406843	-78.928788
668.555902	-79.297428
668.705027	-82.969056
668.854219	-94.714704
669.003478	-88.702489
669.152803	-83.517581
669.302195	-81.328722
669.451653	-78.906553
669.601179	-76.540471
669.750771	-75.298994
669.900430	-75.362348
670.050156	-76.976124
670.199949	-80.158432
670.349808	-83.462507
670.499735	-84.285021
670.649729	-82.261561
670.799790	-80.336877
670.949918	-80.533797
671.100114	-84.522049
671.250377	-98.106979
671.400707	-84.045341
671.551104	-80.460814
671.701569	-80.242160
671.852101	-79.552862
672.002700	-77.105575
672.153368	-75.549236
672.304102	-76.024078
672.454905	-78.710570
672.605775	-81.935366
672.756713	-80.794490
672.907718	-78.958150
673.058791	-79.409679
673.209933	-81.772875
673.361142	-84.713780
673.512419	-85.794626
673.663764	-82.939302
673.815177	-79.753870
673.966658	-77.901891
674.118207	-77.725556
674.269825	-79.537649
674.421510	-80.944653
674.573264	-79.291677
674.725086	-78.476335
674.876977	-80.024487
675.028936	-84.958736
675.180963	-92.623583
675.333059	-93.977484
675.485224	-90.557701
675.637457	-84.147572
675.789758	-80.880737
675.942129	-80.194546
676.094568	-81.902455
676.247075	-83.243906
676.399652	-82.533258
676.552298	-82.290647
676.705012	-84.010354
676.857795	-90.919779
677.010648	-93.648420
677.163569	-85.378652
677.316560	-84.206902
677.469619	-86.656014
677.622748	-85.591036
677.775946	-83.843932
677.929214	-85.173424
678.082551	-88.245764
678.235957	-83.015351
678.389432	-80.443355
678.542977	-81.513714
678.696592	-85.545393
678.850276	-84.788198
679.004030	-83.515655
679.157853	-86.321615
679.311746	-86.064991
679.465709	-82.352670
679.619742	-82.864050
679.773844	-89.368598
679.928017	-87.879830
680.082259	-82.438539
680.236571	-80.946923
680.390954	-81.559847
680.545406	-82.167724
680.699929	-82.450105
680.854522	-83.039349
681.009185	-84.337256
681.163918	-82.290831
681.318722	-78.828676
681.473596	-77.632005
681.628540	-78.900728
681.783555	-79.276036
681.938641	-76.880632
682.093797	-76.555387
682.249023	-80.439542
682.404321	-87.938372
682.559689	-80.144327
682.715128	-78.705398
682.870637	-83.713673
683.026218	-91.864388
683.181869	-81.436174
683.337591	-81.839129
683.493385	-88.375163
683.649249	-80.563455
683.805185	-77.306430
683.961191	-79.125520
684.117269	-89.194365
684.273418	-85.514550
684.429639	-81.133150
684.585930	-84.277338
684.742294	-94.930869
684.898728	-82.875547
685.055234	-79.330708
685.211812	-80.059633
685.368461	-82.224936
685.525182	-81.184279
685.681975	-79.530114
685.838839	-82.456926
685.995775	-98.800637
686.152783	-80.182863
686.309863	-76.306820
686.467014	-77.172494
686.624238	-80.355888
686.781534	-76.557670
686.938902	-74.252440
687.096342	-75.469018
687.253854	-80.764292
687.411438	-80.419659
687.569095	-77.644838
687.726824	-78.014494
687.884626	-76.896955
688.042499	-75.026368
688.200446	-75.173324
688.358465	-75.372254
688.516556	-72.898171
688.674720	-71.472433
688.832957	-72.843022
688.991266	-78.055826
689.149649	-83.785048
689.308104	-79.248149
689.466632	-80.907805
689.625233	-93.167659
689.783906	-79.543706
689.942653	-75.749853
690.101473	-76.991338
690.260367	-80.240918
690.419333	-77.712972
690.578372	-76.725414
690.737485	-82.756790
690.896672	-79.503057
691.055931	-72.479270
691.215264	-70.951046
691.374671	-72.640295
691.534151	-73.672066
691.693704	-71.357319
691.853332	-71.144383
692.013033	-75.305442
692.172807	-92.640213
692.332656	-80.094312
692.492578	-80.749742
692.652575	-87.741922
692.812645	-75.875570
692.972789	-73.458142
693.133007	-76.390325
693.293300	-76.542877
693.453666	-71.437093
693.614107	-70.662380
693.774622	-74.825613
693.935211	-81.495968
694.095875	-74.128252
694.256613	-73.871349
694.417426	-81.690050
694.578313	-78.650376
694.739274	-73.140600
694.900311	-74.050972
695.061421	-80.266365
695.222607	-77.524980
695.383868	-75.207813
695.545203	-79.916541
695.706613	-81.674824
695.868098	-73.863235
696.029658	-72.932914
696.191293	-75.766447
696.353003	-76.191002
696.514789	-73.671112
696.676649	-75.063610
696.838585	-84.446252
697.000596	-82.451059
697.162682	-77.925030
697.324844	-83.507821
697.487081	-81.413418
697.649394	-73.625923
697.811782	-72.177752
697.974246	-73.892051
698.136786	-73.447706
698.299401	-71.129253
698.462092	-71.804643
698.624859	-77.856629
698.787702	-79.040165
698.950621	-73.002106
699.113616	-73.081082
699.276686	-78.279583
699.439833	-82.400876
699.603056	-79.374530
699.766355	-91.227125
699.929731	-77.769959
700.093183	-71.783327
700.256711	-71.540873
700.420315	-76.444661
700.583996	-76.109553
700.747754	-72.002960
700.911588	-73.204905
701.075499	-82.866001
701.239486	-77.690235
701.403550	-75.027197
701.567691	-82.279771
701.731909	-79.954631
701.896203	-73.113587
702.060575	-74.665595
702.225024	-86.866672
702.389549	-74.615252
702.554152	-71.690783
702.718832	-75.707638
702.883589	-82.805416
703.048424	-73.858267
703.213335	-74.550663
703.378324	-86.326319
703.543391	-73.314924
703.708535	-70.494405
703.873757	-73.956832
704.039056	-78.802191
704.204433	-71.863228
704.369887	-71.850404
704.535420	-79.763247
704.701030	-78.675141
704.866718	-75.189154
705.032484	-82.249654
705.198328	-74.473822
705.364250	-69.731766
705.530250	-70.664428
705.696328	-72.256559
705.862485	-67.864462
706.028720	-66.155530
706.195033	-68.333290
706.361424	-76.448064
706.527894	-85.101040
706.694442	-81.044809
706.861069	-75.894086
707.027775	-70.244482
707.194559	-69.675163
707.361422	-73.510720
707.528363	-73.061629
707.695384	-69.730391
707.862483	-71.353911
708.029661	-81.986513
708.196918	-77.896751
708.364254	-75.374668
708.531670	-80.431480
708.699164	-72.023522
708.866738	-68.471303
709.034391	-69.555766
709.202123	-72.213236
709.369935	-69.497154
709.537826	-68.372048
709.705796	-71.446694
709.873847	-79.958148
710.041976	-80.989289
710.210186	-77.671350
710.378475	-71.091142
710.546844	-67.387815
710.715292	-67.179628
710.883821	-70.237780
711.052429	-72.809683
711.221118	-71.125067
711.389887	-72.530923
711.558735	-82.338254
711.727664	-83.095322
711.896673	-81.464485
712.065763	-78.286813
712.234932	-69.510682
712.404183	-66.915788
712.573513	-67.942703
712.742924	-68.594095
712.912416	-65.902299
713.081988	-65.224264
713.251641	-68.060548
713.421375	-73.082362
713.591190	-73.475419
713.761085	-76.987656
713.931061	-73.161946
714.101119	-67.985027
714.271257	-68.290744
714.441476	-71.408668
714.611777	-68.068570
714.782159	-66.910499
714.952622	-71.710254
715.123166	-72.745140
715.293792	-67.514581
715.464499	-69.445508
715.635288	-79.809744
715.806158	-69.976928
715.977110	-69.497381
716.148143	-76.467553
716.319259	-68.206049
716.490456	-65.605829
716.661735	-69.205989
716.833096	-73.959705
717.004538	-69.219483
717.176063	-73.157904
717.347670	-76.340537
717.519359	-67.099128
717.691130	-66.943435
717.862984	-68.196955
718.034920	-64.104846
718.206938	-63.204762
718.379039	-67.082403
718.551222	-69.374915
718.723488	-65.948171
718.895836	-68.387388
719.068267	-79.800141
719.240781	-72.277842
719.413377	-75.339871
719.586057	-70.371484
719.758819	-63.784518
719.931664	-62.853297
720.104593	-64.299706
720.277604	-63.426630
720.450699	-62.804314
720.623876	-65.850417
720.797137	-71.871615
720.970482	-72.213683
721.143910	-78.457489
721.317421	-70.552556
721.491016	-65.092503
721.664694	-64.262844
721.838456	-64.568425
722.012302	-63.779623
722.186231	-64.103292
722.360244	-66.160466
722.534342	-66.476214
722.708523	-65.381100
722.882788	-66.190093
723.057137	-67.740011
723.231570	-67.885471
723.406088	-68.330934
723.580689	-69.157699
723.755375	-66.296855
723.930146	-63.870703
724.105000	-63.560069
724.279940	-63.225224
724.454963	-62.529178
724.630072	-63.981787
724.805265	-68.666373
724.980543	-69.230094
725.155905	-68.159772
725.331353	-66.389758
725.506885	-62.111879
725.682503	-60.711865
725.858205	-61.717545
726.033993	-61.726530
726.209865	-61.245871
726.385823	-64.057299
726.561866	-69.812221
726.737995	-67.928101
726.914209	-70.209604
727.090508	-66.154375
727.266893	-61.494535
727.443364	-61.793129
727.619920	-63.089875
727.796562	-60.895610
727.973290	-61.296727
728.150103	-65.052527
728.327003	-63.490898
728.503988	-63.111115
728.681060	-68.069902
728.858218	-63.593624
729.035461	-61.407103
729.212791	-63.772423
729.390208	-62.505411
729.567710	-61.016467
729.745299	-64.873425
729.922975	-65.048826
730.100737	-61.457667
730.278586	-63.133984
730.456521	-62.264321
730.634543	-59.382375
730.812652	-60.810141
730.990848	-63.747965
731.169130	-61.816846
731.347500	-63.481650
731.525957	-65.938247
731.704500	-61.252173
731.883131	-61.161802
732.061850	-63.629815
732.240655	-62.044846
732.419548	-62.281341
732.598528	-64.775587
732.777596	-61.480376
732.956751	-60.344514
733.135994	-62.324275
733.315325	-61.964760
733.494744	-61.322750
733.674250	-63.136401
733.853844	-61.974824
734.033526	-60.206265
734.213296	-61.053447
734.393154	-61.643415
734.573101	-60.710993
734.753135	-61.690114
734.933258	-63.289009
735.113469	-61.962659
735.293769	-61.710009
735.474157	-62.175828
735.654633	-60.050370
735.835198	-59.110897
736.015852	-60.402747
736.196594	-60.199424
736.377426	-59.620562
736.558346	-61.894767
736.739355	-62.151353
736.920453	-60.609333
737.101640	-62.902053
737.282916	-62.956996
737.464282	-60.646511
737.645736	-62.251091
737.827280	-60.477998
738.008914	-57.710934
738.190637	-58.553521
738.372449	-59.405684
738.554351	-58.449448
738.736342	-61.398759
738.918424	-66.621908
739.100595	-61.791990
739.282855	-62.614636
739.465206	-60.947157
739.647647	-57.837452
739.830178	-59.148432
740.012799	-60.256271
740.195510	-58.200897
740.378311	-60.351144
740.561203	-63.701294
740.744185	-60.722856
740.927258	-62.475020
741.110421	-61.359731
741.293674	-57.855539
741.477018	-58.724886
741.660453	-59.339388
741.843979	-57.522520
742.027596	-59.411295
742.211303	-62.789458
742.395102	-60.721028
742.578991	-62.797359
742.762972	-62.446580
742.947044	-59.181702
743.131207	-60.848044
743.315461	-61.778286
743.499807	-59.602019
743.684244	-60.994780
743.868773	-59.770266
744.053394	-57.435962
744.238106	-58.424779
744.422910	-59.313097
744.607805	-58.694635
744.792793	-61.046555
744.977872	-63.019674
745.163044	-60.831689
745.348307	-61.495694
745.533663	-60.443721
745.719111	-58.535598
745.904651	-59.435542
746.090283	-60.386406
746.276008	-59.636896
746.461826	-61.061838
746.647735	-61.887828
746.833738	-59.724234
747.019833	-60.087603
747.206021	-60.283055
747.392302	-58.696950
747.578676	-60.028297
747.765143	-62.191590
747.951703	-60.626197
748.138356	-61.819137
748.325102	-61.433943
748.511941	-58.896438
748.698874	-60.308255
748.885900	-61.329125
749.073019	-59.592717
749.260232	-61.992704
749.447539	-62.205109
749.634939	-59.913171
749.822433	-61.871248
750.010021	-59.550774
750.197703	-57.770942
750.385479	-60.218331
750.573348	-60.664124
750.761312	-60.676638
750.949370	-65.245426
751.137523	-60.933593
751.325769	-59.709960
751.514110	-61.372723
751.702545	-59.187097
751.891075	-59.757241
752.079700	-63.806682
752.268419	-62.322670
752.457233	-64.123299
752.646142	-63.848683
752.835145	-59.456165
753.024244	-59.849929
753.213437	-59.922894
753.402726	-59.020427
753.592110	-61.957711
753.781589	-65.053823
753.971163	-63.497372
754.160833	-64.053565
754.350598	-60.309438
754.540459	-58.511504
754.730415	-59.592573
754.920467	-60.105588
755.110615	-61.266473
755.300858	-66.627434
755.491198	-66.823818
755.681633	-65.099435
755.872164	-63.887063
756.062792	-60.509092
756.253515	-59.894209
756.444335	-60.630473
756.635252	-60.595115
756.826264	-62.996244
757.017373	-68.289756
757.208579	-65.323714
757.399881	-63.862848
757.591280	-61.448130
757.782776	-59.512363
757.974368	-60.589170
758.166058	-61.951118
758.357844	-62.680091
758.549728	-68.209663
758.741708	-67.983329
758.933786	-65.250729
759.125961	-65.076541
759.318233	-62.742063
759.510603	-64.146781
759.703071	-67.422397
759.895635	-64.003045
760.088298	-64.265595
760.281058	-63.023255
760.473916	-61.342989
760.666872	-63.665816
760.859926	-64.629891
761.053078	-65.257423
761.246328	-76.005498
761.439676	-70.725248
761.633122	-66.767611
761.826667	-62.097731
762.020310	-59.324215
762.214052	-60.179098
762.407892	-62.326533
762.601831	-64.585513
762.795868	-76.395200
762.990004	-68.588732
763.184239	-63.880329
763.378573	-62.279205
763.573006	-61.023207
763.767538	-62.794666
763.962169	-70.334558
764.156900	-79.887307
764.351729	-70.832083
764.546658	-64.097223
764.741687	-62.224523
764.936815	-63.100571
765.132042	-62.752912
765.327370	-64.138683
765.522797	-71.497918
765.718324	-74.224218
765.913950	-66.854661
766.109677	-61.601797
766.305504	-59.703839
766.501431	-60.578639
766.697458	-63.408786
766.893586	-69.173365
767.089814	-71.832282
767.286142	-63.778832
767.482571	-60.647590
767.679100	-59.127974
767.875730	-58.566734
768.072461	-60.020820
768.269293	-63.798340
768.466225	-69.112358
768.663259	-69.978357
768.860393	-63.967002
769.057629	-61.805110
769.254966	-62.155772
769.452404	-63.289389
769.649944	-66.210741
769.847585	-70.718398
770.045328	-65.024814
770.243172	-61.347456
770.441118	-58.825330
770.639166	-57.840331
770.837315	-59.245179
771.035567	-61.959559
771.233920	-65.556202
771.432376	-64.987243
771.630934	-60.036350
771.829594	-58.469987
772.028356	-57.832322
772.227220	-58.826802
772.426188	-63.555612
772.625257	-73.092243
772.824430	-64.102718
773.023705	-58.378591
773.223083	-56.057096
773.422563	-55.750718
773.622147	-56.085300
773.821834	-57.080091
774.021624	-58.837657
774.221517	-60.749257
774.421513	-64.219326
774.621613	-62.282126
774.821816	-59.208365
775.022122	-57.397456
775.222532	-57.240350
775.423046	-59.293864
775.623664	-60.135750
775.824385	-58.852116
776.025211	-56.672025
776.226140	-55.247960
776.427173	-55.541042
776.628311	-55.927266
776.829553	-56.945177
777.030899	-58.461796
777.232350	-58.072836
777.433905	-58.226524
777.635564	-57.292574
777.837328	-56.726636
778.039197	-57.045258
778.241171	-56.265667
778.443250	-56.688405
778.645433	-56.559598
778.847722	-55.594651
779.050116	-54.813913
779.252615	-53.560391
779.455219	-53.857029
779.657929	-55.474228
779.860744	-56.853737
780.063665	-57.344972
780.266691	-55.730140
780.469823	-54.977142
780.673061	-55.062565
780.876405	-54.771994
781.079855	-54.524360
781.283410	-54.369315
781.487072	-54.446482
781.690840	-54.460888
781.894715	-53.717339
782.098695	-52.748625
782.302783	-52.724600
782.506976	-53.168418
782.711277	-54.129154
782.915684	-55.754394
783.120198	-55.893542
783.324818	-55.180032
783.529546	-53.177325
783.734381	-51.676718
783.939322	-51.684528
784.144372	-51.716933
784.349528	-52.767704
784.554792	-53.414747
784.760163	-53.117389
784.965642	-53.378953
785.171228	-52.282617
785.376922	-52.119864
785.582724	-52.303219
785.788634	-52.657843
785.994651	-53.873994
786.200777	-52.880207
786.407011	-52.219083
786.613353	-51.574401
786.819804	-50.989252
787.026363	-51.376144
787.233030	-51.204274
787.439806	-52.019558
787.646691	-52.558677
787.853684	-51.792600
788.060786	-51.219128
788.267997	-50.579273
788.475317	-51.305476
788.682746	-52.093181
788.890285	-52.032072
789.097932	-51.806156
789.305689	-51.074256
789.513555	-50.641811
789.721531	-49.851116
789.929617	-49.307071
790.137812	-49.741542
790.346117	-50.602795
790.554531	-51.724413
790.763056	-51.869277
790.971691	-51.290496
791.180436	-50.864208
791.389291	-50.200733
791.598256	-49.791325
791.807332	-49.544742
792.016518	-49.475420
792.225815	-49.912444
792.435222	-49.874130
792.644740	-50.032114
792.854369	-49.831919
793.064109	-49.583928
793.273960	-49.984746
793.483922	-50.148416
793.693995	-50.620259
793.904180	-49.793390
794.114475	-49.042423
794.324882	-49.027074
794.535401	-49.108006
794.746031	-49.695477
794.956774	-49.101128
795.167627	-48.966020
795.378593	-49.281750
795.589671	-49.258282
795.800861	-49.517549
796.012162	-48.916681
796.223577	-49.266031
796.435103	-49.229356
796.646742	-48.591548
796.858493	-48.489919
797.070357	-48.376214
797.282334	-49.264662
797.494423	-49.029767
797.706626	-48.272159
797.918941	-48.268230
798.131369	-48.296358
798.343911	-49.089455
798.556566	-48.629251
798.769334	-48.471890
798.982215	-48.859199
799.195210	-48.685137
799.408319	-48.683905
799.621541	-47.680004
799.834877	-47.650526
800.048327	-47.923062
800.261890	-47.866340
800.475568	-48.341624
800.689360	-47.856388
800.903266	-48.317464
801.117287	-48.314655
801.331422	-48.244501
801.545671	-48.488296
801.760036	-47.683604
801.974514	-48.114759
802.189108	-47.527207
802.403816	-47.550638
802.618640	-47.108774
802.833578	-46.799364
803.048632	-47.994028
803.263800	-48.237490
803.479085	-48.682903
803.694484	-47.407826
803.909999	-47.355226
804.125630	-47.887612
804.341376	-47.642439
804.557239	-47.510922
804.773217	-46.618786
804.989311	-47.311551
805.205521	-47.327538
805.421847	-47.342328
805.638290	-47.407169
805.854849	-47.442929
806.071524	-48.056547
806.288316	-47.184976
806.505225	-47.161348
806.722250	-46.871653
806.939393	-46.979802
807.156652	-46.820512
807.374028	-46.648555
807.591521	-47.509559
807.809132	-47.530440
808.026859	-47.513470
808.244705	-46.717771
808.462667	-46.797390
808.680748	-46.987289
808.898946	-46.881098
809.117261	-47.114099
809.335695	-46.930197
809.554246	-47.266680
809.772916	-46.747386
809.991704	-46.709266
810.210610	-46.706715
810.429634	-46.762121
810.648777	-47.115124
810.868039	-46.853058
811.087419	-47.076005
811.306918	-46.375177
811.526535	-46.619927
811.746272	-46.795126
811.966127	-47.101854
812.186102	-46.854686
812.406196	-46.312100
812.626409	-46.786914
812.846742	-46.537225
813.067194	-46.749434
813.287766	-46.377600
813.508457	-47.120793
813.729269	-47.088917
813.950200	-46.337444
814.171251	-45.992421
814.392422	-46.187453
814.613714	-47.483673
814.835126	-47.038582
815.056658	-46.816288
815.278311	-46.077417
815.500084	-46.066806
815.721978	-45.915901
815.943993	-46.126000
816.166128	-47.147798
816.388385	-47.056173
816.610762	-46.988999
816.833261	-46.159523
817.055881	-46.479399
817.278623	-46.097201
817.501486	-46.175440
817.724471	-46.472859
817.947577	-46.760957
818.170805	-46.811741
818.394155	-46.080482
818.617627	-46.514823
818.841221	-46.351958
819.064937	-46.648120
819.288775	-46.247662
819.512736	-46.658674
819.736819	-46.557087
819.961025	-46.060982
820.185354	-45.920860
820.409805	-45.921897
820.634379	-46.675551
820.859076	-46.598952
821.083897	-47.188483
821.308840	-46.527693
821.533907	-46.078983
821.759097	-45.656559
821.984411	-46.399642
822.209848	-47.060247
822.435409	-46.478224
822.661093	-46.165257
822.886902	-46.138487
823.112834	-46.649363
823.338891	-45.944295
823.565072	-46.286116
823.791377	-46.704296
824.017807	-47.124989
824.244361	-46.062985
824.471039	-45.774120
824.697843	-46.091798
824.924771	-46.223047
825.151824	-46.235659
825.379002	-46.174626
825.606306	-46.915960
825.833734	-46.502736
826.061288	-46.554744
826.288967	-46.160056
826.516772	-46.415725
826.744703	-45.983866
826.972759	-46.332244
827.200941	-46.482101
827.429249	-46.294804
827.657683	-46.161260
827.886243	-46.513873
828.114930	-47.125397
828.343743	-46.116747
828.572682	-45.898202
828.801748	-45.993182
829.030941	-46.995053
829.260260	-46.311841
829.489706	-46.323855
829.719280	-46.228601
829.948980	-46.542003
830.178808	-46.283295
830.408763	-46.543753
830.638845	-46.774633
830.869055	-46.055740
831.099393	-45.812087
831.329858	-45.792225
831.560451	-46.676874
831.791173	-46.150115
832.022022	-46.664056
832.252999	-46.341829
832.484105	-46.580852
832.715339	-45.699407
832.946702	-46.306542
833.178193	-46.089761
833.409813	-46.048559
833.641561	-45.965771
833.873439	-47.027799
834.105445	-47.068144
834.337581	-46.002629
834.569846	-45.762072
834.802241	-46.055284
835.034764	-46.471115
835.267418	-45.831817
835.500201	-46.484250
835.733114	-46.213808
835.966157	-46.325272
836.199329	-45.903930
836.432632	-47.072977
836.666065	-46.343007
836.899629	-46.023300
837.133323	-45.693646
837.367147	-46.534443
837.601102	-45.748786
837.835188	-45.501047
838.069405	-45.660503
838.303752	-46.375855
838.538231	-46.373520
838.772841	-46.472834
839.007582	-46.319299
839.242455	-45.565387
839.477459	-45.385099
839.712595	-45.716614
839.947863	-46.192472
840.183263	-45.475444
840.418794	-45.928954
840.654458	-46.129078
840.890254	-46.200265
841.126182	-45.279774
841.362242	-45.805347
841.598435	-45.513697
841.834761	-45.574176
842.071220	-45.367024
842.307811	-46.312988
842.544536	-45.398428
842.781393	-45.298932
843.018384	-45.345918
843.255508	-46.194102
843.492765	-45.116944
843.730156	-45.177116
843.967681	-44.931987
844.205339	-45.030065
844.443132	-44.548969
844.681058	-45.710447
844.919118	-45.880277
845.157313	-45.452575
845.395642	-44.636833
845.634105	-44.897989
845.872703	-44.156527
846.111436	-44.299304
846.350303	-45.142801
846.589306	-45.967074
846.828443	-44.589753
847.067716	-44.300974
847.307124	-44.658547
847.546667	-44.874445
847.786345	-44.135909
848.026160	-44.472057
848.266110	-44.706133
848.506195	-44.536555
848.746417	-43.929854
848.986775	-44.109231
849.227269	-44.250107
849.467899	-44.721472
849.708666	-44.536969
849.949569	-43.798873
850.190609	-43.080545
850.431785	-43.503258
850.673099	-43.969177
850.914549	-44.202353
851.156137	-44.332580
851.397861	-44.297674
851.639723	-42.920674
851.881723	-42.458487
852.123860	-43.210136
852.366135	-44.113453
852.608547	-43.442461
852.851098	-43.232088
853.093786	-43.364931
853.336613	-43.088867
853.579578	-42.630329
853.822681	-43.161582
854.065923	-43.036461
854.309304	-42.473211
854.552823	-42.500107
854.796481	-43.305381
855.040278	-42.744416
855.284215	-42.290601
855.528290	-42.428213
855.772505	-42.708933
856.016859	-42.038892
856.261353	-42.184059
856.505987	-42.359329
856.750760	-42.346718
856.995673	-41.866836
857.240727	-42.064841
857.485920	-41.732376
857.731254	-41.905730
857.976729	-42.027475
858.222343	-42.050161
858.468099	-41.194970
858.713995	-41.296692
858.960032	-41.443375
859.206211	-41.787548
859.452530	-41.615022
859.698991	-41.577405
859.945593	-40.894120
860.192336	-40.995564
860.439222	-41.161678
860.686248	-41.076435
860.933417	-40.733928
861.180728	-41.375797
861.428181	-41.246136
861.675776	-40.451132
861.923514	-40.293678
862.171394	-40.796719
862.419417	-40.471003
862.667582	-40.340293
862.915890	-40.951805
863.164342	-40.714691
863.412936	-39.850020
863.661674	-39.908883
863.910555	-40.528273
864.159579	-40.007022
864.408747	-39.735340
864.658059	-40.088034
864.907515	-40.385661
865.157114	-39.785831
865.406858	-39.572857
865.656746	-39.272145
865.906778	-39.497759
866.156955	-39.837321
866.407277	-39.923371
866.657743	-39.093350
866.908354	-39.026714
867.159110	-39.374634
867.410011	-39.482265
867.661057	-39.129167
867.912249	-38.993061
868.163586	-38.855961
868.415069	-38.858359
868.666697	-39.070912
868.918472	-38.864628
869.170392	-38.709916
869.422458	-38.709628
869.674671	-38.643859
869.927030	-38.255146
870.179536	-38.595385
870.432188	-38.738401
870.684987	-38.340522
870.937933	-38.131336
871.191026	-38.455355
871.444266	-38.102032
871.697653	-37.954625
871.951188	-38.477425
872.204870	-38.366411
872.458700	-37.566686
872.712677	-37.623141
872.966803	-38.176115
873.221076	-37.925316
873.475498	-37.717247
873.730068	-37.836405
873.984787	-37.711012
874.239654	-37.440169
874.494669	-37.663400
874.749834	-37.571952
875.005147	-37.398109
875.260610	-37.516308
875.516222	-37.482596
875.771983	-37.189162
876.027894	-37.162741
876.283954	-37.243143
876.540164	-37.080961
876.796524	-37.224640
877.053033	-37.149767
877.309693	-36.864897
877.566503	-36.908725
877.823464	-37.112197
878.080575	-36.781091
878.337837	-36.553703
878.595249	-36.801241
878.852813	-36.759560
879.110528	-36.736724
879.368393	-36.783836
879.626410	-36.490114
879.884579	-36.217077
880.142899	-36.543508
880.401371	-36.585733
880.659994	-36.288767
880.918770	-36.410379
881.177698	-36.453915
881.436778	-36.138984
881.696010	-36.142825
881.955395	-36.204098
882.214933	-35.929728
882.474623	-36.218055
882.734467	-36.481119
882.994463	-35.883347
883.254613	-35.522437
883.514916	-36.049344
883.775372	-36.151560
884.035982	-35.716893
884.296746	-35.734235
884.557664	-35.785754
884.818735	-35.788038
885.079961	-35.786637
885.341341	-35.620770
885.602876	-35.359125
885.864565	-35.546348
886.126409	-35.662459
886.388407	-35.453519
886.650561	-35.467166
886.912870	-35.396695
887.175334	-35.230601
887.437953	-35.274235
887.700728	-35.268044
887.963658	-35.129814
888.226745	-35.315482
888.489987	-35.271537
888.753385	-34.835459
889.016940	-34.932891
889.280651	-35.222882
889.544518	-34.925439
889.808543	-34.816139
890.072723	-35.019167
890.337061	-34.805290
890.601556	-34.738430
890.866208	-34.904786
891.131017	-34.617120
891.395984	-34.490001
891.661109	-34.844891
891.926391	-34.767303
892.191831	-34.389472
892.457429	-34.405789
892.723186	-34.439874
892.989100	-34.486209
893.255173	-34.611123
893.521405	-34.260610
893.787796	-34.154227
894.054345	-34.505305
894.321053	-34.246047
894.587921	-33.905859
894.854948	-34.294503
895.122134	-34.468549
895.389480	-33.982136
895.656986	-33.979862
895.924651	-34.074394
896.192477	-33.865754
896.460463	-33.987256
896.728609	-34.028287
896.996915	-33.859581
897.265382	-33.877065
897.534010	-33.855996
897.802799	-33.638215
898.071749	-33.606081
898.340860	-33.634705
898.610132	-33.709000
898.879566	-33.922678
899.149162	-33.498568
899.418919	-33.190791
899.688838	-33.568536
899.958919	-33.596357
900.229162	-33.276020
900.499568	-33.429361
900.770136	-33.520466
901.040867	-33.176703
901.311761	-33.247794
901.582817	-33.224546
901.854037	-33.019657
902.125420	-33.344757
902.396966	-33.233528
902.668676	-32.871596
902.940550	-33.083904
903.212587	-33.057130
903.484788	-32.711668
903.757153	-32.971949
904.029683	-33.242204
904.302377	-32.783431
904.575236	-32.599334
904.848259	-32.730646
905.121447	-32.797622
905.394800	-32.894363
905.668319	-32.672401
905.942002	-32.566354
906.215852	-32.773046
906.489866	-32.507134
906.764047	-32.272975
907.038393	-32.685120
907.312906	-32.767033
907.587584	-32.315170
907.862429	-32.320516
908.137441	-32.455237
908.412619	-32.333759
908.687964	-32.279152
908.963476	-32.243810
909.239155	-32.365017
909.515002	-32.318196
909.791015	-31.940770
910.067197	-32.087863
910.343546	-32.255359
910.620063	-31.931089
910.896748	-32.151367
911.173601	-32.247181
911.450623	-31.613270
911.727813	-31.754966
912.005171	-32.331886
912.282699	-31.893689
912.560395	-31.660490
912.838261	-32.011771
913.116296	-31.763832
913.394500	-31.574846
913.672874	-31.783813
913.951418	-31.684750
914.230131	-31.741580
914.509015	-31.730465
914.788068	-31.402543
915.067292	-31.544781
915.346687	-31.658254
915.626252	-31.395902
915.905988	-31.436419
916.185895	-31.532631
916.465973	-31.357086
916.746223	-31.195839
917.026644	-31.215568
917.307236	-31.403410
917.588000	-31.422468
917.868937	-31.121472
918.150045	-31.049719
918.431325	-31.155583
918.712778	-31.022434
918.994404	-31.143732
919.276202	-31.264431
919.558173	-30.835685
919.840317	-30.788725
920.122634	-30.995551
920.405125	-30.865854
920.687789	-30.903136
920.970627	-30.782635
921.253639	-30.615860
921.536824	-30.797871
921.820184	-30.519155
922.103718	-30.396190
922.387427	-30.853203
922.671310	-30.512761
922.955368	-30.132567
923.239601	-30.513037
923.524009	-30.407748
923.808592	-30.141307
924.093351	-30.407890
924.378285	-30.320452
924.663396	-30.088140
924.948682	-30.153576
925.234144	-30.104837
925.519782	-30.145795
925.805597	-30.188433
926.091589	-30.007683
926.377757	-30.025789
926.664102	-30.007434
926.950624	-29.881216
927.237323	-30.040205
927.524200	-30.050774
927.811255	-29.808653
928.098487	-29.765042
928.385897	-29.866549
928.673485	-29.926750
928.961251	-29.744277
929.249196	-29.671066
929.537319	-29.906585
929.825621	-29.627270
930.114102	-29.404509
930.402762	-29.908051
930.691601	-29.765876
930.980620	-29.303409
931.269818	-29.614948
931.559196	-29.623324
931.848753	-29.380061
932.138491	-29.598245
932.428409	-29.534938
932.718508	-29.392688
933.008787	-29.389535
933.299246	-29.291296
933.589887	-29.520736
933.880709	-29.478134
934.171712	-29.146597
934.462896	-29.371142
934.754262	-29.334931
935.045810	-29.091139
935.337539	-29.376053
935.629451	-29.305699
935.921545	-29.053770
936.213822	-29.144228
936.506281	-29.052056
936.798922	-29.083332
937.091747	-29.202287
937.384755	-28.976512
937.677946	-28.860297
937.971321	-28.907903
938.264879	-29.010642
938.558621	-29.001126
938.852547	-28.762666
939.146657	-28.817490
939.440952	-28.865595
939.735431	-28.694868
940.030095	-28.858221
940.324943	-28.864024
940.619977	-28.667765
940.915196	-28.683720
941.210600	-28.615125
941.506189	-28.792497
941.801965	-28.837503
942.097926	-28.446720
942.394074	-28.639445
942.690407	-28.694825
942.986927	-28.377815
943.283634	-28.755612
943.580527	-28.646860
943.877608	-28.174236
944.174875	-28.549567
944.472330	-28.557989
944.769972	-28.244223
945.067802	-28.482526
945.365820	-28.364593
945.664026	-28.064407
945.962420	-28.219683
946.261002	-28.406311
946.559773	-28.211056
946.858733	-27.926234
947.157881	-28.084135
947.457219	-28.173462
947.756746	-27.931745
948.056462	-28.060243
948.356368	-28.036639
948.656464	-27.785269
948.956749	-27.920491
949.257225	-27.943255
949.557891	-27.908566
949.858748	-27.904557
950.159796	-27.720830
950.461034	-27.828285
950.762463	-27.877085
951.064084	-27.791118
951.365896	-27.888199
951.667900	-27.695976
951.970095	-27.671341
952.272483	-27.833997
952.575063	-27.748910
952.877835	-27.849957
953.180799	-27.644685
953.483956	-27.490319
953.787307	-27.892105
954.090850	-27.703820
954.394586	-27.540669
954.698516	-27.741063
955.002640	-27.430410
955.306957	-27.554353
955.611469	-27.818862
955.916174	-27.404376
956.221074	-27.422449
956.526169	-27.592148
956.831458	-27.384695
957.136942	-27.459465
957.442622	-27.572707
957.748496	-27.300695
958.054567	-27.218583
958.360833	-27.536885
958.667294	-27.434227
958.973952	-27.176029
959.280806	-27.388277
959.587857	-27.293290
959.895104	-27.222499
960.202548	-27.452739
960.510189	-27.206564
960.818027	-27.198365
961.126062	-27.305644
961.434295	-27.175541
961.742726	-27.413471
962.051355	-27.202124
962.360182	-26.993630
962.669207	-27.383045
962.978431	-27.260305
963.287854	-27.131889
963.597475	-27.202674
963.907296	-27.067969
964.217315	-27.205897
964.527535	-27.183493
964.837954	-27.114840
965.148573	-27.142446
965.459392	-26.919966
965.770411	-27.096190
966.081630	-27.249677
966.393051	-26.927509
966.704672	-26.893726
967.016494	-27.011598
967.328517	-27.005631
967.640742	-26.950448
967.953169	-26.901785
968.265797	-26.861602
968.578627	-26.828525
968.891660	-26.907636
969.204895	-26.867037
969.518332	-26.793950
969.831972	-26.731110
970.145816	-26.703164
970.459862	-26.941613
970.774112	-26.741335
971.088565	-26.537350
971.403223	-26.824309
971.718084	-26.698153
972.033149	-26.695061
972.348419	-26.758813
972.663893	-26.473462
972.979572	-26.696445
973.295456	-26.762590
973.611546	-26.546035
973.927840	-26.641798
974.244340	-26.562042
974.561046	-26.566780
974.877958	-26.651622
975.195076	-26.591442
975.512401	-26.489952
975.829932	-26.451243
976.147670	-26.669227
976.465615	-26.505544
976.783767	-26.362940
977.102126	-26.609989
977.420693	-26.394894
977.739468	-26.386933
978.058451	-26.622787
978.377642	-26.316941
978.697041	-26.243163
979.016649	-26.561577
979.336466	-26.458772
979.656492	-26.169894
979.976727	-26.416897
980.297171	-26.413347
980.617825	-26.157851
980.938689	-26.520708
981.259763	-26.307321
981.581048	-26.043409
981.902542	-26.532054
982.224248	-26.342603
982.546164	-26.112373
982.868291	-26.346029
983.190630	-26.311997
983.513180	-26.266068
983.835942	-26.270746
984.158916	-26.267577
984.482101	-26.231697
984.805500	-26.273871
985.129110	-26.294931
985.452934	-26.237933
985.776970	-26.251228
986.101220	-26.133810
986.425683	-26.327472
986.750359	-26.317781
987.075250	-26.000541
987.400354	-26.266435
987.725673	-26.273779
988.051206	-26.138092
988.376954	-26.139745
988.702916	-26.087170
989.029094	-26.265251
989.355487	-26.041401
989.682095	-26.077307
990.008919	-26.190604
990.335959	-25.904452
990.663216	-26.155854
990.990688	-26.099771
991.318377	-25.874701
991.646283	-26.044650
991.974406	-26.008440
992.302746	-25.969078
992.631304	-25.930511
992.960079	-25.881133
993.289072	-25.913003
993.618283	-25.981811
993.947713	-25.814527
994.277361	-25.759228
994.607227	-25.961194
994.937313	-25.749602
995.267618	-25.781327
995.598142	-25.796706
995.928886	-25.671180
996.259849	-25.818305
996.591033	-25.657603
996.922437	-25.713011
997.254061	-25.611184
997.585906	-25.586759
997.917972	-25.815582
998.250260	-25.426558
998.582768	-25.523843
998.915498	-25.729089
999.248450	-25.484234
999.581624	-25.426802
999.915020	-25.559032
1000.248639	-25.534970
1000.582480	-25.317989
1000.916545	-25.603195
1001.250832	-25.379624
1001.585343	-25.249582
1001.920077	-25.698022
1002.255035	-25.246213
1002.590218	-25.246434
1002.925624	-25.542261
1003.261255	-25.298536
1003.597111	-25.276090
1003.933192	-25.366780
1004.269497	-25.295862
1004.606029	-25.256663
1004.942785	-25.402054
1005.279768	-25.142571
1005.616977	-25.231190
1005.954412	-25.359926
1006.292074	-25.114582
1006.629962	-25.251424
1006.968077	-25.103890
1007.306420	-25.251058
1007.644990	-25.177831
1007.983787	-24.966815
1008.322813	-25.236176
1008.662067	-25.054120
1009.001549	-25.061319
1009.341259	-25.034212
1009.681199	-25.023807
1010.021367	-25.039104
1010.361765	-24.968804
1010.702392	-24.993552
1011.043250	-24.844788
1011.384337	-25.059537
1011.725654	-24.905516
1012.067202	-24.787534
1012.408980	-24.977133
1012.750989	-24.868725
1013.093230	-24.790913
1013.435702	-24.827537
1013.778405	-24.845404
1014.121341	-24.670700
1014.464508	-24.928310
1014.807908	-24.642901
1015.151540	-24.587022
1015.495405	-24.975309
1015.839503	-24.424838
1016.183835	-24.640907
1016.528400	-24.704939
1016.873198	-24.464378
1017.218231	-24.609158
1017.563498	-24.463440
1017.908999	-24.464194
1018.254735	-24.465895
1018.600707	-24.402403
1018.946913	-24.282558
1019.293354	-24.419560
1019.640032	-24.282562
1019.986945	-24.247909
1020.334094	-24.247948
1020.681480	-24.127801
1021.029102	-24.291586
1021.376961	-23.970795
1021.725058	-24.152362
1022.073391	-24.091216
1022.421962	-23.967476
1022.770772	-24.069173
1023.119819	-23.824906
1023.469104	-24.061124
1023.818628	-23.833803
1024.168391	-23.797633
1024.518393	-23.919922
1024.868634	-23.771967
1025.219115	-23.772757
1025.569836	-23.726051
1025.920796	-23.712532
1026.271997	-23.699351
1026.623438	-23.653497
1026.975121	-23.572786
1027.327044	-23.706986
1027.679208	-23.533730
1028.031614	-23.553855
1028.384262	-23.522078
1028.737152	-23.515419
1029.090284	-23.519966
1029.443659	-23.366099
1029.797276	-23.589947
1030.151137	-23.306091
1030.505240	-23.504139
1030.859587	-23.322349
1031.214178	-23.300637
1031.569013	-23.533966
1031.924093	-23.120972
1032.279417	-23.446361
1032.634985	-23.278582
1032.990799	-23.243092
1033.346858	-23.257879
1033.703162	-23.211479
1034.059712	-23.258607
1034.416509	-23.137532
1034.773551	-23.222159
1035.130841	-23.095441
1035.488377	-23.173421
1035.846160	-23.045135
1036.204190	-23.042079
1036.562468	-23.092364
1036.920994	-22.994388
1037.279768	-22.951307
1037.638790	-22.998945
1037.998061	-22.891251
1038.357581	-22.863606
1038.717350	-22.872501
1039.077368	-22.782776
1039.437636	-22.864611
1039.798154	-22.665422
1040.158922	-22.768597
1040.519940	-22.640161
1040.881209	-22.662650
1041.242729	-22.539661
1041.604501	-22.600194
1041.966524	-22.582548
1042.328798	-22.336328
1042.691325	-22.632246
1043.054103	-22.222145
1043.417135	-22.484622
1043.780419	-22.293611
1044.143956	-22.212418
1044.507746	-22.453118
1044.871791	-22.007546
1045.236088	-22.287751
1045.600641	-22.160969
1045.965447	-21.988056
1046.330508	-22.216248
1046.695824	-21.961753
1047.061395	-22.018460
1047.427222	-22.062325
1047.793304	-21.747758
1048.159642	-22.127894
1048.526237	-21.746929
1048.893088	-21.868366
1049.260196	-21.937129
1049.627561	-21.641059
1049.995183	-21.937196
1050.363063	-21.588139
1050.731201	-21.840666
1051.099597	-21.684012
1051.468251	-21.629084
1051.837164	-21.753764
1052.206336	-21.573871
1052.575767	-21.619587
1052.945458	-21.620295
1053.315409	-21.553470
1053.685619	-21.612163
1054.056090	-21.506662
1054.426821	-21.522355
1054.797814	-21.539821
1055.169067	-21.377611
1055.540582	-21.588689
1055.912359	-21.363068
1056.284398	-21.480423
1056.656698	-21.354508
1057.029262	-21.402162
1057.402088	-21.368217
1057.775177	-21.275486
1058.148530	-21.404017
1058.522146	-21.246459
1058.896027	-21.296791
1059.270171	-21.210006
1059.644580	-21.231140
1060.019254	-21.201468
1060.394193	-21.130562
1060.769397	-21.196280
1061.144867	-21.085631
1061.520602	-21.030896
1061.896604	-21.106463
1062.272872	-20.916488
1062.649407	-21.107260
1063.026210	-20.821635
1063.403279	-21.021664
1063.780616	-20.800772
1064.158221	-20.827358
1064.536094	-20.888428
1064.914235	-20.657616
1065.292645	-20.886059
1065.671325	-20.569283
1066.050273	-20.812084
1066.429491	-20.493738
1066.808979	-20.703483
1067.188738	-20.548920
1067.568766	-20.530683
1067.949066	-20.537869
1068.329636	-20.411796
1068.710478	-20.514534
1069.091592	-20.297075
1069.472977	-20.489109
1069.854635	-20.281406
1070.236565	-20.327457
1070.618768	-20.287885
1071.001243	-20.211098
1071.383993	-20.294037
1071.767016	-20.121685
1072.150313	-20.290310
1072.533884	-20.061618
1072.917730	-20.178116
1073.301850	-20.113596
1073.686246	-20.059075
1074.070917	-20.159149
1074.455864	-19.972399
1074.841087	-20.160558
1075.226586	-19.881200
1075.612362	-20.142147
1075.998415	-19.897418
1076.384745	-20.044590
1076.771353	-19.917698
1077.158238	-19.951569
1077.545401	-19.912408
1077.932843	-19.869232
1078.320564	-19.945400
1078.708564	-19.808212
1079.096842	-19.892931
1079.485401	-19.786852
1079.874240	-19.836672
1080.263358	-19.766659
1080.652757	-19.822708
1081.042438	-19.729266
1081.432399	-19.765822
1081.822641	-19.693902
1082.213166	-19.733053
1082.603972	-19.651797
1082.995061	-19.713133
1083.386433	-19.594798
1083.778087	-19.633991
1084.170025	-19.548245
1084.562246	-19.576847
1084.954751	-19.504235
1085.347541	-19.490776
1085.740615	-19.457869
1086.133973	-19.379248
1086.527617	-19.389405
1086.921546	-19.339616
1087.315761	-19.304109
1087.710262	-19.268267
1088.105050	-19.232102
1088.500124	-19.193454
1088.895485	-19.157703
1089.291134	-19.174887
1089.687070	-19.074121
1090.083294	-19.114027
1090.479806	-19.013072
1090.876607	-19.060934
1091.273696	-18.957218
1091.671075	-19.027278
1092.068744	-18.893222
1092.466702	-18.941606
1092.864950	-18.856148
1093.263489	-18.872807
1093.662319	-18.807218
1094.061440	-18.810472
1094.460852	-18.745321
1094.860555	-18.714460
1095.260551	-18.724716
1095.660840	-18.639627
1096.061421	-18.685175
1096.462295	-18.579102
1096.863462	-18.638152
1097.264923	-18.527108
1097.666678	-18.629353
1098.068727	-18.494967
1098.471071	-18.604131
1098.873710	-18.479688
1099.276644	-18.579793
1099.679874	-18.489879
1100.083400	-18.572118
1100.487222	-18.498361
1100.891340	-18.548168
1101.295756	-18.501870
1101.700468	-18.542199
1102.105478	-18.495945
1102.510787	-18.523682
1102.916393	-18.478382
1103.322298	-18.470834
1103.728502	-18.462418
1104.135005	-18.424163
1104.541807	-18.409278
1104.948909	-18.369313
1105.356312	-18.343229
1105.764015	-18.297513
1106.172019	-18.290219
1106.580324	-18.229870
1106.988931	-18.206016
1107.397840	-18.178361
1107.807051	-18.126387
1108.216564	-18.132891
1108.626380	-18.069592
1109.036500	-18.082770
1109.446923	-18.012472
1109.857649	-18.049242
1110.268680	-17.975472
1110.680016	-18.010214
1111.091657	-17.959160
1111.503602	-17.954690
1111.915854	-17.939161
1112.328411	-17.923899
1112.741275	-17.895029
1113.154445	-17.894359
1113.567922	-17.839587
1113.981706	-17.843441
1114.395798	-17.782341
1114.810198	-17.783663
1115.224906	-17.711121
1115.639923	-17.699898
1116.055249	-17.644928
1116.470884	-17.591820
1116.886829	-17.586002
1117.303084	-17.486348
1117.719650	-17.504804
1118.136526	-17.402369
1118.553713	-17.417530
1118.971212	-17.334241
1119.389022	-17.348278
1119.807145	-17.272971
1120.225580	-17.289810
1120.644328	-17.236013
1121.063389	-17.249404
1121.482763	-17.218008
1121.902452	-17.233469
1122.322454	-17.202019
1122.742771	-17.240089
1123.163404	-17.208678
1123.584351	-17.250091
1124.005614	-17.230304
1124.427193	-17.255595
1124.849089	-17.254336
1125.271301	-17.272039
1125.693830	-17.270196
1126.116677	-17.272696
1126.539842	-17.273971
1126.963324	-17.258234
1127.387126	-17.268953
1127.811246	-17.230280
1128.235685	-17.226517
1128.660444	-17.184650
1129.085522	-17.168281
1129.510922	-17.123809
1129.936641	-17.095525
1130.362682	-17.033285
1130.789044	-17.007593
1131.215728	-16.944760
1131.642734	-16.913433
1132.070063	-16.845355
1132.497714	-16.812989
1132.925689	-16.742591
1133.353987	-16.734563
1133.782610	-16.645594
1134.211556	-16.651029
1134.640827	-16.559250
1135.070424	-16.581197
1135.500345	-16.501220
1135.930593	-16.520575
1136.361166	-16.442382
1136.792067	-16.474470
1137.223294	-16.412687
1137.654848	-16.441425
1138.086730	-16.394736
1138.518940	-16.402052
1138.951479	-16.394762
1139.384346	-16.386452
1139.817543	-16.396645
1140.251069	-16.365216
1140.684925	-16.396615
1141.119111	-16.357331
1141.553628	-16.408304
1141.988475	-16.337118
1142.423655	-16.400368
1142.859166	-16.328112
1143.295009	-16.390138
1143.731185	-16.321947
1144.167694	-16.348669
1144.604536	-16.308386
1145.041711	-16.311619
1145.479221	-16.296467
1145.917065	-16.254877
1146.355245	-16.267580
1146.793759	-16.189874
1147.232609	-16.250435
1147.671795	-16.120115
1148.111317	-16.201657
1148.551177	-16.054116
1148.991373	-16.147142
1149.431907	-16.007165
1149.872779	-16.065167
1150.313989	-15.956676
1150.755538	-15.985487
1151.197426	-15.923700
1151.639653	-15.892268
1152.082220	-15.884747
1152.525128	-15.800739
1152.968376	-15.863446
1153.411966	-15.717894
1153.855897	-15.817417
1154.300169	-15.654873
1154.744784	-15.770409
1155.189742	-15.623802
1155.635042	-15.697162
1156.080687	-15.599852
1156.526674	-15.634491
1156.973007	-15.597269
1157.419683	-15.566866
1157.866705	-15.585407
1158.314072	-15.513869
1158.761786	-15.587756
1159.209845	-15.472880
1159.658251	-15.564556
1160.107004	-15.452158
1160.556104	-15.543377
1161.005553	-15.450382
1161.455349	-15.497772
1161.905494	-15.450588
1162.355989	-15.465159
1162.806832	-15.455613
1163.258026	-15.423371
1163.709570	-15.442407
1164.161464	-15.398113
1164.613710	-15.431391
1165.066307	-15.365195
1165.519256	-15.396515
1165.972558	-15.344289
1166.426212	-15.361557
1166.880219	-15.320048
1167.334580	-15.301615
1167.789295	-15.297008
1168.244364	-15.253708
1168.699788	-15.262154
1169.155567	-15.193011
1169.611702	-15.216231
1170.068193	-15.155483
1170.525041	-15.158554
1170.982245	-15.105839
1171.439807	-15.095738
1171.897726	-15.071586
1172.356004	-15.035669
1172.814640	-15.020722
1173.273635	-14.976192
1173.732989	-14.980363
1174.192703	-14.927766
1174.652778	-14.921419
1175.113213	-14.882609
1175.574009	-14.874196
1176.035167	-14.847694
1176.496687	-14.813484
1176.958569	-14.811182
1177.420814	-14.772932
1177.883422	-14.776397
1178.346394	-14.728823
1178.809730	-14.731161
1179.273430	-14.710244
1179.737496	-14.687522
1180.201927	-14.682103
1180.666723	-14.644389
1181.131886	-14.663253
1181.597416	-14.620362
1182.063312	-14.620634
1182.529576	-14.603119
1182.996209	-14.590227
1183.463209	-14.593008
1183.930579	-14.554749
1184.398317	-14.570083
1184.866426	-14.547238
1185.334904	-14.543484
1185.803754	-14.533247
1186.272974	-14.516960
1186.742566	-14.528158
1187.212529	-14.502394
1187.682865	-14.502442
1188.153574	-14.494296
1188.624656	-14.488396
1189.096112	-14.483986
1189.567942	-14.464713
1190.040147	-14.470869
1190.512726	-14.458140
1190.985681	-14.449060
1191.459012	-14.439562
1191.932720	-14.430026
1192.406804	-14.429859
1192.881265	-14.406263
1193.356104	-14.401888
1193.831322	-14.390506
1194.306918	-14.380087
1194.782893	-14.363415
1195.259248	-14.348438
1195.735982	-14.339183
1196.213097	-14.323408
1196.690593	-14.303041
1197.168471	-14.286843
1197.646730	-14.276497
1198.125371	-14.251977
1198.604395	-14.232418
1199.083803	-14.218846
1199.563594	-14.193066
1200.043769	-14.181167
1200.524329	-14.147978
1201.005273	-14.133811
1201.486604	-14.121593
1201.968320	-14.075958
1202.450422	-14.077002
1202.932912	-14.040602
1203.415789	-14.020508
1203.899054	-14.008529
1204.382707	-13.957548
1204.866748	-13.968563
1205.351179	-13.926087
1205.836000	-13.893502
1206.321211	-13.902004
1206.806812	-13.840219
1207.292805	-13.847778
1207.779189	-13.815688
1208.265965	-13.770272
1208.753134	-13.799908
1209.240696	-13.719882
1209.728651	-13.729369
1210.217000	-13.724475
1210.705744	-13.643910
1211.194883	-13.703771
1211.684417	-13.615345
1212.174347	-13.621831
1212.664673	-13.641369
1213.155396	-13.528015
1213.646516	-13.625327
1214.138034	-13.529591
1214.629951	-13.518009
1215.122266	-13.577848
1215.614980	-13.438203
1216.108095	-13.552607
1216.601609	-13.462323
1217.095524	-13.436770
1217.589841	-13.530407
1218.084559	-13.366742
1218.579679	-13.490101
1219.075202	-13.419854
1219.571128	-13.375978
1220.067458	-13.480175
1220.564191	-13.325582
1221.061330	-13.439465
1221.558874	-13.382223
1222.056823	-13.332364
1222.555178	-13.436530
1223.053940	-13.300176
1223.553109	-13.387456
1224.052686	-13.349149
1224.552671	-13.305225
1225.053065	-13.383810
1225.553867	-13.275361
1226.055079	-13.341508
1226.556702	-13.314299
1227.058735	-13.267352
1227.561179	-13.329801
1228.064035	-13.248842
1228.567303	-13.285847
1229.070983	-13.266082
1229.575077	-13.226634
1230.079585	-13.271123
1230.584506	-13.201310
1231.089842	-13.224640
1231.595594	-13.211490
1232.101761	-13.171773
1232.608345	-13.195512
1233.115345	-13.149709
1233.622762	-13.154417
1234.130597	-13.138273
1234.638851	-13.108497
1235.147523	-13.118572
1235.656615	-13.080521
1236.166126	-13.074910
1236.676058	-13.062328
1237.186411	-13.037818
1237.697185	-13.029740
1238.208381	-13.005100
1238.719999	-13.000639
1239.232040	-12.971429
1239.744505	-12.961537
1240.257394	-12.948316
1240.770708	-12.921979
1241.284446	-12.916971
1241.798610	-12.889305
1242.313201	-12.882884
1242.828218	-12.862639
1243.343662	-12.838413
1243.859534	-12.841160
1244.375834	-12.806463
1244.892563	-12.796238
1245.409721	-12.791304
1245.927309	-12.757384
1246.445327	-12.756805
1246.963777	-12.736896
1247.482657	-12.718334
1248.001970	-12.713925
1248.521716	-12.686269
1249.041894	-12.684989
1249.562506	-12.668632
1250.083553	-12.644975
1250.605034	-12.651738
1251.126950	-12.626063
1251.649302	-12.612963
1252.172091	-12.616299
1252.695316	-12.590934
1253.218979	-12.586638
1253.743079	-12.580926
1254.267619	-12.564616
1254.792597	-12.563229
1255.318015	-12.549800
1255.843874	-12.545416
1256.370173	-12.541803
1256.896913	-12.524860
1257.424095	-12.531502
1257.951720	-12.521236
1258.479787	-12.508287
1259.008298	-12.518235
1259.537254	-12.504416
1260.066654	-12.497980
1260.596499	-12.504791
1261.126790	-12.492298
1261.657527	-12.490706
1262.188711	-12.490452
1262.720342	-12.484211
1263.252422	-12.483216
1263.784950	-12.476353
1264.317928	-12.478748
1264.851355	-12.472675
1265.385232	-12.464613
1265.919560	-12.471111
1266.454340	-12.460669
1266.989572	-12.453200
1267.525256	-12.460543
1268.061394	-12.446439
1268.597985	-12.442246
1269.135031	-12.444385
1269.672531	-12.432554
1270.210487	-12.427568
1270.748899	-12.425447
1271.287768	-12.416737
1271.827094	-12.409655
1272.366877	-12.403844
1272.907119	-12.399878
1273.447820	-12.386800
1273.988981	-12.381979
1274.530601	-12.378448
1275.072683	-12.362392
1275.615226	-12.357426
1276.158230	-12.354809
1276.701697	-12.334644
1277.245627	-12.332142
1277.790021	-12.326181
1278.334879	-12.306512
1278.880202	-12.303499
1279.425991	-12.295747
1279.972245	-12.276010
1280.518966	-12.273170
1281.066155	-12.262293
1281.613811	-12.244263
1282.161936	-12.239729
1282.710529	-12.226986
1283.259593	-12.210418
1283.809126	-12.204073
1284.359131	-12.189448
1284.909607	-12.175709
1285.460555	-12.165273
1286.011976	-12.151460
1286.563870	-12.138802
1287.116237	-12.125352
1287.669080	-12.112587
1288.222397	-12.100926
1288.776191	-12.084431
1289.330460	-12.073893
1289.885207	-12.062192
1290.440431	-12.043808
1290.996133	-12.036320
1291.552314	-12.023919
1292.108975	-12.004118
1292.666115	-12.000392
1293.223737	-11.985867
1293.781839	-11.966734
1294.340424	-11.966069
1294.899491	-11.949448
1295.459041	-11.932212
1296.019075	-11.934121
1296.579593	-11.915341
1297.140597	-11.901319
1297.702086	-11.904328
1298.264061	-11.884294
1298.826524	-11.873493
1299.389474	-11.877444
1299.952912	-11.856472
1300.516839	-11.849334
1301.081255	-11.853440
1301.646162	-11.832080
1302.211559	-11.828331
1302.777448	-11.831865
1303.343829	-11.811037
1303.910702	-11.810307
1304.478069	-11.812780
1305.045930	-11.793502
1305.614285	-11.794529
1306.183136	-11.796288
1306.752483	-11.778724
1307.322326	-11.780909
1307.892666	-11.782083
1308.463504	-11.766538
1309.034841	-11.768864
1309.606677	-11.770197
1310.179012	-11.756591
1310.751849	-11.758183
1311.325186	-11.760865
1311.899025	-11.748611
1312.473366	-11.748948
1313.048211	-11.753767
1313.623559	-11.742246
1314.199412	-11.741276
1314.775770	-11.749190
1315.352634	-11.737419
1315.930004	-11.735425
1316.507881	-11.746895
1317.086266	-11.734023
1317.665159	-11.731903
1318.244562	-11.747028
1318.824474	-11.731811
1319.404897	-11.730733
1319.985831	-11.748195
1320.567276	-11.730207
1321.149234	-11.731434
1321.731706	-11.749166
1322.314691	-11.729426
1322.898190	-11.733080
1323.482205	-11.749267
1324.066736	-11.729013
1324.651783	-11.734339
1325.237347	-11.747073
1325.823430	-11.728931
1326.410031	-11.734333
1326.997151	-11.742966
1327.584791	-11.729467
1328.172952	-11.731672
1328.761634	-11.737173
1329.350839	-11.729900
1329.940566	-11.726048
1330.530817	-11.730626
1331.121592	-11.729203
1331.712891	-11.717556
1332.304716	-11.724215
1332.897068	-11.726363
1333.489946	-11.707944
1334.083352	-11.718103
1334.677287	-11.720452
1335.271750	-11.698904
1335.866744	-11.711332
1336.462268	-11.711612
1337.058323	-11.692008
1337.654910	-11.702823
1338.252029	-11.700859
1338.849682	-11.687109
1339.447869	-11.690963
1340.046591	-11.689685
1340.645848	-11.682500
1341.245641	-11.676131
1341.845972	-11.679368
1342.446840	-11.675804
1343.048246	-11.660104
1343.650191	-11.669320
1344.252677	-11.665114
1344.855702	-11.645602
1345.459269	-11.657758
1346.063379	-11.650757
1346.668030	-11.634118
1347.273226	-11.642382
1347.878965	-11.634974
1348.485250	-11.624902
1349.092080	-11.622761
1349.699456	-11.620262
1350.307380	-11.615172
1350.915851	-11.601379
1351.524871	-11.607148
1352.134441	-11.601786
1352.744560	-11.582574
1353.355231	-11.593230
1353.966453	-11.584874
1354.578227	-11.569315
1355.190555	-11.575545
1355.803436	-11.567461
1356.416872	-11.560161
1357.030863	-11.553885
1357.645411	-11.553095
1358.260515	-11.550621
1358.876177	-11.533116
1359.492397	-11.541849
1360.109176	-11.537162
1360.726516	-11.518979
1361.344416	-11.528842
1361.962877	-11.520590
1362.581901	-11.512241
1363.201487	-11.510830
1363.821637	-11.507039
1364.442352	-11.507768
1365.063632	-11.492041
1365.685478	-11.498724
1366.307891	-11.498108
1366.930871	-11.479878
1367.554420	-11.490133
1368.178538	-11.483620
1368.803226	-11.477381
1369.428485	-11.476010
1370.054315	-11.472272
1370.680717	-11.476761
1371.307693	-11.460160
1371.935242	-11.467055
1372.563366	-11.468727
1373.192065	-11.452729
1373.821341	-11.461172
1374.451193	-11.455355
1375.081623	-11.455164
1375.712632	-11.448393
1376.344221	-11.447011
1376.976389	-11.455619
1377.609139	-11.436691
1378.242470	-11.445621
1378.876384	-11.445858
1379.510881	-11.437389
1380.145963	-11.440900
1380.781629	-11.434842
1381.417881	-11.444941
1382.054720	-11.430910
1382.692147	-11.433823
1383.330161	-11.442498
1383.968765	-11.428261
1384.607959	-11.435989
1385.247743	-11.430178
1385.888119	-11.436749
1386.529087	-11.429830
1387.170648	-11.425113
1387.812804	-11.439722
1388.455554	-11.424001
1389.098899	-11.430536
1389.742842	-11.428621
1390.387381	-11.430970
1391.032519	-11.430620
1391.678256	-11.421114
1392.324592	-11.438364
1392.971529	-11.425527
1393.619068	-11.429612
1394.267208	-11.431071
1394.915952	-11.431845
1395.565300	-11.436891
1396.215253	-11.424479
1396.865812	-11.442409
1397.516977	-11.433313
1398.168749	-11.435043
1398.821130	-11.437141
1399.474120	-11.436465
1400.127719	-11.444717
1400.781930	-11.429882
1401.436752	-11.446584
1402.092186	-11.440069
1402.748234	-11.442148
1403.404897	-11.442582
1404.062174	-11.441932
1404.720067	-11.453339
1405.378577	-11.437460
1406.037705	-11.453353
1406.697451	-11.448128
1407.357817	-11.454329
1408.018803	-11.452609
1408.680410	-11.453216
1409.342639	-11.467772
1410.005492	-11.454476
1410.668968	-11.469444
1411.333068	-11.463570
1411.997795	-11.476735
1412.663147	-11.471892
1413.329127	-11.474745
1413.995736	-11.488439
1414.662973	-11.482047
1415.330840	-11.496401
1415.999339	-11.488809
1416.668469	-11.509515
1417.338232	-11.503357
1418.008628	-11.511020
1418.679659	-11.517706
1419.351325	-11.520651
1420.023628	-11.532201
1420.696568	-11.524150
1421.370145	-11.545872
1422.044362	-11.540863
1422.719219	-11.556646
1423.394717	-11.554802
1424.070856	-11.569798
1424.747638	-11.578507
1425.425064	-11.579623
1426.103134	-11.595009
1426.781850	-11.594232
1427.461212	-11.614422
1428.141221	-11.606774
1428.821878	-11.626356
1429.503185	-11.627756
1430.185141	-11.643289
1430.867749	-11.648686
1431.551008	-11.659488
1432.234920	-11.678409
1432.919486	-11.682869
1433.604707	-11.704164
1434.290583	-11.705587
1434.977116	-11.732012
1435.664307	-11.730776
1436.352156	-11.750303
1437.040664	-11.753035
1437.729833	-11.770290
1438.419663	-11.778200
1439.110156	-11.787131
1439.801312	-11.805806
1440.493132	-11.815207
1441.185617	-11.840921
1441.878768	-11.846934
1442.572586	-11.879472
1443.267072	-11.888325
1443.962228	-11.919052
1444.658053	-11.925084
1445.354549	-11.951570
1446.051717	-11.960832
1446.749558	-11.977626
1447.448073	-11.986959
1448.147263	-11.998363
1448.847128	-12.016702
1449.547671	-12.024840
1450.248891	-12.050024
1450.950789	-12.062138
1451.653368	-12.100289
1452.356627	-12.117054
1453.060568	-12.160057
1453.765192	-12.181464
1454.470500	-12.228657
1455.176492	-12.250108
1455.883170	-12.288846
1456.590534	-12.307414
1457.298586	-12.338419
1458.007327	-12.354326
1458.716758	-12.373535
1459.426880	-12.390136
1460.137693	-12.409226
1460.849199	-12.435666
1461.561398	-12.458856
1462.274293	-12.500285
1462.987883	-12.538862
1463.702170	-12.601631
1464.417155	-12.653300
1465.132838	-12.731008
1465.849222	-12.793945
1466.566306	-12.881111
1467.284093	-12.942586
1468.002582	-13.021838
1468.721775	-13.072922
1469.441674	-13.137850
1470.162278	-13.171552
1470.883590	-13.214915
1471.605609	-13.233725
1472.328338	-13.266667
1473.051777	-13.283266
1473.775928	-13.315800
1474.500790	-13.343655
1475.226367	-13.394137
1475.952657	-13.449350
1476.679663	-13.524627
1477.407386	-13.609263
1478.135826	-13.711947
1478.864985	-13.824013
1479.594863	-13.941601
1480.325463	-14.059751
1481.056784	-14.170267
1481.788828	-14.272701
1482.521597	-14.349541
1483.255090	-14.406381
1483.989309	-14.426786
1484.724256	-14.428433
1485.459931	-14.393284
1486.196336	-14.346217
1486.933471	-14.272539
1487.671337	-14.206160
1488.409937	-14.131976
1489.149270	-14.080607
1489.889337	-14.035403
1490.630141	-14.027521
1491.371682	-14.039650
1492.113961	-14.096519
1492.856979	-14.176583
1493.600738	-14.302833
1494.345238	-14.456606
1495.090481	-14.654881
1495.836467	-14.876056
1496.583198	-15.131868
1497.330675	-15.405238
1498.078899	-15.702625
1498.827872	-16.003382
1499.577593	-16.304748
1500.328065	-16.589036
1501.079289	-16.849803
1501.831265	-17.071914
1502.583995	-17.242391
1503.337480	-17.356864
1504.091721	-17.409894
1504.846719	-17.415285
1505.602475	-17.368057
1506.358991	-17.295028
1507.116268	-17.190893
1507.874306	-17.095163
1508.633108	-16.991761
1509.392673	-16.921800
1510.153004	-16.857076
1510.914101	-16.846009
1511.675965	-16.852269
1512.438599	-16.924154
1513.202002	-17.019674
1513.966176	-17.190348
1514.731122	-17.401991
1515.496842	-17.699742
1516.263336	-18.062326
1517.030607	-18.526515
1517.798654	-19.104450
1518.567479	-19.817888
1519.337083	-20.722549
1520.107468	-21.827147
1520.878634	-23.261238
1521.650584	-25.009024
1522.423317	-27.136447
1523.196836	-28.910060
1523.971141	-28.656045
1524.746233	-26.292237
1525.522115	-23.472607
1526.298786	-21.019141
1527.076249	-18.907407
1527.854504	-17.118228
1528.633553	-15.564525
1529.413397	-14.203106
1530.194037	-13.005803
1530.975474	-11.930669
1531.757709	-10.977003
1532.540745	-10.108747
1533.324581	-9.336860
1534.109220	-8.632793
1534.894662	-8.007090
1535.680909	-7.440712
1536.467961	-6.940253
1537.255821	-6.497513
1538.044489	-6.112182
1538.833967	-5.784660
1539.624256	-5.508452
1540.415357	-5.291195
1541.207271	-5.122403
1542.000000	-5.012318
1542.793545	-4.949245
1543.587907	-4.942697
1544.383087	-4.983811
1545.179088	-5.077980
1545.975909	-5.221118
1546.773552	-5.412219
1547.572019	-5.654086
1548.371311	-5.939746
1549.171428	-6.277903
1549.972373	-6.657124
1550.774147	-7.089359
1551.576751	-7.563385
1552.380185	-8.090334
1553.184453	-8.663813
1553.989554	-9.288131
1554.795490	-9.965394
1555.602263	-10.689031
1556.409873	-11.469334
1557.218322	-12.283546
1558.027612	-13.140871
1558.837743	-13.995604
1559.648717	-14.837615
1560.460536	-15.590078
1561.273200	-16.209709
1562.086710	-16.615149
1562.901069	-16.781379
1563.716278	-16.712012
1564.532337	-16.453735
1565.349249	-16.084489
1566.167014	-15.649105
1566.985634	-15.219062
1567.805111	-14.797250
1568.625444	-14.432760
1569.446637	-14.106115
1570.268690	-13.847015
1571.091605	-13.636962
1571.915382	-13.485289
1572.740024	-13.389017
1573.565532	-13.336649
1574.391907	-13.341382
1575.219150	-13.376139
1576.047262	-13.461419
1576.876246	-13.569176
1577.706103	-13.711862
1578.536833	-13.875617
1579.368439	-14.051490
1580.200922	-14.248170
1581.034282	-14.436735
1581.868522	-14.641503
1582.703643	-14.830582
1583.539646	-15.022261
1584.376532	-15.205060
1585.214304	-15.373798
1586.052962	-15.548557
1586.892508	-15.701450
1587.732943	-15.867823
1588.574269	-16.019706
1589.416487	-16.179049
1590.259599	-16.344179
1591.103605	-16.503585
1591.948508	-16.685888
1592.794309	-16.854179
1593.641009	-17.045613
1594.488609	-17.229524
1595.337112	-17.420350
1596.186518	-17.619433
1597.036829	-17.803456
1597.888047	-18.005518
1598.740172	-18.182226
1599.593207	-18.369909
1600.447153	-18.540816
1601.302010	-18.699706
1602.157782	-18.858539
1603.014469	-18.983278
1603.872072	-19.116449
1604.730593	-19.211147
1605.590034	-19.303302
1606.450397	-19.372412
1607.311681	-19.415468
1608.173890	-19.455644
1609.037024	-19.454907
1609.901085	-19.455959
1610.766075	-19.422669
1611.631995	-19.374386
1612.498846	-19.313618
1613.366630	-19.217808
1614.235349	-19.124076
1615.105004	-18.993235
1615.975596	-18.855752
1616.847128	-18.700388
1617.719600	-18.519992
1618.593014	-18.341419
1619.467372	-18.135184
1620.342675	-17.931558
1621.218924	-17.718623
1622.096122	-17.497328
1622.974270	-17.288351
1623.853369	-17.068231
1624.733420	-16.863309
1625.614427	-16.661490
1626.496389	-16.463937
1627.379308	-16.285305
1628.263187	-16.105821
1629.148026	-15.945837
1630.033828	-15.793078
1630.920593	-15.646700
1631.808324	-15.516980
1632.697022	-15.385686
1633.586688	-15.267147
1634.477324	-15.151756
1635.368932	-15.035408
1636.261514	-14.928636
1637.155070	-14.814851
1638.049602	-14.706083
1638.945113	-14.596954
1639.841603	-14.482268
1640.739075	-14.373972
1641.637529	-14.259271
1642.536968	-14.147545
1643.437393	-14.039932
1644.338806	-13.929432
1645.241209	-13.829070
1646.144602	-13.729534
1647.048988	-13.634912
1647.954368	-13.550504
1648.860744	-13.465739
1649.768118	-13.391251
1650.676491	-13.320660
1651.585865	-13.251476
1652.496241	-13.191181
1653.407621	-13.128956
1654.320008	-13.070690
1655.233401	-13.016098
1656.147804	-12.957826
1657.063218	-12.905284
1657.979645	-12.851835
1658.897085	-12.798178
1659.815542	-12.750282
1660.735016	-12.699769
1661.655509	-12.653627
1662.577023	-12.611127
1663.499560	-12.567101
1664.423121	-12.529744
1665.347709	-12.493019
1666.273324	-12.457654
1667.199969	-12.428734
1668.127645	-12.398596
1669.056353	-12.372713
1669.986097	-12.350642
1670.916877	-12.326695
1671.848695	-12.307762
1672.781553	-12.288791
1673.715452	-12.268968
1674.650395	-12.253694
1675.586383	-12.236562
1676.523418	-12.221130
1677.461501	-12.209777
1678.400635	-12.196708
1679.340821	-12.187743
1680.282061	-12.181160
1681.224357	-12.173134
1682.167710	-12.169794
1683.112122	-12.166377
1684.057595	-12.162440
1685.004132	-12.162633
1685.951732	-12.160909
1686.900400	-12.159991
1687.850135	-12.162141
1688.800940	-12.161748
1689.752818	-12.163370
1690.705768	-12.166529
1691.659795	-12.167468
1692.614898	-12.171450
1693.571081	-12.176052
1694.528345	-12.179287
1695.486691	-12.185995
1696.446122	-12.191953
1697.406640	-12.197079
1698.368245	-12.205042
1699.330941	-12.211025
1700.294729	-12.217094
1701.259611	-12.225240
1702.225588	-12.231048
1703.192664	-12.238016
1704.160838	-12.246615
1705.130114	-12.253017
1706.100493	-12.261418
1707.071977	-12.270575
1708.044568	-12.277551
1709.018268	-12.286897
1709.993079	-12.296253
1710.969003	-12.303802
1711.946041	-12.314015
1712.924196	-12.323489
1713.903469	-12.331498
1714.883862	-12.342419
1715.865378	-12.352187
1716.848017	-12.361168
1717.831783	-12.373317
1718.816677	-12.384129
1719.802701	-12.394516
1720.789857	-12.407778
1721.778147	-12.419214
1722.767573	-12.430165
1723.758136	-12.443642
1724.749840	-12.454933
1725.742685	-12.465940
1726.736673	-12.479594
1727.731808	-12.491346
1728.728090	-12.503337
1729.725521	-12.518039
1730.724105	-12.530800
1731.723842	-12.543806
1732.724735	-12.559531
1733.726785	-12.573500
1734.729995	-12.587610
1735.734366	-12.604132
1736.739902	-12.618703
1737.746603	-12.633132
1738.754472	-12.650074
1739.763510	-12.665371
1740.773721	-12.680522
1741.785105	-12.698130
1742.797665	-12.714278
1743.811403	-12.730003
1744.826321	-12.748161
1745.842422	-12.765072
1746.859706	-12.780992
1747.878177	-12.798962
1748.897835	-12.815691
1749.918685	-12.830889
1750.940726	-12.847971
1751.963963	-12.864269
1752.988395	-12.878683
1754.014027	-12.894591
1755.040860	-12.910151
1756.068895	-12.923782
1757.098135	-12.938713
1758.128583	-12.953965
1759.160240	-12.967260
1760.193109	-12.981225
1761.227191	-12.995797
1762.262488	-13.008680
1763.299004	-13.022254
1764.336740	-13.037380
1765.375697	-13.051769
1766.415880	-13.066827
1767.457288	-13.083640
1768.499926	-13.099576
1769.543794	-13.115010
1770.588895	-13.131626
1771.635231	-13.147361
1772.682805	-13.162311
1773.731619	-13.178963
1774.781674	-13.195946
1775.832973	-13.212073
1776.885519	-13.229442
1777.939312	-13.247114
1778.994357	-13.262945
1780.050654	-13.278789
1781.108207	-13.295115
1782.167017	-13.309793
1783.227087	-13.324173
1784.288418	-13.339887
1785.351013	-13.354890
1786.414875	-13.368985
1787.480006	-13.384210
1788.546407	-13.399007
1789.614082	-13.412098
1790.683032	-13.425706
1791.753259	-13.439869
1792.824767	-13.452683
1793.897557	-13.465555
1794.971632	-13.479808
1796.046994	-13.493540
1797.123645	-13.506928
1798.201588	-13.521966
1799.280824	-13.537271
1800.361357	-13.551258
1801.443188	-13.565498
1802.526320	-13.580093
1803.610756	-13.593302
1804.696497	-13.606388
1805.783546	-13.621266
1806.871906	-13.636478
1807.961578	-13.651235
1809.052565	-13.666877
1810.144870	-13.682565
1811.238494	-13.696416
1812.333441	-13.709507
1813.429713	-13.723193
1814.527311	-13.736386
1815.626239	-13.749164
1816.726499	-13.763169
1817.828094	-13.777719
1818.931025	-13.791125
1820.035295	-13.803964
1821.140906	-13.816781
1822.247862	-13.828470
1823.356165	-13.839195
1824.465816	-13.850402
1825.576819	-13.861773
1826.689175	-13.872243
1827.802888	-13.882304
1828.917960	-13.892208
1830.034394	-13.900949
1831.152191	-13.908647
1832.271354	-13.916554
1833.391887	-13.924627
1834.513790	-13.932097
1835.637068	-13.939400
1836.761722	-13.946862
1837.887755	-13.953599
1839.015169	-13.959498
1840.143968	-13.965480
1841.274153	-13.971576
1842.405727	-13.977323
1843.538693	-13.983066
1844.673053	-13.989032
1845.808810	-13.994434
1846.945966	-13.999025
1848.084525	-14.003408
1849.224488	-14.007768
1850.365858	-14.011883
1851.508638	-14.016175
1852.652831	-14.020833
1853.798438	-14.024974
1854.945463	-14.028151
1856.093909	-14.031067
1857.243777	-14.033976
1858.395071	-14.036413
1859.547794	-14.038621
1860.701947	-14.041165
1861.857533	-14.043542
1863.014556	-14.045101
1864.173018	-14.046304
1865.332922	-14.047804
1866.494270	-14.049311
1867.657065	-14.050546
1868.821309	-14.051987
1869.987006	-14.053644
1871.154158	-14.054715
1872.322768	-14.054906
1873.492839	-14.054704
1874.664373	-14.054076
1875.837373	-14.052586
1877.011841	-14.050688
1878.187782	-14.049107
1879.365197	-14.047339
1880.544089	-14.044540
1881.724460	-14.040912
1882.906315	-14.036903
1884.089655	-14.032268
1885.274483	-14.026905
1886.460803	-14.021424
1887.648616	-14.015984
1888.837927	-14.010026
1890.028736	-14.003147
1891.221049	-13.995616
1892.414866	-13.987579
1893.610192	-13.979015
1894.807028	-13.970208
1896.005379	-13.961593
1897.205246	-13.952990
1898.406633	-13.943867
1899.609542	-13.934149
1900.813977	-13.924186
1902.019940	-13.914292
1903.227434	-13.904685
1904.436462	-13.895504
1905.647028	-13.886516
1906.859133	-13.877214
1908.072781	-13.867629
1909.287976	-13.858234
1910.504719	-13.849053
1911.723013	-13.839735
1912.942863	-13.830126
1914.164270	-13.820372
1915.387238	-13.810542
1916.611770	-13.800688
1917.837868	-13.790972
1919.065536	-13.781410
1920.294777	-13.772006
1921.525594	-13.762831
1922.757989	-13.753862
1923.991967	-13.744905
1925.227529	-13.736007
1926.464679	-13.727295
1927.703420	-13.718471
1928.943755	-13.709046
1930.185688	-13.698914
1931.429221	-13.688191
1932.674356	-13.676898
1933.921099	-13.665235
1935.169451	-13.653425
1936.419415	-13.641312
1937.670996	-13.628530
1938.924195	-13.615187
1940.179017	-13.601737
1941.435463	-13.588171
1942.693538	-13.574225
1943.953245	-13.560238
1945.214586	-13.546581
1946.477566	-13.532977
1947.742186	-13.519004
1949.008451	-13.504958
1950.276363	-13.491108
1951.545926	-13.477096
1952.817143	-13.462649
1954.090017	-13.448126
1955.364551	-13.433877
1956.640749	-13.419615
1957.918615	-13.405116
1959.198150	-13.390816
1960.479359	-13.377067
1961.762244	-13.363417
1963.046810	-13.349409
1964.333059	-13.335385
1965.620995	-13.321998
1966.910621	-13.309503
1968.201940	-13.297601
1969.494956	-13.285892
1970.789672	-13.274313
1972.086091	-13.263188
1973.384217	-13.252821
1974.684053	-13.243259
1975.985602	-13.234238
1977.288869	-13.225369
1978.593855	-13.216181
1979.900566	-13.206563
1981.209003	-13.196886
1982.519171	-13.187627
1983.831073	-13.178745
1985.144712	-13.169886
1986.460093	-13.160770
1987.777217	-13.151402
1989.096089	-13.141875
1990.416713	-13.132296
1991.739092	-13.122954
1993.063228	-13.114027
1994.389127	-13.105162
1995.716791	-13.095790
1997.046223	-13.085747
1998.377428	-13.075417
1999.710409	-13.065136
2001.045169	-13.054928
2002.381713	-13.044318
2003.720043	-13.032874
2005.060163	-13.020864
2006.402077	-13.009066
2007.745788	-12.997940
2009.091301	-12.987311
2010.438618	-12.976589
2011.787743	-12.965386
2013.138680	-12.953928
2014.491433	-12.943083
2015.846005	-12.933430
2017.202399	-12.924498
2018.560621	-12.915450
2019.920673	-12.906374
2021.282558	-12.898246
2022.646281	-12.891691
2024.011846	-12.886154
2025.379256	-12.880764
2026.748515	-12.875313
2028.119626	-12.870377
2029.492594	-12.866867
2030.867422	-12.865149
2032.244114	-12.864522
2033.622673	-12.864033
2035.003104	-12.863498
2036.385411	-12.863297
2037.769597	-12.863490
2039.155665	-12.863105
2040.543621	-12.861058
2041.933467	-12.857452
2043.325208	-12.853561
2044.718847	-12.850304
2046.114389	-12.847187
2047.511837	-12.843366
2048.911195	-12.839335
2050.312467	-12.836449
2051.715657	-12.835560
2053.120769	-12.836285
2054.527807	-12.837773
2055.936775	-12.839502
2057.347677	-12.841162
2058.760516	-12.842728
2060.175297	-12.844429
2061.592025	-12.845838
2063.010701	-12.845505
2064.431332	-12.842536
2065.853921	-12.837526
2067.278472	-12.831299
2068.704988	-12.823559
2070.133475	-12.813284
2071.563936	-12.800300
2072.996375	-12.785486
2074.430796	-12.769749
2075.867204	-12.753636
2077.305603	-12.737713
2078.745996	-12.723025
2080.188389	-12.710825
2081.632784	-12.701939
2083.079187	-12.696710
2084.527601	-12.695727
2085.978030	-12.700225
2087.430480	-12.711118
2088.884954	-12.727966
2090.341455	-12.749675
2091.799990	-12.775819
2093.260561	-12.806788
2094.723173	-12.842400
2096.187831	-12.880986
2097.654538	-12.920545
2099.123300	-12.960285
2100.594119	-13.000389
2102.067001	-13.040491
2103.541950	-13.079000
2105.018971	-13.114163
2106.498067	-13.145207
2107.979243	-13.172085
2109.462503	-13.194376
2110.947853	-13.211344
2112.435295	-13.222411
2113.924836	-13.227790
2115.416478	-13.228104
2116.910227	-13.223712
2118.406087	-13.214469
2119.904063	-13.200580
2121.404158	-13.183646
2122.906378	-13.165627
2124.410727	-13.147446
2125.917210	-13.129788
2127.425831	-13.114192
2128.936594	-13.102346
2130.449505	-13.095221
2131.964567	-13.092827
2133.481786	-13.095336
2135.001166	-13.103348
2136.522711	-13.117031
2138.046427	-13.135755
2139.572317	-13.158766
2141.100388	-13.185722
2142.630642	-13.216147
2144.163085	-13.249059
2145.697722	-13.283470
2147.234558	-13.319051
2148.773596	-13.356049
2150.314842	-13.393732
2151.858301	-13.430135
2153.403977	-13.464228
2154.951875	-13.496344
2156.502000	-13.526555
2158.054357	-13.554062
2159.608950	-13.578575
2161.165785	-13.601597
2162.724866	-13.624456
2164.286198	-13.646468
2165.849786	-13.666647
2167.415635	-13.685962
2168.983749	-13.706315
2170.554134	-13.728319
2172.126795	-13.751012
2173.701737	-13.773544
2175.278964	-13.796105
2176.858481	-13.819389
2178.440294	-13.843179
2180.024408	-13.866634
2181.610827	-13.889587
2183.199557	-13.912785
2184.790602	-13.937315
2186.383968	-13.963216
2187.979660	-13.989913
2189.577683	-14.018075
2191.178041	-14.048180
2192.780741	-14.079689
2194.385787	-14.112827
2195.993185	-14.147892
2197.602939	-14.184094
2199.215054	-14.220433
2200.829537	-14.257135
2202.446392	-14.295220
2204.065624	-14.335279
2205.687239	-14.376669
2207.311242	-14.417501
2208.937638	-14.457217
2210.566433	-14.498336
2212.197631	-14.542151
2213.831239	-14.585993
2215.467261	-14.628322
2217.105703	-14.671709
2218.746570	-14.716886
2220.389867	-14.760948
2222.035601	-14.803616
2223.683776	-14.846909
2225.334398	-14.890763
2226.987472	-14.933717
2228.643004	-14.975443
2230.300999	-15.017001
2231.961463	-15.058627
2233.624402	-15.099034
2235.289820	-15.138088
2236.957723	-15.177933
2238.628118	-15.219122
2240.301009	-15.259780
2241.976402	-15.300580
2243.654303	-15.344938
2245.334717	-15.392740
2247.017650	-15.440402
2248.703108	-15.488248
2250.391096	-15.539842
2252.081620	-15.594459
2253.774686	-15.649648
2255.470300	-15.707447
2257.168467	-15.769200
2258.869193	-15.831822
2260.572484	-15.894135
2262.278345	-15.958188
2263.986783	-16.023494
2265.697804	-16.088023
2267.411412	-16.152570
2269.127615	-16.219338
2270.846417	-16.286916
2272.567826	-16.351858
2274.291846	-16.415521
2276.018484	-16.480949
2277.747745	-16.546561
2279.479637	-16.610341
2281.214164	-16.673594
2282.951333	-16.735848
2284.691149	-16.795585
2286.433619	-16.854982
2288.178750	-16.914591
2289.926546	-16.973000
2291.677014	-17.030578
2293.430161	-17.087554
2295.185992	-17.143738
2296.944513	-17.200044
2298.705732	-17.257509
2300.469653	-17.317065
2302.236283	-17.378646
2304.005629	-17.441930
2305.777696	-17.508632
2307.552492	-17.579545
2309.330022	-17.653111
2311.110292	-17.729238
2312.893310	-17.810005
2314.679080	-17.893581
2316.467611	-17.977625
2318.258907	-18.063568
2320.052976	-18.152821
2321.849824	-18.243949
2323.649457	-18.334280
2325.451883	-18.424706
2327.257106	-18.516299
2329.065135	-18.607816
2330.875975	-18.698757
2332.689633	-18.788798
2334.506116	-18.878246
2336.325430	-18.966594
2338.147581	-19.053742
2339.972578	-19.140686
2341.800425	-19.226452
2343.631130	-19.310384
2345.464700	-19.393571
2347.301141	-19.475505
2349.140461	-19.554722
2350.982665	-19.632994
2352.827760	-19.710444
2354.675754	-19.785241
2356.526653	-19.859877
2358.380464	-19.935568
2360.237195	-20.010555
2362.096851	-20.086668
2363.959440	-20.167194
2365.824968	-20.249558
2367.693444	-20.333637
2369.564873	-20.424442
2371.439263	-20.520934
2373.316620	-20.621857
2375.196953	-20.726722
2377.080267	-20.835954
2378.966570	-20.949144
2380.855869	-21.064633
2382.748171	-21.182138
2384.643484	-21.298504
2386.541815	-21.415355
2388.443170	-21.534199
2390.347557	-21.651179
2392.254984	-21.767669
2394.165457	-21.887072
2396.078984	-22.004827
2397.995572	-22.118237
2399.915229	-22.230801
2401.837961	-22.343905
2403.763777	-22.453506
2405.692684	-22.559687
2407.624689	-22.664325
2409.559800	-22.765996
2411.498023	-22.867266
2413.439368	-22.965021
2415.383840	-23.056176
2417.331449	-23.148748
2419.282201	-23.237317
2421.236104	-23.322174
2423.193165	-23.410436
2425.153393	-23.499287
2427.116795	-23.587559
2429.083378	-23.679803
2431.053151	-23.777991
2433.026121	-23.884074
2435.002297	-23.998372
2436.981685	-24.118996
2438.964293	-24.248491
2440.950131	-24.387189
2442.939204	-24.527666
2444.931522	-24.671375
2446.927092	-24.822105
2448.925923	-24.968676
2450.928022	-25.113390
2452.933397	-25.262449
2454.942056	-25.408757
2456.954008	-25.554551
2458.969260	-25.696712
2460.987821	-25.838326
2463.009699	-25.986782
2465.034902	-26.130990
2467.063437	-26.262415
2469.095315	-26.394965
2471.130542	-26.527111
2473.169127	-26.645427
2475.211078	-26.766997
2477.256404	-26.880761
2479.305112	-26.982636
2481.357212	-27.088683
2483.412713	-27.183625
2485.471621	-27.272592
2487.533946	-27.357178
2489.599696	-27.437141
2491.668880	-27.531592
2493.741507	-27.624475
2495.817585	-27.714353
2497.897122	-27.827000
2499.980127	-27.947497
2502.066609	-28.069279
2504.156578	-28.222284
2506.250040	-28.374625
2508.347006	-28.534108
2510.447483	-28.720434
2512.551482	-28.900592
2514.659010	-29.077938
2516.770076	-29.260484
2518.884690	-29.440820
2521.002861	-29.627180
2523.124597	-29.799978
2525.249907	-29.979905
2527.378801	-30.175568
2529.511287	-30.346462
2531.647375	-30.533053
2533.787074	-30.706393
2535.930393	-30.856762
2538.077340	-31.034399
2540.227927	-31.194259
2542.382160	-31.325070
2544.540051	-31.451511
2546.701608	-31.579331
2548.866840	-31.695520
2551.035757	-31.774178
2553.208369	-31.846530
2555.384684	-31.940070
2557.564713	-31.990838
2559.748465	-32.037722
2561.935948	-32.105294
2564.127174	-32.180710
2566.322152	-32.275409
2568.520890	-32.366373
2570.723399	-32.489096
2572.929689	-32.646134
2575.139769	-32.813985
2577.353649	-32.991189
2579.571340	-33.177489
2581.792849	-33.411225
2584.018189	-33.623221
2586.247368	-33.792427
2588.480396	-34.030740
2590.717284	-34.259493
2592.958041	-34.459502
2595.202678	-34.677684
2597.451204	-34.949724
2599.703630	-35.205420
2601.959966	-35.441746
2604.220222	-35.699248
2606.484408	-35.940058
2608.752535	-36.208857
2611.024612	-36.420706
2613.300651	-36.584393
2615.580661	-36.818015
2617.864653	-37.001989
2620.152638	-37.067188
2622.444625	-37.168105
2624.740626	-37.251666
2627.040651	-37.257555
2629.344710	-37.250034
2631.652814	-37.249983
2633.964974	-37.256681
2636.281200	-37.284253
2638.601504	-37.266005
2640.925896	-37.356363
2643.254386	-37.484177
2645.586987	-37.531488
2647.923707	-37.674790
2650.264559	-37.893974
2652.609554	-38.014546
2654.958702	-38.181147
2657.312015	-38.399438
2659.669503	-38.551647
2662.031178	-38.743415
2664.397051	-38.979556
2666.767132	-39.193442
2669.141434	-39.466733
2671.519968	-39.791414
2673.902745	-40.167829
2676.289776	-40.483882
2678.681072	-40.828354
2681.076646	-41.295535
2683.476508	-41.643737
2685.880671	-41.998648
2688.289145	-42.472382
2690.701942	-42.859172
2693.119075	-43.168234
2695.540554	-43.445157
2697.966391	-43.642268
2700.396599	-43.763487
2702.831189	-43.757150
2705.270172	-43.663623
2707.713561	-43.615949
2710.161368	-43.579733
2712.613605	-43.459235
2715.070283	-43.391666
2717.531416	-43.462660
2719.997014	-43.474786
2722.467090	-43.444243
2724.941657	-43.526843
2727.420726	-43.608617
2729.904310	-43.591399
2732.392421	-43.625904
2734.885072	-43.648702
2737.382275	-43.705383
2739.884042	-43.703311
2742.390387	-43.855312
2744.901321	-43.991673
2747.416857	-44.245739
2749.937008	-44.484503
2752.461787	-44.710002
2754.991206	-45.039214
2757.525279	-45.442228
2760.064017	-45.875758
2762.607434	-46.326650
2765.155544	-47.013077
2767.708358	-47.506717
2770.265890	-48.354041
2772.828153	-49.014290
2775.395160	-49.525377
2777.966924	-50.140849
2780.543459	-50.558062
2783.124778	-50.658413
2785.710894	-51.109197
2788.301821	-50.822512
2790.897572	-51.196094
2793.498160	-51.174878
2796.103599	-51.338522
2798.713903	-51.545460
2801.329085	-51.523085
2803.949159	-51.623115
2806.574139	-51.801995
2809.204038	-51.288370
2811.838871	-51.313655
2814.478650	-50.763318
2817.123391	-50.547615
2819.773107	-50.345962
2822.427812	-50.103001
2825.087521	-50.132587
2827.752247	-49.846611
2830.422005	-49.795256
2833.096808	-49.867213
2835.776672	-49.762339
2838.461611	-49.902273
2841.151638	-50.134627
2843.846769	-50.560316
2846.547019	-50.999989
2849.252401	-51.520479
2851.962930	-52.175042
2854.678621	-52.912261
2857.399489	-53.438753
2860.125549	-54.087185
2862.856815	-54.554237
2865.593302	-54.916944
2868.335026	-55.180031
2871.082002	-55.575098
2873.834244	-55.912917
2876.591767	-56.339203
2879.354588	-56.952088
2882.122721	-57.788008
2884.896181	-58.685577
2887.674984	-59.884298
2890.459146	-60.979222
2893.248681	-62.023497
2896.043606	-62.187332
2898.843937	-62.357804
2901.649687	-62.250081
2904.460875	-61.998719
2907.277515	-61.153219
2910.099623	-60.093108
2912.927215	-59.016530
2915.760308	-58.123252
2918.598916	-57.446576
2921.443057	-56.838872
2924.292747	-56.687532
2927.148002	-56.851015
2930.008837	-56.890853
2932.875270	-57.237470
2935.747318	-57.530715
2938.624995	-58.254048
2941.508320	-58.817557
2944.397308	-59.252110
2947.291977	-59.649423
2950.192343	-59.897180
2953.098423	-60.055980
2956.010234	-59.775991
2958.927792	-59.797824
2961.851116	-59.698471
2964.780221	-59.855586
2967.715126	-59.929021
2970.655847	-60.398540
2973.602402	-60.940931
2976.554808	-61.344271
2979.513083	-61.944984
2982.477243	-62.371517
2985.447308	-62.805315
2988.423293	-64.044654
2991.405218	-65.855357
2994.393099	-67.993782
2997.386955	-71.329728
