# 2022-03-22_11.54.57
# shape = sech2
# FWHM_ps = 0.11
# carrier_nm = 1542
# frep_MHz = 12126
# pow_mW = 8000
# GDD = 0.0
# propa_len = 0.14622222222222223
# untap_len = 0.01
# taper_len = 0.08622222222222223
# waist_len = 0.02
# uptap_len = 0.02
# untap_scale = 1.0
# waist_scale = 0.1
# workingDir = NL_20110305_12 (Spirou)
# axis = slow
# window_ps = 10.0
# steps = 200
# points = 21700
# 
# wavelength [nm]	 power spectral density [dB]
600.043425	-91.260863
600.163550	-90.951040
600.283723	-91.455616
600.403943	-95.706273
600.524212	-95.206649
600.644529	-105.531513
600.764895	-101.115014
600.885308	-98.284535
601.005770	-92.285347
601.126280	-90.203587
601.246839	-88.292968
601.367446	-89.191130
601.488101	-90.960571
601.608804	-91.177291
601.729557	-92.422407
601.850357	-95.914408
601.971206	-97.189749
602.092104	-101.019020
602.213050	-100.585395
602.334045	-98.166646
602.455089	-99.542198
602.576181	-95.962850
602.697322	-100.252220
602.818511	-100.670670
602.939749	-105.801660
603.061036	-101.486604
603.182372	-99.596290
603.303757	-90.782465
603.425191	-89.806604
603.546673	-88.477686
603.668204	-88.092065
603.789785	-91.951216
603.911414	-88.962920
604.033092	-90.070373
604.154820	-92.759694
604.276596	-93.115039
604.398422	-94.290162
604.520297	-94.239751
604.642220	-94.561086
604.764193	-95.156661
604.886216	-93.148654
605.008287	-94.506208
605.130408	-93.411513
605.252578	-89.759784
605.374798	-91.457110
605.497066	-91.025243
605.619385	-88.621983
605.741752	-89.735041
605.864169	-87.726390
605.986636	-88.699388
606.109152	-88.276010
606.231718	-86.338121
606.354333	-88.489939
606.476998	-88.908639
606.599712	-90.975207
606.722476	-92.401475
606.845290	-95.115475
606.968154	-92.593491
607.091067	-91.119598
607.214030	-88.865059
607.337043	-90.110068
607.460106	-89.788417
607.583219	-91.539884
607.706381	-95.397341
607.829594	-95.413792
607.952856	-105.722002
608.076169	-113.432023
608.199531	-105.307619
608.322944	-99.178588
608.446407	-96.389998
608.569920	-101.357935
608.693483	-96.872768
608.817096	-97.946888
608.940759	-92.385678
609.064473	-89.987724
609.188237	-91.208880
609.312051	-92.166576
609.435916	-100.665451
609.559831	-99.051983
609.683796	-98.799335
609.807812	-94.202424
609.931878	-91.505950
610.055995	-92.661040
610.180162	-90.212617
610.304380	-92.043785
610.428648	-93.693976
610.552967	-96.236155
610.677337	-103.826538
610.801757	-98.032582
610.926228	-101.931063
611.050750	-96.153377
611.175323	-93.788070
611.299946	-95.244784
611.424620	-90.505727
611.549345	-91.568630
611.674121	-92.646464
611.798948	-94.338539
611.923826	-94.733493
612.048755	-91.788966
612.173734	-89.213624
612.298765	-88.552457
612.423847	-91.408952
612.548980	-92.081429
612.674165	-93.177698
612.799400	-99.110141
612.924687	-92.633449
613.050025	-93.103189
613.175414	-89.340204
613.300854	-88.882607
613.426346	-88.247458
613.551889	-88.995347
613.677484	-91.418145
613.803130	-92.535626
613.928827	-88.687838
614.054576	-91.335462
614.180377	-90.444686
614.306229	-89.761391
614.432132	-93.697011
614.558087	-88.108318
614.684094	-94.882962
614.810153	-109.285494
614.936263	-93.077446
615.062425	-90.520679
615.188639	-95.336394
615.314904	-91.131655
615.441222	-99.290599
615.567591	-95.011376
615.694012	-97.490677
615.820486	-93.743341
615.947011	-87.395539
616.073588	-90.484838
616.200217	-90.290474
616.326898	-94.354982
616.453632	-91.553150
616.580417	-92.645470
616.707255	-91.378921
616.834144	-121.055373
616.961086	-91.472045
617.088081	-91.928531
617.215127	-90.510447
617.342226	-91.341137
617.469378	-101.360024
617.596581	-93.556579
617.723837	-102.630899
617.851146	-97.408361
617.978507	-98.627642
618.105920	-89.064432
618.233386	-95.310968
618.360905	-107.508972
618.488476	-88.319359
618.616100	-86.236030
618.743777	-86.014628
618.871506	-86.924758
618.999288	-88.111902
619.127123	-85.572254
619.255011	-88.533346
619.382951	-85.394475
619.510945	-84.677181
619.638991	-87.286142
619.767090	-90.022141
619.895243	-109.771502
620.023448	-89.066228
620.151706	-89.757481
620.280017	-95.395959
620.408382	-102.431731
620.536799	-101.942742
620.665270	-99.659576
620.793794	-99.314269
620.922371	-109.913921
621.051002	-103.358630
621.179686	-95.867316
621.308423	-100.085764
621.437213	-92.334087
621.566057	-89.831383
621.694954	-87.741858
621.823905	-83.666252
621.952909	-88.223854
622.081967	-89.647733
622.211079	-88.402790
622.340244	-88.754672
622.469462	-85.777493
622.598735	-88.641896
622.728061	-90.606749
622.857441	-86.430361
622.986874	-86.972756
623.116361	-84.662003
623.245903	-84.354984
623.375498	-88.777523
623.505147	-85.324756
623.634850	-85.067971
623.764606	-87.659452
623.894417	-86.139008
624.024282	-89.003583
624.154201	-91.230932
624.284174	-86.128599
624.414202	-89.235847
624.544283	-93.445210
624.674419	-87.400442
624.804609	-88.926858
624.934853	-93.328016
625.065151	-86.335872
625.195504	-86.630106
625.325911	-93.791072
625.456373	-96.556134
625.586889	-88.178915
625.717460	-87.934555
625.848085	-94.369421
625.978764	-88.607496
626.109498	-86.644240
626.240287	-83.870372
626.371131	-84.091836
626.502029	-86.084585
626.632982	-86.317829
626.763989	-87.673176
626.895052	-85.990482
627.026169	-87.659216
627.157341	-93.920890
627.288568	-88.488200
627.419850	-86.547531
627.551187	-85.519725
627.682579	-88.057806
627.814026	-89.180617
627.945528	-91.470247
628.077085	-93.907654
628.208697	-101.262679
628.340364	-91.684123
628.472087	-92.104579
628.603865	-94.900446
628.735698	-94.885597
628.867586	-97.097017
628.999530	-87.869188
629.131529	-87.125240
629.263584	-89.145048
629.395694	-93.772407
629.527859	-92.726764
629.660080	-90.475117
629.792357	-90.663206
629.924689	-95.333548
630.057077	-90.147258
630.189520	-90.739520
630.322019	-85.696730
630.454574	-84.507849
630.587184	-82.905552
630.719851	-84.136350
630.852573	-86.970059
630.985351	-87.028790
631.118185	-88.483232
631.251075	-90.784605
631.384021	-102.246197
631.517023	-90.392426
631.650081	-88.665195
631.783195	-91.234361
631.916365	-87.712721
632.049592	-96.069418
632.182874	-87.983344
632.316213	-87.777941
632.449608	-88.947323
632.583059	-83.435153
632.716567	-82.262430
632.850131	-83.179930
632.983751	-88.421331
633.117428	-84.465539
633.251161	-84.015518
633.384951	-90.069018
633.518797	-86.224615
633.652700	-86.705645
633.786660	-86.835786
633.920676	-90.867130
634.054749	-85.075561
634.188879	-84.056079
634.323065	-86.800037
634.457308	-89.883163
634.591608	-90.171171
634.725965	-89.406810
634.860379	-82.558903
634.994850	-80.400261
635.129377	-80.073901
635.263962	-79.989799
635.398604	-84.951441
635.533303	-86.140286
635.668058	-96.089737
635.802872	-86.692606
635.937742	-96.624849
636.072669	-94.589637
636.207654	-92.663019
636.342696	-100.334578
636.477796	-89.970387
636.612953	-90.151236
636.748167	-100.214168
636.883439	-89.571571
637.018768	-89.357058
637.154155	-86.997861
637.289599	-84.494975
637.425101	-85.278212
637.560660	-83.707695
637.696277	-82.499366
637.831952	-84.606660
637.967685	-90.458772
638.103475	-86.234148
638.239324	-86.845839
638.375230	-84.050124
638.511194	-82.850573
638.647215	-87.614468
638.783295	-83.722925
638.919433	-88.227941
639.055629	-85.667904
639.191883	-85.643368
639.328195	-84.591072
639.464565	-90.552950
639.600994	-84.942306
639.737481	-91.917540
639.874025	-89.330400
640.010629	-96.517627
640.147290	-85.409731
640.284010	-84.596699
640.420789	-85.102364
640.557625	-89.428911
640.694521	-94.713385
640.831474	-92.981774
640.968487	-86.362335
641.105558	-85.591359
641.242687	-83.520476
641.379876	-87.509785
641.517123	-90.705990
641.654429	-91.138009
641.791793	-88.742841
641.929216	-89.396711
642.066699	-82.597354
642.204240	-81.585287
642.341840	-79.898600
642.479499	-84.050975
642.617217	-86.744380
642.754994	-91.454086
642.892830	-93.096724
643.030726	-92.730308
643.168680	-91.899135
643.306694	-88.945594
643.444767	-84.846406
643.582899	-89.666486
643.721091	-82.876012
643.859342	-84.312661
643.997652	-81.294845
644.136022	-83.845571
644.274451	-83.042888
644.412940	-94.602906
644.551488	-97.522100
644.690096	-90.103912
644.828763	-83.670053
644.967490	-87.216401
645.106277	-84.116109
645.245124	-82.148041
645.384030	-82.574929
645.522997	-96.004279
645.662023	-90.038911
645.801109	-83.259293
645.940255	-86.742647
646.079460	-85.976587
646.218726	-85.092322
646.358052	-83.973109
646.497438	-86.705291
646.636884	-88.948290
646.776391	-81.847261
646.915957	-79.918629
647.055584	-80.825181
647.195271	-82.637422
647.335019	-80.936500
647.474826	-87.919194
647.614695	-104.864764
647.754623	-93.302692
647.894612	-85.341899
648.034662	-83.364390
648.174772	-84.342987
648.314943	-84.165539
648.455174	-87.019915
648.595466	-90.830821
648.735819	-105.774395
648.876233	-84.367309
649.016707	-81.071746
649.157242	-80.092086
649.297838	-83.688399
649.438495	-79.109514
649.579213	-84.268906
649.719992	-88.922431
649.860832	-92.431621
650.001733	-81.014898
650.142695	-83.257691
650.283718	-80.543103
650.424803	-80.086072
650.565949	-79.530158
650.707156	-89.340314
650.848424	-88.917610
650.989754	-90.095885
651.131145	-82.960821
651.272597	-89.251949
651.414111	-89.466175
651.555687	-86.281165
651.697324	-89.971015
651.839022	-90.525974
651.980782	-87.781345
652.122604	-80.752385
652.264488	-78.963057
652.406433	-78.706671
652.548441	-78.894914
652.690510	-79.581192
652.832640	-82.777378
652.974833	-80.688298
653.117088	-81.535706
653.259405	-82.222098
653.401784	-85.827503
653.544224	-91.873468
653.686727	-87.732368
653.829293	-82.831089
653.971920	-83.723133
654.114609	-82.823392
654.257361	-81.705859
654.400175	-80.251254
654.543052	-81.140780
654.685991	-80.710127
654.828992	-82.584566
654.972056	-86.310407
655.115183	-83.361666
655.258372	-81.275313
655.401623	-84.816829
655.544937	-95.681931
655.688314	-89.229132
655.831754	-84.146568
655.975256	-78.973364
656.118822	-78.273640
656.262450	-79.110227
656.406141	-77.426003
656.549894	-79.215886
656.693711	-84.195810
656.837591	-86.316026
656.981534	-86.311866
657.125540	-80.133547
657.269610	-79.701695
657.413742	-77.328669
657.557938	-77.082057
657.702196	-77.246504
657.846519	-82.747540
657.990904	-88.531118
658.135353	-82.958025
658.279866	-78.850096
658.424441	-77.953802
658.569081	-76.571087
658.713784	-76.711278
658.858550	-84.036431
659.003381	-92.540810
659.148274	-86.545595
659.293232	-79.420604
659.438253	-78.244562
659.583339	-81.635251
659.728488	-78.606134
659.873701	-77.951855
660.018978	-84.091751
660.164318	-84.991649
660.309723	-79.302338
660.455192	-80.404218
660.600725	-85.683772
660.746323	-83.494623
660.891984	-80.837059
661.037710	-97.525826
661.183500	-87.842468
661.329354	-84.858327
661.475272	-87.552719
661.621255	-83.022479
661.767303	-80.491900
661.913415	-82.200355
662.059591	-83.513600
662.205833	-83.864489
662.352138	-78.914624
662.498509	-77.424153
662.644944	-76.914507
662.791443	-80.513596
662.938008	-82.780808
663.084638	-82.414681
663.231332	-88.490169
663.378091	-82.182048
663.524915	-77.315270
663.671804	-77.968465
663.818759	-78.135030
663.965778	-79.280683
664.112863	-87.187635
664.260012	-86.816726
664.407227	-82.715341
664.554507	-89.239380
664.701853	-80.854116
664.849264	-81.986492
664.996740	-83.565696
665.144282	-88.884388
665.291889	-80.780001
665.439561	-79.028579
665.587300	-75.805378
665.735103	-77.010178
665.882973	-78.502220
666.030908	-78.872426
666.178909	-80.198692
666.326976	-84.424949
666.475109	-91.800378
666.623307	-82.432283
666.771571	-80.461731
666.919902	-82.943190
667.068298	-84.727243
667.216761	-89.093053
667.365289	-83.154158
667.513884	-81.154052
667.662545	-81.123248
667.811272	-77.504100
667.960065	-76.981004
668.108925	-78.953206
668.257851	-81.872581
668.406843	-92.399637
668.555902	-82.533071
668.705027	-82.057391
668.854219	-82.638337
669.003478	-79.553969
669.152803	-80.620966
669.302195	-82.535529
669.451653	-87.220406
669.601179	-95.673817
669.750771	-84.344737
669.900430	-83.881159
670.050156	-87.540099
670.199949	-85.340821
670.349808	-88.548480
670.499735	-82.545963
670.649729	-79.256600
670.799790	-78.556046
670.949918	-80.301180
671.100114	-82.609044
671.250377	-79.439868
671.400707	-89.522353
671.551104	-85.263611
671.701569	-81.486873
671.852101	-79.474462
672.002700	-77.004996
672.153368	-81.824461
672.304102	-85.782471
672.454905	-87.088081
672.605775	-86.816440
672.756713	-82.442912
672.907718	-84.506340
673.058791	-87.128283
673.209933	-81.204464
673.361142	-84.378782
673.512419	-101.912086
673.663764	-88.794336
673.815177	-82.755929
673.966658	-80.171724
674.118207	-82.976651
674.269825	-81.772737
674.421510	-88.016962
674.573264	-88.225116
674.725086	-89.858438
674.876977	-85.196044
675.028936	-91.776509
675.180963	-93.899643
675.333059	-85.794890
675.485224	-82.148207
675.637457	-80.694293
675.789758	-77.684503
675.942129	-76.973188
676.094568	-77.039077
676.247075	-76.055087
676.399652	-82.660081
676.552298	-92.432279
676.705012	-82.547904
676.857795	-81.472412
677.010648	-108.363982
677.163569	-92.789231
677.316560	-87.134424
677.469619	-89.591311
677.622748	-83.909641
677.775946	-87.457096
677.929214	-87.957281
678.082551	-78.788148
678.235957	-78.303374
678.389432	-82.616549
678.542977	-87.805823
678.696592	-93.190605
678.850276	-87.028927
679.004030	-83.925239
679.157853	-78.953234
679.311746	-84.324944
679.465709	-84.630256
679.619742	-89.022048
679.773844	-86.383120
679.928017	-86.781504
680.082259	-81.847297
680.236571	-83.976384
680.390954	-84.304415
680.545406	-80.783447
680.699929	-86.092550
680.854522	-82.763963
681.009185	-89.805177
681.163918	-85.196524
681.318722	-85.741862
681.473596	-80.789316
681.628540	-83.556350
681.783555	-88.821637
681.938641	-86.181790
682.093797	-89.532022
682.249023	-98.567045
682.404321	-82.387689
682.559689	-80.551706
682.715128	-80.160288
682.870637	-76.332588
683.026218	-78.239803
683.181869	-78.659219
683.337591	-84.428799
683.493385	-87.526454
683.649249	-79.806583
683.805185	-76.964473
683.961191	-77.834357
684.117269	-78.223633
684.273418	-88.851064
684.429639	-96.091549
684.585930	-88.252873
684.742294	-87.189034
684.898728	-86.409325
685.055234	-79.441275
685.211812	-81.443179
685.368461	-75.398155
685.525182	-77.344545
685.681975	-78.792541
685.838839	-84.436963
685.995775	-78.166463
686.152783	-77.181345
686.309863	-76.429394
686.467014	-77.933338
686.624238	-79.527985
686.781534	-89.816643
686.938902	-98.287400
687.096342	-82.928218
687.253854	-79.885046
687.411438	-78.072494
687.569095	-82.595197
687.726824	-82.000333
687.884626	-79.991761
688.042499	-77.547425
688.200446	-77.018543
688.358465	-79.344072
688.516556	-81.999020
688.674720	-80.039608
688.832957	-77.453578
688.991266	-76.577383
689.149649	-77.421475
689.308104	-79.343659
689.466632	-78.667703
689.625233	-90.395137
689.783906	-90.728745
689.942653	-79.839759
690.101473	-78.893183
690.260367	-87.980312
690.419333	-90.130199
690.578372	-78.021025
690.737485	-79.003462
690.896672	-77.467416
691.055931	-80.120008
691.215264	-79.374438
691.374671	-93.609584
691.534151	-85.706817
691.693704	-80.714590
691.853332	-74.427973
692.013033	-74.934334
692.172807	-76.118353
692.332656	-77.843260
692.492578	-82.305991
692.652575	-83.885426
692.812645	-93.423787
692.972789	-82.010406
693.133007	-83.212459
693.293300	-81.614189
693.453666	-84.371607
693.614107	-82.669400
693.774622	-79.320187
693.935211	-84.191179
694.095875	-77.810107
694.256613	-75.978188
694.417426	-77.373500
694.578313	-80.397059
694.739274	-78.909300
694.900311	-79.333849
695.061421	-76.075465
695.222607	-78.949592
695.383868	-79.065526
695.545203	-79.637695
695.706613	-91.270746
695.868098	-80.772947
696.029658	-83.946706
696.191293	-75.694773
696.353003	-81.594344
696.514789	-85.577464
696.676649	-87.858264
696.838585	-82.081659
697.000596	-74.078812
697.162682	-80.294266
697.324844	-76.301765
697.487081	-84.049292
697.649394	-80.432609
697.811782	-79.868322
697.974246	-74.840094
698.136786	-79.479244
698.299401	-74.923900
698.462092	-92.104405
698.624859	-86.073426
698.787702	-75.639563
698.950621	-81.477863
699.113616	-74.614046
699.276686	-83.070048
699.439833	-78.859353
699.603056	-79.389254
699.766355	-79.218778
699.929731	-75.111458
700.093183	-80.283310
700.256711	-84.035272
700.420315	-83.452906
700.583996	-78.519906
700.747754	-78.506390
700.911588	-77.179325
701.075499	-79.397678
701.239486	-81.461452
701.403550	-78.947960
701.567691	-77.284612
701.731909	-76.325051
701.896203	-78.049407
702.060575	-80.874666
702.225024	-85.667921
702.389549	-87.549106
702.554152	-76.751715
702.718832	-82.743925
702.883589	-79.995698
703.048424	-78.257654
703.213335	-77.434940
703.378324	-77.894199
703.543391	-73.764645
703.708535	-76.724297
703.873757	-80.049972
704.039056	-80.616179
704.204433	-86.498830
704.369887	-72.473092
704.535420	-76.989202
704.701030	-76.775935
704.866718	-87.238116
705.032484	-85.297369
705.198328	-80.148415
705.364250	-80.136419
705.530250	-91.835792
705.696328	-77.632410
705.862485	-75.733038
706.028720	-78.570720
706.195033	-71.938971
706.361424	-73.489384
706.527894	-72.289591
706.694442	-85.296272
706.861069	-76.274822
707.027775	-79.760954
707.194559	-82.793331
707.361422	-72.727268
707.528363	-90.558685
707.695384	-80.785475
707.862483	-78.190072
708.029661	-75.799312
708.196918	-79.770454
708.364254	-85.171193
708.531670	-76.138555
708.699164	-82.754356
708.866738	-80.012467
709.034391	-84.662628
709.202123	-78.622957
709.369935	-68.085210
709.537826	-73.729010
709.705796	-71.953894
709.873847	-74.579985
710.041976	-81.393741
710.210186	-81.916583
710.378475	-86.028437
710.546844	-75.134127
710.715292	-75.251855
710.883821	-80.843100
711.052429	-83.002771
711.221118	-81.045592
711.389887	-76.752360
711.558735	-72.591464
711.727664	-72.200939
711.896673	-74.236786
712.065763	-79.496573
712.234932	-89.199224
712.404183	-76.358351
712.573513	-75.068956
712.742924	-69.128683
712.912416	-72.074630
713.081988	-78.046691
713.251641	-77.745178
713.421375	-76.138198
713.591190	-79.137984
713.761085	-79.697364
713.931061	-72.213363
714.101119	-82.449538
714.271257	-76.619802
714.441476	-70.808641
714.611777	-71.319492
714.782159	-73.684363
714.952622	-72.625715
715.123166	-67.230404
715.293792	-71.995242
715.464499	-75.216155
715.635288	-76.579871
715.806158	-71.286477
715.977110	-77.830005
716.148143	-81.677395
716.319259	-72.836474
716.490456	-80.824841
716.661735	-70.764125
716.833096	-68.310275
717.004538	-66.295257
717.176063	-70.175467
717.347670	-72.347626
717.519359	-73.950505
717.691130	-75.542640
717.862984	-69.770624
718.034920	-71.234221
718.206938	-67.900652
718.379039	-74.230006
718.551222	-77.278141
718.723488	-71.523285
718.895836	-72.078217
719.068267	-68.089229
719.240781	-74.898866
719.413377	-68.205962
719.586057	-70.946921
719.758819	-67.136493
719.931664	-69.564413
720.104593	-75.352391
720.277604	-70.384894
720.450699	-72.888918
720.623876	-70.015477
720.797137	-68.313363
720.970482	-65.464791
721.143910	-69.735112
721.317421	-80.392841
721.491016	-68.723223
721.664694	-71.077188
721.838456	-66.502363
722.012302	-65.665136
722.186231	-62.860730
722.360244	-67.023303
722.534342	-68.169291
722.708523	-70.611997
722.882788	-73.304855
723.057137	-66.555937
723.231570	-67.992117
723.406088	-65.343922
723.580689	-68.987787
723.755375	-70.150396
723.930146	-66.661796
724.105000	-65.467063
724.279940	-61.675593
724.454963	-63.494785
724.630072	-63.662421
724.805265	-69.787345
724.980543	-68.787740
725.155905	-68.551518
725.331353	-67.033825
725.506885	-65.030568
725.682503	-67.665385
725.858205	-65.224689
726.033993	-68.162053
726.209865	-63.316797
726.385823	-65.054349
726.561866	-64.508432
726.737995	-65.274250
726.914209	-69.601770
727.090508	-64.970250
727.266893	-67.072121
727.443364	-62.982536
727.619920	-63.689883
727.796562	-62.944935
727.973290	-65.412989
728.150103	-66.578892
728.327003	-62.384375
728.503988	-64.146952
728.681060	-62.464099
728.858218	-66.559119
729.035461	-63.583485
729.212791	-65.087405
729.390208	-65.283951
729.567710	-63.863260
729.745299	-66.790165
729.922975	-64.583048
730.100737	-66.510784
730.278586	-62.258815
730.456521	-62.352444
730.634543	-62.928837
730.812652	-63.300097
730.990848	-66.614486
731.169130	-63.810833
731.347500	-66.158219
731.525957	-62.529286
731.704500	-63.066807
731.883131	-62.742728
732.061850	-62.259969
732.240655	-63.675535
732.419548	-62.888728
732.598528	-64.357825
732.777596	-63.503604
732.956751	-65.362748
733.135994	-62.873403
733.315325	-63.304520
733.494744	-62.889116
733.674250	-62.760843
733.853844	-64.162102
734.033526	-60.222961
734.213296	-63.789434
734.393154	-63.073308
734.573101	-61.951613
734.753135	-62.259348
734.933258	-62.770075
735.113469	-64.701502
735.293769	-61.636095
735.474157	-64.347513
735.654633	-62.357106
735.835198	-63.070389
736.015852	-60.761060
736.196594	-59.983016
736.377426	-61.781614
736.558346	-63.181467
736.739355	-63.398580
736.920453	-59.577215
737.101640	-63.478700
737.282916	-63.963462
737.464282	-61.304584
737.645736	-59.954193
737.827280	-58.730371
738.008914	-64.709388
738.190637	-64.177997
738.372449	-63.770178
738.554351	-59.631938
738.736342	-62.972875
738.918424	-62.890150
739.100595	-58.963905
739.282855	-62.040224
739.465206	-60.636621
739.647647	-64.555545
739.830178	-61.586601
740.012799	-60.223678
740.195510	-60.920583
740.378311	-61.113067
740.561203	-61.832502
740.744185	-61.424049
740.927258	-61.636803
741.110421	-60.437870
741.293674	-63.375412
741.477018	-61.142817
741.660453	-60.949314
741.843979	-62.784944
742.027596	-60.067538
742.211303	-64.005700
742.395102	-61.355796
742.578991	-60.904568
742.762972	-63.361415
742.947044	-61.259961
743.131207	-66.228922
743.315461	-59.880982
743.499807	-59.390617
743.684244	-60.484563
743.868773	-63.526951
744.053394	-61.221956
744.238106	-63.029192
744.422910	-60.473445
744.607805	-58.887070
744.792793	-61.977361
744.977872	-61.499137
745.163044	-63.143106
745.348307	-62.094381
745.533663	-61.011238
745.719111	-63.005573
745.904651	-62.231867
746.090283	-63.049573
746.276008	-59.975856
746.461826	-61.933296
746.647735	-59.998945
746.833738	-60.469851
747.019833	-61.427398
747.206021	-63.371039
747.392302	-62.413385
747.578676	-63.605771
747.765143	-61.947747
747.951703	-61.950674
748.138356	-61.590086
748.325102	-59.733920
748.511941	-64.169368
748.698874	-62.284921
748.885900	-61.251240
749.073019	-65.496154
749.260232	-61.362593
749.447539	-62.061717
749.634939	-62.551911
749.822433	-61.789660
750.010021	-64.148171
750.197703	-60.494738
750.385479	-62.188467
750.573348	-61.349104
750.761312	-62.562455
750.949370	-64.517378
751.137523	-64.063694
751.325769	-62.093583
751.514110	-61.214816
751.702545	-62.235745
751.891075	-63.761693
752.079700	-67.093655
752.268419	-63.016245
752.457233	-63.724012
752.646142	-62.390726
752.835145	-61.889288
753.024244	-62.300993
753.213437	-62.712960
753.402726	-64.467385
753.592110	-64.000130
753.781589	-67.027641
753.971163	-62.081899
754.160833	-63.148120
754.350598	-63.020644
754.540459	-63.431472
754.730415	-67.760861
754.920467	-63.404919
755.110615	-64.135629
755.300858	-62.799940
755.491198	-67.975073
755.681633	-68.580021
755.872164	-66.271247
756.062792	-65.528572
756.253515	-60.836289
756.444335	-66.852748
756.635252	-63.627036
756.826264	-66.502133
757.017373	-66.789253
757.208579	-65.454984
757.399881	-68.062848
757.591280	-66.380456
757.782776	-68.327196
757.974368	-63.044632
758.166058	-68.117090
758.357844	-67.670311
758.549728	-69.268550
758.741708	-74.143349
758.933786	-65.613694
759.125961	-68.888371
759.318233	-66.590174
759.510603	-68.696925
759.703071	-66.548658
759.895635	-70.297825
760.088298	-65.779501
760.281058	-68.522387
760.473916	-75.184717
760.666872	-74.931139
760.859926	-75.326944
761.053078	-69.704558
761.246328	-66.152828
761.439676	-66.520608
761.633122	-70.844785
761.826667	-76.422515
762.020310	-77.587740
762.214052	-70.816567
762.407892	-66.222750
762.601831	-70.010721
762.795868	-68.410616
762.990004	-77.220065
763.184239	-76.141543
763.378573	-80.124217
763.573006	-75.126478
763.767538	-71.777597
763.962169	-80.901547
764.156900	-71.012924
764.351729	-74.916281
764.546658	-83.887687
764.741687	-71.755792
764.936815	-82.243871
765.132042	-72.938779
765.327370	-73.087463
765.522797	-73.380600
765.718324	-77.122639
765.913950	-72.974746
766.109677	-74.295187
766.305504	-69.760454
766.501431	-83.778721
766.697458	-71.774653
766.893586	-86.248332
767.089814	-75.939909
767.286142	-72.713205
767.482571	-71.053640
767.679100	-69.320087
767.875730	-81.837780
768.072461	-70.860063
768.269293	-68.967566
768.466225	-66.397922
768.663259	-68.016094
768.860393	-67.115484
769.057629	-65.300024
769.254966	-67.661967
769.452404	-70.702337
769.649944	-68.157568
769.847585	-65.355810
770.045328	-67.750457
770.243172	-72.865215
770.441118	-67.287366
770.639166	-61.756185
770.837315	-60.370494
771.035567	-65.883650
771.233920	-65.331785
771.432376	-63.768379
771.630934	-64.294951
771.829594	-65.451214
772.028356	-64.856014
772.227220	-64.915943
772.426188	-61.737434
772.625257	-58.826396
772.824430	-60.990569
773.023705	-61.268308
773.223083	-64.793238
773.422563	-66.912479
773.622147	-61.672451
773.821834	-59.627761
774.021624	-61.112832
774.221517	-62.474120
774.421513	-62.659995
774.621613	-62.129832
774.821816	-58.660530
775.022122	-57.924770
775.222532	-59.750196
775.423046	-60.257722
775.623664	-64.720075
775.824385	-61.662544
776.025211	-58.655274
776.226140	-57.537158
776.427173	-58.282917
776.628311	-57.987013
776.829553	-59.863201
777.030899	-61.518405
777.232350	-57.056133
777.433905	-58.058467
777.635564	-58.569687
777.837328	-58.004781
778.039197	-58.009386
778.241171	-59.218539
778.443250	-56.606123
778.645433	-56.963116
778.847722	-58.183565
779.050116	-55.874797
779.252615	-56.512190
779.455219	-58.428454
779.657929	-57.419964
779.860744	-56.931844
780.063665	-57.317715
780.266691	-55.957611
780.469823	-54.846144
780.673061	-57.364830
780.876405	-56.778319
781.079855	-56.237350
781.283410	-56.938202
781.487072	-56.312044
781.690840	-53.955813
781.894715	-54.490352
782.098695	-55.578595
782.302783	-55.038987
782.506976	-54.983264
782.711277	-55.930106
782.915684	-56.083511
783.120198	-53.893852
783.324818	-54.570548
783.529546	-54.146368
783.734381	-53.935939
783.939322	-55.788926
784.144372	-56.510844
784.349528	-53.755346
784.554792	-53.046132
784.760163	-53.150041
784.965642	-53.665126
785.171228	-55.065495
785.376922	-54.085716
785.582724	-54.130483
785.788634	-53.613270
785.994651	-52.271243
786.200777	-53.248797
786.407011	-53.257081
786.613353	-54.201535
786.819804	-53.690896
787.026363	-53.932427
787.233030	-51.595316
787.439806	-51.356359
787.646691	-54.253565
787.853684	-52.845569
788.060786	-53.515136
788.267997	-52.098181
788.475317	-52.946818
788.682746	-51.706502
788.890285	-52.258788
789.097932	-53.390441
789.305689	-51.834529
789.513555	-52.209263
789.721531	-53.203213
789.929617	-50.727004
790.137812	-52.074928
790.346117	-51.903214
790.554531	-51.782082
790.763056	-51.289803
790.971691	-51.270561
791.180436	-52.414652
791.389291	-52.308951
791.598256	-51.512753
791.807332	-50.487548
792.016518	-51.435631
792.225815	-50.732486
792.435222	-52.167283
792.644740	-51.266561
792.854369	-50.955373
793.064109	-50.894092
793.273960	-50.882687
793.483922	-51.253790
793.693995	-50.660663
793.904180	-51.449038
794.114475	-50.416273
794.324882	-51.657239
794.535401	-50.339921
794.746031	-50.708071
794.956774	-50.001980
795.167627	-50.650197
795.378593	-49.273196
795.589671	-51.047321
795.800861	-50.334040
796.012162	-51.079419
796.223577	-50.614522
796.435103	-49.613687
796.646742	-50.571203
796.858493	-49.964339
797.070357	-50.655787
797.282334	-48.941520
797.494423	-50.929729
797.706626	-49.578687
797.918941	-51.872458
798.131369	-48.674542
798.343911	-50.808659
798.556566	-48.268905
798.769334	-51.136886
798.982215	-49.279530
799.195210	-50.768033
799.408319	-48.670227
799.621541	-50.166026
799.834877	-49.206053
800.048327	-49.677831
800.261890	-49.148218
800.475568	-50.427944
800.689360	-49.909047
800.903266	-49.876651
801.117287	-48.145440
801.331422	-49.225540
801.545671	-49.785760
801.760036	-49.393406
801.974514	-49.476384
802.189108	-49.013780
802.403816	-50.776539
802.618640	-48.005433
802.833578	-49.365687
803.048632	-47.980716
803.263800	-50.239984
803.479085	-49.137118
803.694484	-49.284004
803.909999	-49.616663
804.125630	-48.590054
804.341376	-49.151520
804.557239	-47.948159
804.773217	-49.743408
804.989311	-49.097842
805.205521	-48.787739
805.421847	-48.653468
805.638290	-50.143859
805.854849	-48.660007
806.071524	-47.415504
806.288316	-48.875712
806.505225	-50.784289
806.722250	-48.183789
806.939393	-47.626489
807.156652	-49.317173
807.374028	-50.148488
807.591521	-48.449721
807.809132	-48.205959
808.026859	-49.501851
808.244705	-48.290264
808.462667	-48.271651
808.680748	-48.876585
808.898946	-48.796446
809.117261	-48.293615
809.335695	-48.544566
809.554246	-50.042207
809.772916	-47.849614
809.991704	-48.921997
810.210610	-48.543950
810.429634	-49.311057
810.648777	-48.094908
810.868039	-48.990179
811.087419	-48.966473
811.306918	-48.686881
811.526535	-49.055653
811.746272	-48.340961
811.966127	-48.394028
812.186102	-47.526414
812.406196	-49.373671
812.626409	-48.691758
812.846742	-48.845666
813.067194	-48.397129
813.287766	-49.357815
813.508457	-48.327921
813.729269	-48.212780
813.950200	-48.723952
814.171251	-48.459712
814.392422	-49.373503
814.613714	-48.009245
814.835126	-49.066736
815.056658	-48.120489
815.278311	-48.617219
815.500084	-48.565782
815.721978	-48.916236
815.943993	-48.627491
816.166128	-48.763088
816.388385	-49.093170
816.610762	-48.261135
816.833261	-49.331366
817.055881	-48.253291
817.278623	-48.882376
817.501486	-48.134658
817.724471	-48.651981
817.947577	-49.297461
818.170805	-48.438982
818.394155	-49.030491
818.617627	-48.638142
818.841221	-48.621492
819.064937	-48.464049
819.288775	-49.425829
819.512736	-48.775235
819.736819	-49.486702
819.961025	-48.343253
820.185354	-48.380756
820.409805	-47.824022
820.634379	-48.991008
820.859076	-49.066943
821.083897	-49.483013
821.308840	-49.699091
821.533907	-48.518524
821.759097	-49.246612
821.984411	-48.210622
822.209848	-49.031441
822.435409	-48.656244
822.661093	-49.299798
822.886902	-49.024581
823.112834	-49.353102
823.338891	-48.712021
823.565072	-49.355060
823.791377	-49.527611
824.017807	-48.668148
824.244361	-49.097512
824.471039	-48.544756
824.697843	-49.494800
824.924771	-49.179277
825.151824	-50.080326
825.379002	-48.057214
825.606306	-49.868863
825.833734	-48.942029
826.061288	-49.323401
826.288967	-49.774534
826.516772	-49.131434
826.744703	-49.549177
826.972759	-49.100120
827.200941	-49.689026
827.429249	-48.718066
827.657683	-49.856846
827.886243	-49.406202
828.114930	-50.175683
828.343743	-49.165941
828.572682	-49.918647
828.801748	-48.556800
829.030941	-49.909613
829.260260	-49.964010
829.489706	-49.276940
829.719280	-49.595045
829.948980	-49.160979
830.178808	-49.942602
830.408763	-49.382997
830.638845	-50.196266
830.869055	-49.598110
831.099393	-50.036539
831.329858	-50.060209
831.560451	-49.096863
831.791173	-49.411759
832.022022	-50.422954
832.252999	-49.496164
832.484105	-49.586186
832.715339	-49.976030
832.946702	-49.705579
833.178193	-50.838564
833.409813	-49.764285
833.641561	-50.163541
833.873439	-49.308372
834.105445	-50.284698
834.337581	-50.213798
834.569846	-49.658651
834.802241	-50.510572
835.034764	-49.651261
835.267418	-49.977526
835.500201	-50.187813
835.733114	-49.971148
835.966157	-49.240994
836.199329	-50.512333
836.432632	-50.767255
836.666065	-49.724099
836.899629	-49.185357
837.133323	-49.211377
837.367147	-50.009252
837.601102	-51.337031
837.835188	-50.127081
838.069405	-49.138823
838.303752	-48.855104
838.538231	-50.485446
838.772841	-50.569574
839.007582	-49.759913
839.242455	-51.373136
839.477459	-48.393605
839.712595	-50.202276
839.947863	-49.834603
840.183263	-49.300968
840.418794	-51.023932
840.654458	-49.384208
840.890254	-49.427128
841.126182	-50.289807
841.362242	-49.229456
841.598435	-50.151350
841.834761	-49.227820
842.071220	-50.246250
842.307811	-49.788568
842.544536	-47.860638
842.781393	-50.335833
843.018384	-48.715103
843.255508	-48.796569
843.492765	-50.277363
843.730156	-48.421738
843.967681	-49.368327
844.205339	-49.173530
844.443132	-49.089743
844.681058	-48.741929
844.919118	-49.102737
845.157313	-48.454343
845.395642	-48.797731
845.634105	-48.600986
845.872703	-47.728321
846.111436	-49.247967
846.350303	-49.057800
846.589306	-48.047507
846.828443	-48.446479
847.067716	-48.518590
847.307124	-48.205814
847.546667	-48.120266
847.786345	-49.006040
848.026160	-47.711766
848.266110	-47.539927
848.506195	-47.563408
848.746417	-47.553769
848.986775	-48.441859
849.227269	-48.003126
849.467899	-47.190157
849.708666	-47.218845
849.949569	-46.787172
850.190609	-46.855111
850.431785	-48.069200
850.673099	-46.971979
850.914549	-47.719632
851.156137	-46.058221
851.397861	-46.805819
851.639723	-45.875376
851.881723	-47.814955
852.123860	-46.011640
852.366135	-46.682398
852.608547	-45.732572
852.851098	-46.286563
853.093786	-46.065543
853.336613	-46.449858
853.579578	-45.947415
853.822681	-45.614535
854.065923	-45.958082
854.309304	-45.462074
854.552823	-45.895394
854.796481	-45.495898
855.040278	-46.051886
855.284215	-44.841721
855.528290	-45.561152
855.772505	-44.526560
856.016859	-45.776366
856.261353	-44.461680
856.505987	-45.531948
856.750760	-43.912378
856.995673	-45.004239
857.240727	-43.862377
857.485920	-45.108819
857.731254	-43.996631
857.976729	-44.445166
858.222343	-44.224768
858.468099	-43.384810
858.713995	-44.410996
858.960032	-43.837760
859.206211	-44.121477
859.452530	-43.155618
859.698991	-43.974528
859.945593	-42.518325
860.192336	-44.449001
860.439222	-43.059950
860.686248	-43.686198
860.933417	-42.771889
861.180728	-43.218828
861.428181	-42.685531
861.675776	-43.602069
861.923514	-42.776194
862.171394	-42.837039
862.419417	-42.677770
862.667582	-42.077212
862.915890	-42.952788
863.164342	-42.450007
863.412936	-42.526127
863.661674	-42.387660
863.910555	-41.909315
864.159579	-41.951153
864.408747	-42.395241
864.658059	-41.826015
864.907515	-42.241123
865.157114	-41.554215
865.406858	-41.599666
865.656746	-41.278592
865.906778	-41.829918
866.156955	-41.421613
866.407277	-41.777671
866.657743	-40.830430
866.908354	-41.019619
867.159110	-41.057419
867.410011	-41.328610
867.661057	-41.312585
867.912249	-40.919479
868.163586	-40.498251
868.415069	-40.694325
868.666697	-40.485408
868.918472	-41.109990
869.170392	-40.436005
869.422458	-40.582522
869.674671	-39.894762
869.927030	-40.344277
870.179536	-40.001895
870.432188	-40.679253
870.684987	-40.090051
870.937933	-40.110160
871.191026	-39.600855
871.444266	-39.733544
871.697653	-40.150333
871.951188	-39.877704
872.204870	-39.755500
872.458700	-39.494396
872.712677	-39.461579
872.966803	-39.563022
873.221076	-39.459629
873.475498	-39.494639
873.730068	-39.268702
873.984787	-39.294402
874.239654	-38.946047
874.494669	-39.590697
874.749834	-38.971394
875.005147	-38.906314
875.260610	-38.860879
875.516222	-38.881498
875.771983	-38.820944
876.027894	-39.107922
876.283954	-38.574367
876.540164	-38.547662
876.796524	-38.414359
877.053033	-38.425189
877.309693	-38.902264
877.566503	-38.621631
877.823464	-38.218015
878.080575	-38.149738
878.337837	-38.355206
878.595249	-38.100219
878.852813	-38.249600
879.110528	-38.270248
879.368393	-37.950524
879.626410	-37.969858
879.884579	-38.092044
880.142899	-38.154066
880.401371	-38.113305
880.659994	-37.450199
880.918770	-37.617554
881.177698	-37.719092
881.436778	-37.749329
881.696010	-37.531306
881.955395	-37.669455
882.214933	-37.242299
882.474623	-37.222005
882.734467	-37.288645
882.994463	-37.504314
883.254613	-37.334221
883.514916	-36.984612
883.775372	-36.960900
884.035982	-37.104017
884.296746	-37.123481
884.557664	-37.285465
884.818735	-36.810063
885.079961	-36.943175
885.341341	-36.609443
885.602876	-36.787759
885.864565	-37.247050
886.126409	-36.654122
886.388407	-36.381291
886.650561	-36.852314
886.912870	-36.331321
887.175334	-36.721399
887.437953	-36.701122
887.700728	-36.164673
887.963658	-36.305514
888.226745	-36.290122
888.489987	-36.300702
888.753385	-36.576481
889.016940	-35.974704
889.280651	-36.129432
889.544518	-36.068330
889.808543	-36.014239
890.072723	-36.372612
890.337061	-35.969087
890.601556	-35.617601
890.866208	-36.030788
891.131017	-35.967808
891.395984	-35.813530
891.661109	-35.816570
891.926391	-35.753419
892.191831	-35.512365
892.457429	-35.619924
892.723186	-35.760245
892.989100	-35.647759
893.255173	-35.376416
893.521405	-35.415690
893.787796	-35.345200
894.054345	-35.390418
894.321053	-35.644291
894.587921	-35.252676
894.854948	-35.078401
895.122134	-35.123682
895.389480	-35.315067
895.656986	-35.432622
895.924651	-35.063187
896.192477	-34.952757
896.460463	-34.902098
896.728609	-35.093365
896.996915	-35.260547
897.265382	-34.885415
897.534010	-34.813346
897.802799	-34.723543
898.071749	-34.922236
898.340860	-34.919588
898.610132	-34.802232
898.879566	-34.620351
899.149162	-34.636497
899.418919	-34.585911
899.688838	-34.734145
899.958919	-34.640572
900.229162	-34.518642
900.499568	-34.338051
900.770136	-34.541743
901.040867	-34.479454
901.311761	-34.487474
901.582817	-34.232177
901.854037	-34.414828
902.125420	-34.156850
902.396966	-34.348488
902.668676	-34.339155
902.940550	-34.163183
903.212587	-34.064036
903.484788	-34.009396
903.757153	-34.193031
904.029683	-34.157694
904.302377	-33.977741
904.575236	-33.867813
904.848259	-33.832725
905.121447	-34.075113
905.394800	-33.905609
905.668319	-33.838440
905.942002	-33.818032
906.215852	-33.682151
906.489866	-33.822649
906.764047	-33.780813
907.038393	-33.765008
907.312906	-33.525839
907.587584	-33.591702
907.862429	-33.618975
908.137441	-33.763313
908.412619	-33.421347
908.687964	-33.405132
908.963476	-33.345244
909.239155	-33.540033
909.515002	-33.449399
909.791015	-33.231316
910.067197	-33.265940
910.343546	-33.198807
910.620063	-33.257115
910.896748	-33.314766
911.173601	-33.050090
911.450623	-33.174530
911.727813	-32.940123
912.005171	-33.292329
912.282699	-33.047725
912.560395	-32.984959
912.838261	-32.976504
913.116296	-32.794987
913.394500	-33.284283
913.672874	-32.782722
913.951418	-32.893065
914.230131	-32.863246
914.509015	-32.759933
914.788068	-32.968376
915.067292	-32.652324
915.346687	-32.793856
915.626252	-32.556873
915.905988	-32.680247
916.185895	-32.755391
916.465973	-32.457047
916.746223	-32.677174
917.026644	-32.297817
917.307236	-32.654482
917.588000	-32.486267
917.868937	-32.359032
918.150045	-32.387094
918.431325	-32.297218
918.712778	-32.434464
918.994404	-32.355491
919.276202	-32.222157
919.558173	-32.180708
919.840317	-32.224379
920.122634	-32.292918
920.405125	-32.124503
920.687789	-32.089196
920.970627	-32.029768
921.253639	-31.933771
921.536824	-32.208127
921.820184	-31.860078
922.103718	-31.917944
922.387427	-31.768528
922.671310	-31.843319
922.955368	-31.834385
923.239601	-31.801380
923.524009	-31.582955
923.808592	-31.608906
924.093351	-31.691467
924.378285	-31.637582
924.663396	-31.533374
924.948682	-31.478929
925.234144	-31.500017
925.519782	-31.527644
925.805597	-31.479867
926.091589	-31.320196
926.377757	-31.442559
926.664102	-31.345059
926.950624	-31.457961
927.237323	-31.201672
927.524200	-31.278247
927.811255	-31.212912
928.098487	-31.334311
928.385897	-31.195653
928.673485	-31.009516
928.961251	-31.106074
929.249196	-31.079854
929.537319	-31.084394
929.825621	-30.960001
930.114102	-30.924956
930.402762	-30.828963
930.691601	-30.959985
930.980620	-30.841282
931.269818	-30.873877
931.559196	-30.646739
931.848753	-30.842493
932.138491	-30.806092
932.428409	-30.753202
932.718508	-30.634643
933.008787	-30.685850
933.299246	-30.843485
933.589887	-30.623814
933.880709	-30.738067
934.171712	-30.565466
934.462896	-30.663545
934.754262	-30.721687
935.045810	-30.647399
935.337539	-30.592273
935.629451	-30.462592
935.921545	-30.617519
936.213822	-30.609263
936.506281	-30.405068
936.798922	-30.489097
937.091747	-30.363345
937.384755	-30.480594
937.677946	-30.370462
937.971321	-30.275947
938.264879	-30.220510
938.558621	-30.266143
938.852547	-30.378718
939.146657	-30.074715
939.440952	-30.157592
939.735431	-30.039271
940.030095	-30.199222
940.324943	-30.113542
940.619977	-30.019351
940.915196	-29.908510
941.210600	-30.071801
941.506189	-30.061510
941.801965	-29.858002
942.097926	-29.902628
942.394074	-29.815258
942.690407	-30.035538
942.986927	-29.816178
943.283634	-29.727869
943.580527	-29.700188
943.877608	-29.763418
944.174875	-29.817692
944.472330	-29.529409
944.769972	-29.601532
945.067802	-29.547963
945.365820	-29.653422
945.664026	-29.383826
945.962420	-29.439648
946.261002	-29.365342
946.559773	-29.454993
946.858733	-29.351528
947.157881	-29.248791
947.457219	-29.288523
947.756746	-29.265141
948.056462	-29.270006
948.356368	-29.165570
948.656464	-29.261231
948.956749	-29.098060
949.257225	-29.271618
949.557891	-29.154936
949.858748	-29.118621
950.159796	-29.077690
950.461034	-29.146416
950.762463	-29.220569
951.064084	-28.912336
951.365896	-29.069083
951.667900	-29.033654
951.970095	-29.196161
952.272483	-28.720032
952.575063	-28.982040
952.877835	-28.946781
953.180799	-28.935330
953.483956	-28.748689
953.787307	-28.731735
954.090850	-28.927253
954.394586	-28.618148
954.698516	-28.818905
955.002640	-28.461556
955.306957	-28.728791
955.611469	-28.633890
955.916174	-28.595156
956.221074	-28.391465
956.526169	-28.613213
956.831458	-28.646954
957.136942	-28.380564
957.442622	-28.479379
957.748496	-28.443184
958.054567	-28.631581
958.360833	-28.367043
958.667294	-28.517991
958.973952	-28.339658
959.280806	-28.679992
959.587857	-28.458778
959.895104	-28.365260
960.202548	-28.487365
960.510189	-28.633811
960.818027	-28.380764
961.126062	-28.485039
961.434295	-28.403289
961.742726	-28.515325
962.051355	-28.530863
962.360182	-28.262874
962.669207	-28.398025
962.978431	-28.465083
963.287854	-28.388747
963.597475	-28.215574
963.907296	-28.341824
964.217315	-28.177495
964.527535	-28.471155
964.837954	-27.937837
965.148573	-28.291747
965.459392	-28.040009
965.770411	-28.301899
966.081630	-27.877796
966.393051	-28.120091
966.704672	-27.927769
967.016494	-28.198810
967.328517	-27.815408
967.640742	-27.932688
967.953169	-27.951919
968.265797	-28.017005
968.578627	-27.813022
968.891660	-27.902714
969.204895	-27.824945
969.518332	-28.074177
969.831972	-27.676876
970.145816	-27.978113
970.459862	-27.739461
970.774112	-28.034289
971.088565	-27.737061
971.403223	-27.859838
971.718084	-27.791830
972.033149	-27.934549
972.348419	-27.775452
972.663893	-27.782734
972.979572	-27.772066
973.295456	-27.852007
973.611546	-27.748561
973.927840	-27.670772
974.244340	-27.706645
974.561046	-27.815108
974.877958	-27.623357
975.195076	-27.510717
975.512401	-27.732812
975.829932	-27.599963
976.147670	-27.575776
976.465615	-27.338142
976.783767	-27.737568
977.102126	-27.394596
977.420693	-27.481954
977.739468	-27.315487
978.058451	-27.502763
978.377642	-27.397138
978.697041	-27.320993
979.016649	-27.307018
979.336466	-27.289818
979.656492	-27.490994
979.976727	-27.084826
980.297171	-27.338161
980.617825	-27.264577
980.938689	-27.340341
981.259763	-27.119261
981.581048	-27.236824
981.902542	-27.323947
982.224248	-27.189530
982.546164	-27.219699
982.868291	-27.125272
983.190630	-27.363141
983.513180	-27.213201
983.835942	-27.090870
984.158916	-27.252242
984.482101	-27.286615
984.805500	-27.179556
985.129110	-27.158772
985.452934	-27.170638
985.776970	-27.301941
986.101220	-27.151036
986.425683	-27.074717
986.750359	-27.231621
987.075250	-27.216523
987.400354	-27.060500
987.725673	-27.081672
988.051206	-27.171430
988.376954	-27.116091
988.702916	-27.022095
989.029094	-26.981239
989.355487	-27.122018
989.682095	-27.056809
990.008919	-26.852457
990.335959	-27.015782
990.663216	-26.959110
990.990688	-26.976173
991.318377	-26.784040
991.646283	-26.909707
991.974406	-26.950483
992.302746	-26.775361
992.631304	-26.774417
992.960079	-26.841819
993.289072	-26.873695
993.618283	-26.686032
993.947713	-26.724066
994.277361	-26.838554
994.607227	-26.747958
994.937313	-26.675170
995.267618	-26.667148
995.598142	-26.838282
995.928886	-26.645731
996.259849	-26.629604
996.591033	-26.723813
996.922437	-26.707198
997.254061	-26.629982
997.585906	-26.576416
997.917972	-26.709000
998.250260	-26.655938
998.582768	-26.537510
998.915498	-26.589793
999.248450	-26.626974
999.581624	-26.619701
999.915020	-26.438061
1000.248639	-26.568358
1000.582480	-26.608995
1000.916545	-26.445020
1001.250832	-26.431869
1001.585343	-26.509849
1001.920077	-26.522788
1002.255035	-26.323303
1002.590218	-26.369876
1002.925624	-26.500000
1003.261255	-26.315418
1003.597111	-26.271476
1003.933192	-26.355774
1004.269497	-26.322520
1004.606029	-26.260083
1004.942785	-26.131252
1005.279768	-26.343486
1005.616977	-26.180154
1005.954412	-26.088889
1006.292074	-26.154120
1006.629962	-26.155739
1006.968077	-26.102745
1007.306420	-25.927666
1007.644990	-26.146975
1007.983787	-26.023134
1008.322813	-25.915417
1008.662067	-25.939833
1009.001549	-25.997785
1009.341259	-25.934074
1009.681199	-25.774826
1010.021367	-25.907996
1010.361765	-25.917404
1010.702392	-25.741702
1011.043250	-25.756248
1011.384337	-25.861891
1011.725654	-25.761678
1012.067202	-25.646100
1012.408980	-25.744428
1012.750989	-25.776513
1013.093230	-25.626301
1013.435702	-25.606322
1013.778405	-25.733026
1014.121341	-25.650242
1014.464508	-25.518753
1014.807908	-25.622029
1015.151540	-25.655739
1015.495405	-25.517134
1015.839503	-25.488389
1016.183835	-25.623248
1016.528400	-25.523353
1016.873198	-25.442000
1017.218231	-25.500570
1017.563498	-25.537928
1017.908999	-25.437757
1018.254735	-25.363133
1018.600707	-25.520165
1018.946913	-25.421316
1019.293354	-25.311027
1019.640032	-25.414222
1019.986945	-25.406802
1020.334094	-25.316618
1020.681480	-25.278764
1021.029102	-25.388265
1021.376961	-25.306184
1021.725058	-25.231903
1022.073391	-25.283137
1022.421962	-25.344955
1022.770772	-25.184853
1023.119819	-25.228729
1023.469104	-25.312836
1023.818628	-25.221072
1024.168391	-25.209722
1024.518393	-25.231959
1024.868634	-25.311421
1025.219115	-25.168878
1025.569836	-25.201602
1025.920796	-25.315972
1026.271997	-25.169288
1026.623438	-25.186712
1026.975121	-25.207851
1027.327044	-25.219333
1027.679208	-25.096910
1028.031614	-25.100039
1028.384262	-25.176386
1028.737152	-24.995410
1029.090284	-24.974024
1029.443659	-25.001352
1029.797276	-24.901762
1030.151137	-24.783443
1030.505240	-24.789311
1030.859587	-24.733712
1031.214178	-24.607285
1031.569013	-24.519300
1031.924093	-24.547984
1032.279417	-24.396616
1032.634985	-24.285223
1032.990799	-24.307385
1033.346858	-24.187794
1033.703162	-24.095658
1034.059712	-24.024517
1034.416509	-24.027368
1034.773551	-23.904887
1035.130841	-23.810217
1035.488377	-23.851104
1035.846160	-23.758761
1036.204190	-23.645738
1036.562468	-23.689212
1036.920994	-23.646561
1037.279768	-23.547273
1037.638790	-23.544380
1037.998061	-23.561850
1038.357581	-23.505918
1038.717350	-23.444162
1039.077368	-23.513604
1039.437636	-23.485638
1039.798154	-23.390979
1040.158922	-23.471861
1040.519940	-23.482390
1040.881209	-23.394168
1041.242729	-23.445430
1041.604501	-23.463235
1041.966524	-23.449227
1042.328798	-23.379025
1042.691325	-23.492165
1043.054103	-23.464360
1043.417135	-23.368731
1043.780419	-23.474258
1044.143956	-23.459674
1044.507746	-23.372294
1044.871791	-23.406656
1045.236088	-23.457457
1045.600641	-23.342539
1045.965447	-23.347900
1046.330508	-23.377322
1046.695824	-23.320844
1047.061395	-23.221514
1047.427222	-23.283696
1047.793304	-23.248346
1048.159642	-23.086720
1048.526237	-23.163226
1048.893088	-23.104820
1049.260196	-22.971483
1049.627561	-22.978465
1049.995183	-22.964755
1050.363063	-22.842880
1050.731201	-22.784920
1051.099597	-22.820187
1051.468251	-22.698836
1051.837164	-22.622278
1052.206336	-22.648052
1052.575767	-22.597831
1052.945458	-22.446698
1053.315409	-22.515789
1053.685619	-22.476332
1054.056090	-22.323890
1054.426821	-22.384962
1054.797814	-22.342208
1055.169067	-22.257813
1055.540582	-22.234908
1055.912359	-22.257612
1056.284398	-22.168939
1056.656698	-22.112882
1057.029262	-22.182604
1057.402088	-22.087022
1057.775177	-22.022065
1058.148530	-22.082509
1058.522146	-22.050439
1058.896027	-21.916626
1059.270171	-22.024786
1059.644580	-21.972108
1060.019254	-21.871995
1060.394193	-21.937044
1060.769397	-21.913721
1061.144867	-21.824517
1061.520602	-21.847181
1061.896604	-21.876055
1062.272872	-21.760758
1062.649407	-21.776734
1063.026210	-21.818062
1063.403279	-21.726323
1063.780616	-21.691578
1064.158221	-21.772470
1064.536094	-21.669724
1064.914235	-21.624781
1065.292645	-21.717596
1065.671325	-21.612281
1066.050273	-21.571710
1066.429491	-21.649527
1066.808979	-21.572013
1067.188738	-21.504323
1067.568766	-21.575287
1067.949066	-21.515646
1068.329636	-21.434818
1068.710478	-21.487783
1069.091592	-21.445305
1069.472977	-21.361578
1069.854635	-21.387846
1070.236565	-21.386345
1070.618768	-21.258862
1071.001243	-21.293895
1071.383993	-21.294169
1071.767016	-21.156604
1072.150313	-21.183398
1072.533884	-21.204358
1072.917730	-21.065634
1073.301850	-21.092331
1073.686246	-21.110286
1074.070917	-20.969480
1074.455864	-20.984822
1074.841087	-20.994798
1075.226586	-20.872134
1075.612362	-20.875896
1075.998415	-20.891126
1076.384745	-20.781518
1076.771353	-20.770089
1077.158238	-20.774540
1077.545401	-20.677562
1077.932843	-20.635524
1078.320564	-20.661547
1078.708564	-20.571625
1079.096842	-20.527637
1079.485401	-20.566772
1079.874240	-20.481961
1080.263358	-20.426363
1080.652757	-20.475597
1081.042438	-20.386405
1081.432399	-20.338478
1081.822641	-20.398757
1082.213166	-20.318762
1082.603972	-20.272383
1082.995061	-20.340272
1083.386433	-20.243231
1083.778087	-20.205612
1084.170025	-20.265482
1084.562246	-20.170936
1084.954751	-20.143499
1085.347541	-20.197456
1085.740615	-20.105205
1086.133973	-20.077005
1086.527617	-20.119709
1086.921546	-20.028931
1087.315761	-20.011710
1087.710262	-20.048793
1088.105050	-19.974432
1088.500124	-19.952904
1088.895485	-19.990635
1089.291134	-19.923653
1089.687070	-19.897274
1090.083294	-19.946649
1090.479806	-19.869636
1090.876607	-19.859882
1091.273696	-19.898345
1091.671075	-19.819206
1092.068744	-19.808915
1092.466702	-19.829999
1092.864950	-19.758502
1093.263489	-19.730412
1093.662319	-19.760941
1094.061440	-19.655594
1094.460852	-19.648708
1094.860555	-19.650500
1095.260551	-19.550525
1095.660840	-19.541560
1096.061421	-19.534274
1096.462295	-19.439109
1096.863462	-19.436113
1097.264923	-19.425468
1097.666678	-19.330120
1098.068727	-19.348238
1098.471071	-19.323613
1098.873710	-19.252406
1099.276644	-19.265016
1099.679874	-19.251179
1100.083400	-19.173467
1100.487222	-19.207719
1100.891340	-19.172689
1101.295756	-19.107279
1101.700468	-19.142652
1102.105478	-19.085883
1102.510787	-19.037339
1102.916393	-19.050323
1103.322298	-18.993410
1103.728502	-18.934349
1104.135005	-18.954070
1104.541807	-18.872241
1104.948909	-18.825791
1105.356312	-18.842787
1105.764015	-18.747390
1106.172019	-18.731223
1106.580324	-18.728785
1106.988931	-18.647270
1107.397840	-18.652177
1107.807051	-18.650515
1108.216564	-18.580562
1108.626380	-18.612532
1109.036500	-18.609992
1109.446923	-18.556642
1109.857649	-18.616558
1110.268680	-18.596575
1110.680016	-18.575659
1111.091657	-18.639990
1111.503602	-18.607714
1111.915854	-18.606202
1112.328411	-18.657168
1112.741275	-18.611956
1113.154445	-18.618411
1113.567922	-18.645509
1113.981706	-18.579375
1114.395798	-18.587024
1114.810198	-18.579581
1115.224906	-18.500202
1115.639923	-18.498030
1116.055249	-18.461106
1116.470884	-18.375059
1116.886829	-18.370810
1117.303084	-18.302958
1117.719650	-18.227805
1118.136526	-18.220075
1118.553713	-18.145554
1118.971212	-18.082950
1119.389022	-18.082113
1119.807145	-18.004711
1120.225580	-17.972832
1120.644328	-17.974595
1121.063389	-17.898853
1121.482763	-17.906634
1121.902452	-17.898969
1122.322454	-17.846198
1122.742771	-17.863123
1123.163404	-17.862511
1123.584351	-17.809043
1124.005614	-17.858516
1124.427193	-17.814929
1124.849089	-17.798624
1125.271301	-17.823644
1125.693830	-17.775386
1126.116677	-17.757296
1126.539842	-17.764787
1126.963324	-17.702451
1127.387126	-17.679432
1127.811246	-17.673579
1128.235685	-17.574918
1128.660444	-17.589396
1129.085522	-17.512322
1129.510922	-17.463309
1129.936641	-17.424196
1130.362682	-17.381475
1130.789044	-17.298640
1131.215728	-17.302072
1131.642734	-17.212772
1132.070063	-17.190834
1132.497714	-17.166574
1132.925689	-17.103407
1133.353987	-17.100261
1133.782610	-17.073342
1134.211556	-17.048460
1134.640827	-17.043214
1135.070424	-17.045254
1135.500345	-17.016008
1135.930593	-17.063264
1136.361166	-17.027153
1136.792067	-17.066939
1137.223294	-17.069027
1137.654848	-17.085095
1138.086730	-17.099793
1138.518940	-17.125282
1138.951479	-17.116775
1139.384346	-17.162781
1139.817543	-17.139003
1140.251069	-17.160963
1140.684925	-17.167874
1141.119111	-17.144357
1141.553628	-17.150238
1141.988475	-17.132002
1142.423655	-17.095271
1142.859166	-17.090049
1143.295009	-17.041365
1143.731185	-16.992203
1144.167694	-16.980266
1144.604536	-16.895791
1145.041711	-16.860344
1145.479221	-16.811125
1145.917065	-16.736609
1146.355245	-16.689296
1146.793759	-16.636138
1147.232609	-16.553340
1147.671795	-16.525182
1148.111317	-16.454153
1148.551177	-16.393341
1148.991373	-16.361966
1149.431907	-16.300949
1149.872779	-16.256430
1150.313989	-16.227539
1150.755538	-16.178556
1151.197426	-16.159530
1151.639653	-16.124059
1152.082220	-16.104294
1152.525128	-16.088156
1152.968376	-16.071638
1153.411966	-16.063513
1153.855897	-16.052621
1154.300169	-16.052709
1154.744784	-16.054080
1155.189742	-16.048056
1155.635042	-16.056887
1156.080687	-16.068627
1156.526674	-16.060378
1156.973007	-16.080071
1157.419683	-16.083869
1157.866705	-16.085383
1158.314072	-16.099227
1158.761786	-16.095367
1159.209845	-16.101180
1159.658251	-16.101374
1160.107004	-16.095255
1160.556104	-16.093008
1161.005553	-16.083999
1161.455349	-16.071036
1161.905494	-16.053646
1162.355989	-16.038844
1162.806832	-16.018336
1163.258026	-15.984053
1163.709570	-15.964775
1164.161464	-15.933236
1164.613710	-15.893502
1165.066307	-15.865017
1165.519256	-15.825599
1165.972558	-15.788799
1166.426212	-15.747904
1166.880219	-15.707164
1167.334580	-15.673340
1167.789295	-15.624050
1168.244364	-15.592259
1168.699788	-15.551547
1169.155567	-15.508028
1169.611702	-15.481773
1170.068193	-15.439466
1170.525041	-15.405312
1170.982245	-15.383171
1171.439807	-15.341958
1171.897726	-15.315919
1172.356004	-15.303071
1172.814640	-15.258932
1173.273635	-15.242585
1173.732989	-15.239662
1174.192703	-15.188070
1174.652778	-15.189693
1175.113213	-15.183361
1175.574009	-15.134055
1176.035167	-15.150378
1176.496687	-15.132178
1176.958569	-15.092195
1177.420814	-15.121213
1177.883422	-15.081587
1178.346394	-15.063893
1178.809730	-15.091535
1179.273430	-15.031249
1179.737496	-15.049298
1180.201927	-15.053938
1180.666723	-14.984935
1181.131886	-15.044862
1181.597416	-15.000221
1182.063312	-14.955904
1182.529576	-15.038199
1182.996209	-14.932261
1183.463209	-14.956658
1183.930579	-15.005092
1184.398317	-14.873015
1184.866426	-14.981110
1185.334904	-14.931133
1185.803754	-14.853332
1186.272974	-14.992398
1186.742566	-14.838368
1187.212529	-14.882871
1187.682865	-14.949119
1188.153574	-14.775496
1188.624656	-14.924975
1189.096112	-14.853900
1189.567942	-14.773123
1190.040147	-14.922297
1190.512726	-14.752940
1190.985681	-14.815260
1191.459012	-14.843582
1191.932720	-14.703353
1192.406804	-14.836707
1192.881265	-14.725122
1193.356104	-14.710330
1193.831322	-14.785901
1194.306918	-14.631429
1194.782893	-14.725195
1195.259248	-14.671517
1195.735982	-14.594008
1196.213097	-14.686658
1196.690593	-14.555831
1197.168471	-14.584332
1197.646730	-14.580982
1198.125371	-14.488081
1198.604395	-14.544065
1199.083803	-14.458819
1199.563594	-14.455084
1200.043769	-14.450752
1200.524329	-14.369048
1201.005273	-14.412813
1201.486604	-14.332341
1201.968320	-14.318518
1202.450422	-14.328371
1202.932912	-14.237358
1203.415789	-14.271848
1203.899054	-14.217974
1204.382707	-14.180196
1204.866748	-14.195628
1205.351179	-14.124128
1205.836000	-14.131687
1206.321211	-14.101024
1206.806812	-14.059810
1207.292805	-14.065810
1207.779189	-14.016775
1208.265965	-14.008731
1208.753134	-13.984837
1209.240696	-13.958589
1209.728651	-13.945714
1210.217000	-13.917080
1210.705744	-13.907031
1211.194883	-13.881629
1211.684417	-13.862722
1212.174347	-13.855163
1212.664673	-13.826197
1213.155396	-13.816297
1213.646516	-13.804324
1214.138034	-13.783355
1214.629951	-13.768325
1215.122266	-13.769387
1215.614980	-13.736903
1216.108095	-13.735302
1216.601609	-13.734211
1217.095524	-13.697468
1217.589841	-13.713679
1218.084559	-13.692941
1218.579679	-13.675173
1219.075202	-13.687428
1219.571128	-13.657196
1220.067458	-13.662676
1220.564191	-13.652178
1221.061330	-13.635569
1221.558874	-13.644224
1222.056823	-13.617750
1222.555178	-13.622797
1223.053940	-13.611423
1223.553109	-13.596122
1224.052686	-13.599316
1224.552671	-13.577434
1225.053065	-13.578679
1225.553867	-13.558301
1226.055079	-13.555015
1226.556702	-13.543227
1227.058735	-13.519896
1227.561179	-13.526631
1228.064035	-13.495076
1228.567303	-13.486796
1229.070983	-13.481439
1229.575077	-13.446949
1230.079585	-13.447993
1230.584506	-13.423706
1231.089842	-13.401429
1231.595594	-13.398078
1232.101761	-13.359284
1232.608345	-13.359190
1233.115345	-13.329435
1233.622762	-13.307202
1234.130597	-13.299399
1234.638851	-13.264863
1235.147523	-13.251861
1235.656615	-13.233130
1236.166126	-13.205121
1236.676058	-13.189719
1237.186411	-13.168424
1237.697185	-13.145801
1238.208381	-13.125755
1238.719999	-13.107056
1239.232040	-13.083875
1239.744505	-13.067168
1240.257394	-13.043767
1240.770708	-13.027488
1241.284446	-13.007960
1241.798610	-12.984522
1242.313201	-12.974659
1242.828218	-12.949064
1243.343662	-12.932677
1243.859534	-12.921065
1244.375834	-12.895300
1244.892563	-12.886325
1245.409721	-12.866939
1245.927309	-12.850273
1246.445327	-12.840510
1246.963777	-12.816575
1247.482657	-12.814884
1248.001970	-12.789519
1248.521716	-12.782451
1249.041894	-12.771700
1249.562506	-12.752838
1250.083553	-12.748796
1250.605034	-12.732488
1251.126950	-12.724853
1251.649302	-12.714926
1252.172091	-12.703210
1252.695316	-12.700213
1253.218979	-12.684221
1253.743079	-12.684044
1254.267619	-12.673565
1254.792597	-12.667515
1255.318015	-12.662311
1255.843874	-12.657124
1256.370173	-12.652700
1256.896913	-12.647341
1257.424095	-12.645204
1257.951720	-12.641380
1258.479787	-12.637473
1259.008298	-12.636916
1259.537254	-12.633699
1260.066654	-12.632305
1260.596499	-12.629010
1261.126790	-12.632138
1261.657527	-12.624897
1262.188711	-12.628578
1262.720342	-12.625552
1263.252422	-12.623771
1263.784950	-12.624754
1264.317928	-12.619365
1264.851355	-12.624161
1265.385232	-12.614192
1265.919560	-12.619178
1266.454340	-12.612881
1266.989572	-12.609921
1267.525256	-12.608571
1268.061394	-12.602210
1268.597985	-12.600922
1269.135031	-12.592374
1269.672531	-12.589571
1270.210487	-12.583826
1270.748899	-12.573829
1271.287768	-12.571584
1271.827094	-12.559968
1272.366877	-12.553161
1272.907119	-12.544251
1273.447820	-12.534924
1273.988981	-12.524951
1274.530601	-12.513999
1275.072683	-12.503738
1275.615226	-12.493374
1276.158230	-12.477724
1276.701697	-12.471489
1277.245627	-12.453923
1277.790021	-12.443196
1278.334879	-12.431111
1278.880202	-12.413100
1279.425991	-12.408199
1279.972245	-12.381040
1280.518966	-12.382817
1281.066155	-12.352857
1281.613811	-12.349668
1282.161936	-12.329579
1282.710529	-12.314030
1283.259593	-12.305272
1283.809126	-12.277578
1284.359131	-12.280349
1284.909607	-12.244613
1285.460555	-12.246871
1286.011976	-12.219639
1286.563870	-12.207875
1287.116237	-12.195978
1287.669080	-12.169388
1288.222397	-12.170637
1288.776191	-12.134235
1289.330460	-12.138285
1289.885207	-12.108521
1290.440431	-12.099741
1290.996133	-12.085003
1291.552314	-12.062646
1292.108975	-12.060435
1292.666115	-12.028826
1293.223737	-12.031233
1293.781839	-12.003939
1294.340424	-11.996654
1294.899491	-11.982432
1295.459041	-11.964946
1296.019075	-11.959454
1296.579593	-11.937209
1297.140597	-11.934856
1297.702086	-11.917115
1298.264061	-11.905656
1298.826524	-11.901812
1299.389474	-11.879672
1299.952912	-11.884603
1300.516839	-11.859372
1301.081255	-11.866359
1301.646162	-11.845877
1302.211559	-11.843508
1302.777448	-11.839227
1303.343829	-11.822580
1303.910702	-11.831382
1304.478069	-11.806883
1305.045930	-11.822263
1305.614285	-11.797085
1306.183136	-11.808997
1306.752483	-11.795009
1307.322326	-11.794192
1307.892666	-11.793378
1308.463504	-11.783572
1309.034841	-11.790735
1309.606677	-11.775882
1310.179012	-11.784994
1310.751849	-11.775244
1311.325186	-11.775909
1311.899025	-11.776302
1312.473366	-11.769132
1313.048211	-11.776151
1313.623559	-11.764395
1314.199412	-11.773801
1314.775770	-11.764410
1315.352634	-11.767227
1315.930004	-11.767698
1316.507881	-11.761251
1317.086266	-11.770509
1317.665159	-11.756692
1318.244562	-11.772411
1318.824474	-11.756280
1319.404897	-11.769943
1319.985831	-11.759942
1320.567276	-11.766584
1321.149234	-11.764096
1321.731706	-11.763453
1322.314691	-11.767767
1322.898190	-11.763360
1323.482205	-11.767334
1324.066736	-11.767320
1324.651783	-11.764637
1325.237347	-11.772481
1325.823430	-11.761173
1326.410031	-11.777620
1326.997151	-11.758101
1327.584791	-11.779116
1328.172952	-11.758446
1328.761634	-11.775677
1329.350839	-11.760121
1329.940566	-11.769662
1330.530817	-11.762052
1331.121592	-11.762247
1331.712891	-11.761640
1332.304716	-11.756197
1332.897068	-11.756648
1333.489946	-11.752378
1334.083352	-11.747371
1334.677287	-11.749629
1335.271750	-11.735890
1335.866744	-11.746411
1336.462268	-11.724360
1337.058323	-11.740654
1337.654910	-11.715141
1338.252029	-11.731105
1338.849682	-11.708587
1339.447869	-11.718587
1340.046591	-11.703162
1340.645848	-11.704772
1341.245641	-11.697069
1341.845972	-11.691342
1342.446840	-11.688473
1343.048246	-11.680375
1343.650191	-11.676231
1344.252677	-11.671385
1344.855702	-11.661975
1345.459269	-11.662666
1346.063379	-11.647007
1346.668030	-11.653520
1347.273226	-11.632718
1347.878965	-11.641196
1348.485250	-11.621945
1349.092080	-11.625692
1349.699456	-11.611867
1350.307380	-11.609279
1350.915851	-11.603266
1351.524871	-11.590384
1352.134441	-11.594511
1352.744560	-11.574512
1353.355231	-11.581950
1353.966453	-11.559991
1354.578227	-11.569526
1355.190555	-11.546765
1355.803436	-11.553107
1356.416872	-11.536924
1357.030863	-11.536823
1357.645411	-11.524560
1358.260515	-11.521784
1358.876177	-11.513876
1359.492397	-11.505620
1360.109176	-11.500952
1360.726516	-11.494257
1361.344416	-11.485889
1361.962877	-11.481524
1362.581901	-11.473121
1363.201487	-11.469959
1363.821637	-11.458569
1364.442352	-11.457976
1365.063632	-11.448741
1365.685478	-11.442687
1366.307891	-11.439589
1366.930871	-11.429542
1367.554420	-11.431042
1368.178538	-11.415035
1368.803226	-11.423487
1369.428485	-11.403724
1370.054315	-11.412431
1370.680717	-11.395004
1371.307693	-11.401082
1371.935242	-11.387888
1372.563366	-11.387339
1373.192065	-11.383514
1373.821341	-11.373661
1374.451193	-11.378211
1375.081623	-11.361392
1375.712632	-11.372573
1376.344221	-11.351066
1376.976389	-11.364039
1377.609139	-11.344615
1378.242470	-11.353003
1378.876384	-11.340571
1379.510881	-11.340336
1380.145963	-11.338335
1380.781629	-11.327875
1381.417881	-11.335142
1382.054720	-11.317382
1382.692147	-11.330139
1383.330161	-11.309383
1383.968765	-11.321669
1384.607959	-11.304768
1385.247743	-11.310397
1385.888119	-11.301491
1386.529087	-11.297738
1387.170648	-11.299179
1387.812804	-11.285214
1388.455554	-11.295061
1389.098899	-11.275876
1389.742842	-11.287890
1390.387381	-11.269527
1391.032519	-11.278221
1391.678256	-11.266790
1392.324592	-11.266746
1392.971529	-11.265388
1393.619068	-11.256696
1394.267208	-11.263305
1394.915952	-11.248350
1395.565300	-11.259262
1396.215253	-11.243309
1396.865812	-11.251732
1397.516977	-11.240807
1398.168749	-11.242530
1398.821130	-11.239111
1399.474120	-11.232822
1400.127719	-11.236911
1400.781930	-11.224992
1401.436752	-11.231835
1402.092186	-11.220043
1402.748234	-11.224802
1403.404897	-11.216733
1404.062174	-11.216751
1404.720067	-11.214146
1405.378577	-11.209676
1406.037705	-11.210639
1406.697451	-11.205093
1407.357817	-11.206692
1408.018803	-11.202482
1408.680410	-11.202830
1409.342639	-11.201245
1410.005492	-11.200298
1410.668968	-11.199478
1411.333068	-11.199888
1411.997795	-11.197485
1412.663147	-11.200757
1413.329127	-11.196135
1413.995736	-11.202185
1414.662973	-11.197498
1415.330840	-11.202342
1415.999339	-11.202002
1416.668469	-11.201983
1417.338232	-11.207933
1418.008628	-11.202069
1418.679659	-11.213509
1419.351325	-11.204790
1420.023628	-11.216497
1420.696568	-11.211217
1421.370145	-11.218170
1422.044362	-11.220205
1422.719219	-11.220230
1423.394717	-11.230158
1424.070856	-11.225344
1424.747638	-11.238394
1425.425064	-11.234234
1426.103134	-11.245296
1426.781850	-11.245070
1427.461212	-11.251589
1428.141221	-11.256410
1428.821878	-11.259645
1429.503185	-11.266797
1430.185141	-11.270937
1430.867749	-11.278019
1431.551008	-11.284703
1432.234920	-11.291730
1432.919486	-11.299343
1433.604707	-11.308258
1434.290583	-11.313236
1434.977116	-11.326563
1435.664307	-11.327763
1436.352156	-11.342922
1437.040664	-11.344184
1437.729833	-11.357291
1438.419663	-11.363719
1439.110156	-11.371696
1439.801312	-11.387085
1440.493132	-11.390206
1441.185617	-11.410927
1441.878768	-11.414951
1442.572586	-11.435055
1443.267072	-11.444362
1443.962228	-11.459209
1444.658053	-11.473546
1445.354549	-11.483647
1446.051717	-11.497881
1446.749558	-11.508957
1447.448073	-11.520500
1448.147263	-11.534508
1448.847128	-11.546269
1449.547671	-11.562302
1450.248891	-11.580044
1450.950789	-11.594881
1451.653368	-11.623388
1452.356627	-11.637553
1453.060568	-11.671333
1453.765192	-11.690018
1454.470500	-11.720126
1455.176492	-11.745977
1455.883170	-11.767008
1456.590534	-11.797588
1457.298586	-11.813249
1458.007327	-11.841314
1458.716758	-11.859553
1459.426880	-11.883198
1460.137693	-11.907243
1460.849199	-11.933003
1461.561398	-11.962920
1462.274293	-11.999149
1462.987883	-12.032321
1463.702170	-12.081228
1464.417155	-12.120246
1465.132838	-12.172452
1465.849222	-12.220199
1466.566306	-12.264277
1467.284093	-12.315986
1468.002582	-12.347214
1468.721775	-12.391237
1469.441674	-12.413248
1470.162278	-12.437924
1470.883590	-12.454721
1471.605609	-12.464069
1472.328338	-12.474651
1473.051777	-12.482348
1473.775928	-12.490034
1474.500790	-12.507757
1475.226367	-12.522173
1475.952657	-12.551198
1476.679663	-12.584711
1477.407386	-12.619734
1478.135826	-12.673100
1478.864985	-12.711719
1479.594863	-12.768704
1480.325463	-12.809425
1481.056784	-12.850921
1481.788828	-12.885264
1482.521597	-12.902941
1483.255090	-12.916644
1483.989309	-12.916802
1484.724256	-12.904841
1485.459931	-12.893243
1486.196336	-12.871321
1486.933471	-12.854394
1487.671337	-12.846722
1488.409937	-12.839027
1489.149270	-12.864007
1489.889337	-12.892904
1490.630141	-12.960951
1491.371682	-13.052924
1492.113961	-13.176796
1492.856979	-13.344241
1493.600738	-13.543036
1494.345238	-13.785000
1495.090481	-14.068450
1495.836467	-14.381655
1496.583198	-14.737788
1497.330675	-15.115196
1498.078899	-15.507689
1498.827872	-15.921780
1499.577593	-16.308583
1500.328065	-16.700611
1501.079289	-17.046682
1501.831265	-17.363324
1502.583995	-17.648653
1503.337480	-17.893246
1504.091721	-18.129680
1504.846719	-18.365094
1505.602475	-18.608766
1506.358991	-18.907561
1507.116268	-19.250780
1507.874306	-19.675012
1508.633108	-20.209776
1509.392673	-20.836441
1510.153004	-21.646472
1510.914101	-22.598964
1511.675965	-23.800896
1512.438599	-25.288315
1513.202002	-27.163623
1513.966176	-29.653080
1514.731122	-33.041251
1515.496842	-37.717925
1516.263336	-39.690426
1517.030607	-35.259058
1517.798654	-31.373826
1518.567479	-28.642660
1519.337083	-26.584822
1520.107468	-24.916439
1520.878634	-23.547041
1521.650584	-22.308499
1522.423317	-21.194419
1523.196836	-20.130075
1523.971141	-19.092989
1524.746233	-18.086778
1525.522115	-17.077564
1526.298786	-16.090444
1527.076249	-15.117168
1527.854504	-14.158211
1528.633553	-13.236347
1529.413397	-12.330813
1530.194037	-11.468924
1530.975474	-10.638284
1531.757709	-9.847324
1532.540745	-9.100303
1533.324581	-8.395434
1534.109220	-7.737463
1534.894662	-7.131251
1535.680909	-6.571177
1536.467961	-6.070398
1537.255821	-5.620259
1538.044489	-5.229375
1538.833967	-4.897260
1539.624256	-4.622845
1540.415357	-4.411214
1541.207271	-4.259365
1542.000000	-4.168574
1542.793545	-4.140959
1543.587907	-4.172499
1544.383087	-4.266016
1545.179088	-4.420736
1545.975909	-4.632672
1546.773552	-4.908107
1547.572019	-5.238772
1548.371311	-5.631518
1549.171428	-6.082889
1549.972373	-6.594193
1550.774147	-7.168427
1551.576751	-7.807832
1552.380185	-8.512421
1553.184453	-9.295269
1553.989554	-10.151859
1554.795490	-11.100153
1555.602263	-12.144856
1556.409873	-13.293680
1557.218322	-14.564196
1558.027612	-15.944556
1558.837743	-17.416610
1559.648717	-18.889195
1560.460536	-20.151171
1561.273200	-20.862423
1562.086710	-20.812020
1562.901069	-20.088577
1563.716278	-19.051716
1564.532337	-17.967185
1565.349249	-16.943204
1566.167014	-16.047440
1566.985634	-15.272903
1567.805111	-14.618022
1568.625444	-14.072850
1569.446637	-13.629908
1570.268690	-13.269477
1571.091605	-12.998957
1571.915382	-12.795142
1572.740024	-12.661798
1573.565532	-12.591983
1574.391907	-12.574941
1575.219150	-12.614566
1576.047262	-12.700813
1576.876246	-12.830830
1577.706103	-13.002375
1578.536833	-13.211336
1579.368439	-13.447649
1580.200922	-13.719881
1581.034282	-14.005546
1581.868522	-14.317067
1582.703643	-14.636433
1583.539646	-14.963818
1584.376532	-15.293941
1585.214304	-15.620544
1586.052962	-15.936555
1586.892508	-16.247473
1587.732943	-16.538692
1588.574269	-16.816947
1589.416487	-17.085389
1590.259599	-17.328144
1591.103605	-17.569761
1591.948508	-17.790156
1592.794309	-18.001319
1593.641009	-18.200667
1594.488609	-18.388233
1595.337112	-18.554083
1596.186518	-18.714580
1597.036829	-18.843741
1597.888047	-18.955293
1598.740172	-19.046537
1599.593207	-19.099614
1600.447153	-19.137280
1601.302010	-19.141170
1602.157782	-19.119801
1603.014469	-19.075108
1603.872072	-19.013491
1604.730593	-18.922266
1605.590034	-18.830751
1606.450397	-18.716859
1607.311681	-18.596078
1608.173890	-18.475753
1609.037024	-18.342538
1609.901085	-18.213153
1610.766075	-18.081885
1611.631995	-17.947774
1612.498846	-17.812736
1613.366630	-17.681971
1614.235349	-17.537965
1615.105004	-17.403417
1615.975596	-17.256534
1616.847128	-17.107426
1617.719600	-16.957563
1618.593014	-16.798828
1619.467372	-16.638238
1620.342675	-16.477419
1621.218924	-16.310825
1622.096122	-16.145532
1622.974270	-15.985782
1623.853369	-15.819983
1624.733420	-15.669107
1625.614427	-15.516725
1626.496389	-15.373336
1627.379308	-15.238380
1628.263187	-15.109402
1629.148026	-14.985857
1630.033828	-14.874154
1630.920593	-14.762918
1631.808324	-14.660072
1632.697022	-14.564153
1633.586688	-14.465842
1634.477324	-14.377419
1635.368932	-14.286472
1636.261514	-14.197289
1637.155070	-14.109351
1638.049602	-14.021405
1638.945113	-13.929403
1639.841603	-13.843495
1640.739075	-13.751375
1641.637529	-13.663395
1642.536968	-13.577655
1643.437393	-13.490250
1644.338806	-13.409209
1645.241209	-13.329563
1646.144602	-13.252644
1647.048988	-13.180394
1647.954368	-13.113069
1648.860744	-13.045092
1649.768118	-12.987221
1650.676491	-12.926761
1651.585865	-12.872170
1652.496241	-12.820150
1653.407621	-12.768273
1654.320008	-12.718631
1655.233401	-12.671234
1656.147804	-12.622502
1657.063218	-12.576268
1657.979645	-12.532709
1658.897085	-12.486653
1659.815542	-12.447926
1660.735016	-12.407125
1661.655509	-12.370683
1662.577023	-12.336632
1663.499560	-12.305003
1664.423121	-12.274304
1665.347709	-12.248762
1666.273324	-12.222153
1667.199969	-12.198724
1668.127645	-12.178697
1669.056353	-12.156713
1669.986097	-12.140325
1670.916877	-12.122845
1671.848695	-12.107689
1672.781553	-12.093431
1673.715452	-12.081913
1674.650395	-12.068476
1675.586383	-12.060376
1676.523418	-12.050331
1677.461501	-12.042529
1678.400635	-12.037361
1679.340821	-12.030862
1680.282061	-12.027624
1681.224357	-12.024529
1682.167710	-12.022460
1683.112122	-12.020302
1684.057595	-12.021058
1685.004132	-12.018582
1685.951732	-12.020587
1686.900400	-12.020825
1687.850135	-12.021952
1688.800940	-12.024943
1689.752818	-12.027137
1690.705768	-12.030375
1691.659795	-12.034315
1692.614898	-12.038865
1693.571081	-12.042381
1694.528345	-12.049804
1695.486691	-12.053952
1696.446122	-12.062017
1697.406640	-12.069421
1698.368245	-12.077339
1699.330941	-12.086499
1700.294729	-12.095870
1701.259611	-12.104778
1702.225588	-12.114669
1703.192664	-12.125312
1704.160838	-12.134093
1705.130114	-12.146692
1706.100493	-12.156227
1707.071977	-12.168035
1708.044568	-12.179802
1709.018268	-12.191227
1709.993079	-12.203215
1710.969003	-12.216337
1711.946041	-12.228546
1712.924196	-12.241582
1713.903469	-12.255994
1714.883862	-12.267776
1715.865378	-12.283215
1716.848017	-12.296030
1717.831783	-12.310111
1718.816677	-12.324629
1719.802701	-12.339257
1720.789857	-12.354069
1721.778147	-12.370869
1722.767573	-12.386860
1723.758136	-12.403306
1724.749840	-12.421571
1725.742685	-12.436677
1726.736673	-12.454703
1727.731808	-12.471126
1728.728090	-12.487768
1729.725521	-12.505141
1730.724105	-12.522795
1731.723842	-12.539463
1732.724735	-12.557567
1733.726785	-12.575063
1734.729995	-12.591533
1735.734366	-12.610101
1736.739902	-12.625824
1737.746603	-12.643087
1738.754472	-12.659349
1739.763510	-12.675287
1740.773721	-12.690864
1741.785105	-12.706806
1742.797665	-12.721587
1743.811403	-12.736968
1744.826321	-12.752799
1745.842422	-12.767051
1746.859706	-12.783281
1747.878177	-12.797542
1748.897835	-12.812788
1749.918685	-12.827312
1750.940726	-12.842526
1751.963963	-12.857424
1752.988395	-12.872993
1754.014027	-12.888672
1755.040860	-12.904171
1756.068895	-12.920340
1757.098135	-12.935702
1758.128583	-12.952702
1759.160240	-12.968545
1760.193109	-12.986245
1761.227191	-13.003484
1762.262488	-13.020828
1763.299004	-13.038314
1764.336740	-13.055482
1765.375697	-13.072255
1766.415880	-13.088461
1767.457288	-13.106118
1768.499926	-13.121892
1769.543794	-13.139960
1770.588895	-13.157612
1771.635231	-13.174810
1772.682805	-13.192239
1773.731619	-13.209785
1774.781674	-13.225502
1775.832973	-13.241610
1776.885519	-13.258967
1777.939312	-13.273168
1778.994357	-13.290675
1780.050654	-13.307044
1781.108207	-13.322307
1782.167017	-13.339097
1783.227087	-13.355017
1784.288418	-13.369375
1785.351013	-13.385129
1786.414875	-13.400572
1787.480006	-13.414154
1788.546407	-13.430796
1789.614082	-13.445119
1790.683032	-13.460142
1791.753259	-13.476017
1792.824767	-13.490794
1793.897557	-13.506614
1794.971632	-13.522458
1796.046994	-13.538317
1797.123645	-13.553282
1798.201588	-13.568942
1799.280824	-13.582849
1800.361357	-13.597958
1801.443188	-13.612835
1802.526320	-13.628068
1803.610756	-13.644715
1804.696497	-13.660366
1805.783546	-13.676916
1806.871906	-13.692017
1807.961578	-13.706589
1809.052565	-13.720150
1810.144870	-13.733593
1811.238494	-13.746566
1812.333441	-13.759938
1813.429713	-13.773502
1814.527311	-13.785618
1815.626239	-13.798361
1816.726499	-13.809013
1817.828094	-13.819722
1818.931025	-13.829964
1820.035295	-13.839471
1821.140906	-13.849272
1822.247862	-13.858605
1823.356165	-13.868205
1824.465816	-13.877499
1825.576819	-13.887688
1826.689175	-13.896924
1827.802888	-13.906625
1828.917960	-13.915847
1830.034394	-13.924565
1831.152191	-13.934030
1832.271354	-13.942780
1833.391887	-13.952291
1834.513790	-13.961525
1835.637068	-13.971101
1836.761722	-13.980093
1837.887755	-13.988958
1839.015169	-13.997427
1840.143968	-14.005589
1841.274153	-14.014295
1842.405727	-14.022228
1843.538693	-14.030672
1844.673053	-14.038347
1845.808810	-14.045979
1846.945966	-14.053928
1848.084525	-14.061636
1849.224488	-14.069647
1850.365858	-14.076914
1851.508638	-14.083732
1852.652831	-14.089861
1853.798438	-14.095674
1854.945463	-14.100839
1856.093909	-14.105889
1857.243777	-14.110769
1858.395071	-14.115163
1859.547794	-14.119689
1860.701947	-14.122804
1861.857533	-14.125772
1863.014556	-14.128075
1864.173018	-14.129869
1865.332922	-14.131901
1866.494270	-14.133441
1867.657065	-14.134820
1868.821309	-14.135740
1869.987006	-14.136180
1871.154158	-14.135687
1872.322768	-14.134750
1873.492839	-14.132478
1874.664373	-14.129727
1875.837373	-14.127049
1877.011841	-14.123841
1878.187782	-14.121429
1879.365197	-14.118344
1880.544089	-14.114708
1881.724460	-14.110581
1882.906315	-14.105404
1884.089655	-14.100613
1885.274483	-14.096408
1886.460803	-14.092766
1887.648616	-14.089360
1888.837927	-14.085793
1890.028736	-14.081244
1891.221049	-14.076557
1892.414866	-14.071830
1893.610192	-14.067224
1894.807028	-14.063798
1896.005379	-14.059582
1897.205246	-14.055187
1898.406633	-14.050242
1899.609542	-14.044467
1900.813977	-14.039447
1902.019940	-14.034265
1903.227434	-14.029503
1904.436462	-14.024844
1905.647028	-14.019442
1906.859133	-14.013488
1908.072781	-14.007409
1909.287976	-14.001438
1910.504719	-13.995957
1911.723013	-13.990833
1912.942863	-13.984875
1914.164270	-13.978513
1915.387238	-13.971170
1916.611770	-13.963406
1917.837868	-13.956307
1919.065536	-13.948651
1920.294777	-13.940858
1921.525594	-13.931941
1922.757989	-13.921662
1923.991967	-13.911425
1925.227529	-13.900776
1926.464679	-13.890712
1927.703420	-13.880665
1928.943755	-13.869481
1930.185688	-13.857610
1931.429221	-13.845070
1932.674356	-13.832735
1933.921099	-13.820999
1935.169451	-13.809407
1936.419415	-13.797645
1937.670996	-13.785955
1938.924195	-13.773976
1940.179017	-13.762106
1941.435463	-13.750479
1942.693538	-13.738266
1943.953245	-13.726052
1945.214586	-13.713419
1946.477566	-13.700579
1947.742186	-13.687925
1949.008451	-13.674737
1950.276363	-13.661944
1951.545926	-13.649545
1952.817143	-13.637738
1954.090017	-13.627059
1955.364551	-13.616711
1956.640749	-13.607111
1957.918615	-13.597960
1959.198150	-13.588857
1960.479359	-13.580130
1961.762244	-13.571498
1963.046810	-13.562998
1964.333059	-13.554582
1965.620995	-13.546236
1966.910621	-13.538400
1968.201940	-13.530907
1969.494956	-13.522827
1970.789672	-13.513627
1972.086091	-13.503598
1973.384217	-13.493532
1974.684053	-13.484386
1975.985602	-13.475667
1977.288869	-13.466629
1978.593855	-13.457057
1979.900566	-13.446705
1981.209003	-13.436364
1982.519171	-13.426401
1983.831073	-13.416779
1985.144712	-13.407309
1986.460093	-13.397172
1987.777217	-13.386456
1989.096089	-13.375392
1990.416713	-13.364118
1991.739092	-13.352861
1993.063228	-13.340971
1994.389127	-13.328695
1995.716791	-13.316545
1997.046223	-13.304495
1998.377428	-13.292625
1999.710409	-13.280674
2001.045169	-13.268716
2002.381713	-13.257136
2003.720043	-13.245956
2005.060163	-13.235675
2006.402077	-13.226274
2007.745788	-13.217139
2009.091301	-13.207979
2010.438618	-13.199097
2011.787743	-13.191456
2013.138680	-13.185453
2014.491433	-13.180584
2015.846005	-13.176216
2017.202399	-13.171874
2018.560621	-13.167762
2019.920673	-13.164105
2021.282558	-13.160967
2022.646281	-13.158590
2024.011846	-13.156478
2025.379256	-13.154245
2026.748515	-13.151865
2028.119626	-13.149472
2029.492594	-13.147402
2030.867422	-13.145547
2032.244114	-13.143700
2033.622673	-13.141509
2035.003104	-13.138568
2036.385411	-13.135218
2037.769597	-13.131763
2039.155665	-13.128543
2040.543621	-13.125614
2041.933467	-13.122454
2043.325208	-13.118720
2044.718847	-13.114355
2046.114389	-13.109811
2047.511837	-13.105327
2048.911195	-13.100938
2050.312467	-13.096985
2051.715657	-13.093036
2053.120769	-13.088831
2054.527807	-13.084533
2055.936775	-13.080481
2057.347677	-13.077164
2058.760516	-13.074359
2060.175297	-13.071977
2061.592025	-13.069448
2063.010701	-13.066429
2064.431332	-13.064045
2065.853921	-13.063015
2067.278472	-13.063368
2068.704988	-13.064262
2070.133475	-13.065164
2071.563936	-13.066767
2072.996375	-13.069834
2074.430796	-13.074547
2075.867204	-13.079816
2077.305603	-13.085021
2078.745996	-13.090516
2080.188389	-13.097378
2081.632784	-13.106262
2083.079187	-13.115359
2084.527601	-13.123613
2085.978030	-13.132094
2087.430480	-13.141797
2088.884954	-13.152031
2090.341455	-13.161479
2091.799990	-13.170572
2093.260561	-13.180194
2094.723173	-13.190106
2096.187831	-13.199055
2097.654538	-13.206549
2099.123300	-13.213236
2100.594119	-13.220183
2102.067001	-13.227927
2103.541950	-13.235612
2105.018971	-13.241827
2106.498067	-13.246767
2107.979243	-13.252331
2109.462503	-13.258896
2110.947853	-13.264467
2112.435295	-13.268296
2113.924836	-13.272848
2115.416478	-13.280340
2116.910227	-13.290126
2118.406087	-13.299244
2119.904063	-13.306444
2121.404158	-13.313720
2122.906378	-13.323461
2124.410727	-13.335244
2125.917210	-13.347237
2127.425831	-13.360357
2128.936594	-13.376513
2130.449505	-13.395379
2131.964567	-13.414557
2133.481786	-13.433357
2135.001166	-13.452610
2136.522711	-13.472559
2138.046427	-13.491666
2139.572317	-13.509588
2141.100388	-13.528378
2142.630642	-13.549623
2144.163085	-13.571781
2145.697722	-13.593457
2147.234558	-13.616619
2148.773596	-13.644156
2150.314842	-13.675715
2151.858301	-13.708657
2153.403977	-13.741691
2154.951875	-13.773719
2156.502000	-13.803531
2158.054357	-13.828222
2159.608950	-13.843934
2161.165785	-13.848580
2162.724866	-13.843998
2164.286198	-13.832525
2165.849786	-13.816537
2167.415635	-13.798979
2168.983749	-13.784400
2170.554134	-13.775703
2172.126795	-13.774576
2173.701737	-13.782954
2175.278964	-13.802874
2176.858481	-13.833958
2178.440294	-13.874721
2180.024408	-13.923220
2181.610827	-13.978297
2183.199557	-14.038226
2184.790602	-14.100500
2186.383968	-14.162830
2187.979660	-14.224955
2189.577683	-14.287670
2191.178041	-14.349147
2192.780741	-14.406975
2194.385787	-14.461180
2195.993185	-14.513489
2197.602939	-14.563265
2199.215054	-14.610101
2200.829537	-14.653916
2202.446392	-14.695734
2204.065624	-14.733598
2205.687239	-14.766377
2207.311242	-14.794130
2208.937638	-14.818256
2210.566433	-14.837716
2212.197631	-14.851842
2213.831239	-14.862627
2215.467261	-14.871553
2217.105703	-14.880605
2218.746570	-14.890277
2220.389867	-14.903578
2222.035601	-14.923102
2223.683776	-14.950420
2225.334398	-14.985243
2226.987472	-15.028610
2228.643004	-15.081030
2230.300999	-15.139790
2231.961463	-15.202204
2233.624402	-15.264166
2235.289820	-15.323572
2236.957723	-15.375596
2238.628118	-15.419100
2240.301009	-15.455333
2241.976402	-15.486504
2243.654303	-15.514627
2245.334717	-15.540872
2247.017650	-15.571047
2248.703108	-15.607587
2250.391096	-15.652340
2252.081620	-15.704653
2253.774686	-15.764918
2255.470300	-15.832519
2257.168467	-15.904593
2258.869193	-15.980342
2260.572484	-16.056339
2262.278345	-16.128367
2263.986783	-16.196674
2265.697804	-16.262839
2267.411412	-16.327877
2269.127615	-16.389845
2270.846417	-16.453496
2272.567826	-16.521705
2274.291846	-16.589745
2276.018484	-16.655311
2277.747745	-16.719140
2279.479637	-16.780978
2281.214164	-16.839186
2282.951333	-16.894106
2284.691149	-16.949188
2286.433619	-17.003182
2288.178750	-17.057077
2289.926546	-17.113611
2291.677014	-17.169093
2293.430161	-17.218704
2295.185992	-17.268839
2296.944513	-17.325390
2298.705732	-17.385052
2300.469653	-17.442371
2302.236283	-17.503176
2304.005629	-17.570889
2305.777696	-17.639471
2307.552492	-17.707826
2309.330022	-17.782327
2311.110292	-17.860962
2312.893310	-17.938148
2314.679080	-18.016552
2316.467611	-18.097534
2318.258907	-18.176501
2320.052976	-18.257151
2321.849824	-18.343299
2323.649457	-18.426942
2325.451883	-18.508754
2327.257106	-18.597183
2329.065135	-18.689767
2330.875975	-18.780906
2332.689633	-18.875448
2334.506116	-18.976774
2336.325430	-19.078825
2338.147581	-19.175984
2339.972578	-19.274791
2341.800425	-19.375379
2343.631130	-19.469946
2345.464700	-19.559234
2347.301141	-19.644945
2349.140461	-19.726259
2350.982665	-19.806539
2352.827760	-19.885736
2354.675754	-19.959934
2356.526653	-20.035575
2358.380464	-20.114317
2360.237195	-20.190165
2362.096851	-20.262730
2363.959440	-20.339984
2365.824968	-20.422686
2367.693444	-20.501152
2369.564873	-20.582194
2371.439263	-20.671245
2373.316620	-20.760769
2375.196953	-20.851289
2377.080267	-20.947595
2378.966570	-21.046784
2380.855869	-21.146905
2382.748171	-21.249775
2384.643484	-21.356848
2386.541815	-21.468288
2388.443170	-21.579519
2390.347557	-21.691926
2392.254984	-21.809997
2394.165457	-21.931685
2396.078984	-22.054062
2397.995572	-22.180618
2399.915229	-22.313209
2401.837961	-22.445151
2403.763777	-22.574986
2405.692684	-22.708379
2407.624689	-22.841966
2409.559800	-22.967156
2411.498023	-23.089006
2413.439368	-23.205952
2415.383840	-23.313346
2417.331449	-23.416905
2419.282201	-23.515124
2421.236104	-23.604079
2423.193165	-23.694886
2425.153393	-23.789492
2427.116795	-23.878716
2429.083378	-23.969267
2431.053151	-24.063621
2433.026121	-24.157113
2435.002297	-24.252007
2436.981685	-24.352924
2438.964293	-24.456989
2440.950131	-24.563322
2442.939204	-24.672091
2444.931522	-24.788602
2446.927092	-24.912600
2448.925923	-25.035317
2450.928022	-25.156277
2452.933397	-25.287903
2454.942056	-25.428896
2456.954008	-25.566484
2458.969260	-25.710787
2460.987821	-25.859520
2463.009699	-26.014229
2465.034902	-26.177695
2467.063437	-26.341519
2469.095315	-26.511985
2471.130542	-26.691713
2473.169127	-26.864396
2475.211078	-27.042059
2477.256404	-27.223622
2479.305112	-27.382608
2481.357212	-27.527997
2483.412713	-27.676004
2485.471621	-27.804635
2487.533946	-27.919242
2489.599696	-28.022656
2491.668880	-28.118369
2493.741507	-28.222205
2495.817585	-28.317368
2497.897122	-28.403980
2499.980127	-28.501182
2502.066609	-28.597684
2504.156578	-28.693896
2506.250040	-28.803011
2508.347006	-28.906588
2510.447483	-29.010961
2512.551482	-29.125302
2514.659010	-29.252580
2516.770076	-29.387314
2518.884690	-29.509762
2521.002861	-29.651066
2523.124597	-29.804506
2525.249907	-29.946206
2527.378801	-30.103944
2529.511287	-30.273375
2531.647375	-30.441333
2533.787074	-30.628764
2535.930393	-30.833159
2538.077340	-31.047890
2540.227927	-31.257748
2542.382160	-31.492010
2544.540051	-31.758424
2546.701608	-32.005119
2548.866840	-32.240196
2551.035757	-32.488085
2553.208369	-32.689289
2555.384684	-32.891413
2557.564713	-33.055595
2559.748465	-33.181059
2561.935948	-33.310185
2564.127174	-33.436784
2566.322152	-33.538987
2568.520890	-33.610609
2570.723399	-33.713908
2572.929689	-33.827213
2575.139769	-33.871840
2577.353649	-33.955158
2579.571340	-34.070874
2581.792849	-34.133600
2584.018189	-34.224460
2586.247368	-34.307960
2588.480396	-34.397208
2590.717284	-34.520016
2592.958041	-34.617302
2595.202678	-34.698104
2597.451204	-34.827646
2599.703630	-34.992841
2601.959966	-35.096320
2604.220222	-35.237470
2606.484408	-35.453086
2608.752535	-35.631745
2611.024612	-35.886634
2613.300651	-36.115562
2615.580661	-36.387471
2617.864653	-36.771677
2620.152638	-37.076030
2622.444625	-37.422038
2624.740626	-37.832596
2627.040651	-38.163074
2629.344710	-38.503195
2631.652814	-38.816924
2633.964974	-39.049297
2636.281200	-39.277916
2638.601504	-39.561670
2640.925896	-39.682333
2643.254386	-39.898644
2645.586987	-40.059883
2647.923707	-40.167900
2650.264559	-40.325845
2652.609554	-40.375783
2654.958702	-40.444042
2657.312015	-40.494002
2659.669503	-40.527755
2662.031178	-40.556707
2664.397051	-40.540578
2666.767132	-40.599074
2669.141434	-40.625732
2671.519968	-40.593138
2673.902745	-40.595037
2676.289776	-40.614184
2678.681072	-40.579431
2681.076646	-40.565066
2683.476508	-40.609969
2685.880671	-40.650381
2688.289145	-40.819874
2690.701942	-40.972135
2693.119075	-41.212240
2695.540554	-41.495233
2697.966391	-41.907150
2700.396599	-42.342118
2702.831189	-42.782152
2705.270172	-43.165528
2707.713561	-43.680252
2710.161368	-44.155974
2712.613605	-44.424245
2715.070283	-44.993122
2717.531416	-45.411554
2719.997014	-45.777150
2722.467090	-46.321252
2724.941657	-46.822921
2727.420726	-47.154846
2729.904310	-47.623007
2732.392421	-47.897181
2734.885072	-48.269758
2737.382275	-48.573969
2739.884042	-48.739640
2742.390387	-48.839989
2744.901321	-48.994209
2747.416857	-49.090925
2749.937008	-48.884338
2752.461787	-48.778897
2754.991206	-48.560683
2757.525279	-48.051626
2760.064017	-47.911879
2762.607434	-47.603779
2765.155544	-47.241966
2767.708358	-47.147875
2770.265890	-46.916434
2772.828153	-46.935050
2775.395160	-47.164661
2777.966924	-47.230673
2780.543459	-47.555678
2783.124778	-48.017477
2785.710894	-48.101773
2788.301821	-48.493031
2790.897572	-48.763444
2793.498160	-48.839445
2796.103599	-49.253353
2798.713903	-49.446013
2801.329085	-49.759501
2803.949159	-50.365212
2806.574139	-50.507964
2809.204038	-51.090705
2811.838871	-51.536884
2814.478650	-51.866862
2817.123391	-52.570974
2819.773107	-53.049192
2822.427812	-53.923297
2825.087521	-54.846795
2827.752247	-55.901044
2830.422005	-57.345677
2833.096808	-58.750687
2835.776672	-60.212627
2838.461611	-61.203210
2841.151638	-60.832536
2843.846769	-60.338616
2846.547019	-59.253281
2849.252401	-58.233229
2851.962930	-57.074666
2854.678621	-56.274348
2857.399489	-56.216974
2860.125549	-55.747297
2862.856815	-55.918603
2865.593302	-55.908357
2868.335026	-56.105716
2871.082002	-56.202899
2873.834244	-56.190569
2876.591767	-56.062459
2879.354588	-56.111706
2882.122721	-56.227185
2884.896181	-56.404887
2887.674984	-56.419014
2890.459146	-56.369883
2893.248681	-56.484670
2896.043606	-56.313114
2898.843937	-56.198013
2901.649687	-56.074592
2904.460875	-56.072288
2907.277515	-56.059719
2910.099623	-56.370417
2912.927215	-56.589098
2915.760308	-57.110096
2918.598916	-57.622576
2921.443057	-58.863358
2924.292747	-59.819881
2927.148002	-61.208684
2930.008837	-62.831546
2932.875270	-65.195676
2935.747318	-68.258944
2938.624995	-70.816552
2941.508320	-70.878628
2944.397308	-70.466262
2947.291977	-68.946587
2950.192343	-68.472523
2953.098423	-68.217158
2956.010234	-68.708337
2958.927792	-68.008651
2961.851116	-67.847819
2964.780221	-67.284162
2967.715126	-67.040042
2970.655847	-67.322806
2973.602402	-67.667374
2976.554808	-68.694727
2979.513083	-69.589448
2982.477243	-70.681064
2985.447308	-70.094015
2988.423293	-69.148066
2991.405218	-68.109004
2994.393099	-66.294920
2997.386955	-64.667184
