# 2022-03-21_14.21.29
# shape = sech2
# FWHM_ps = 0.1
# carrier_nm = 1542
# frep_MHz = 12126
# pow_mW = 8000
# GDD = 0.0
# propa_len = 0.1288888888888889
# untap_len = 0.01
# taper_len = 0.06888888888888889
# waist_len = 0.02
# uptap_len = 0.02
# untap_scale = 1.0
# waist_scale = 0.16666666666666669
# workingDir = NL_20110305_12 (Spirou)
# axis = slow
# window_ps = 10.0
# steps = 200
# points = 13000
# 
# wavelength [nm]	 power spectral density [dB]
1000.248639	-23.143324
1000.582480	-23.036850
1000.916545	-23.126167
1001.250832	-23.038385
1001.585343	-23.097902
1001.920077	-23.025433
1002.255035	-23.101964
1002.590218	-23.029539
1002.925624	-23.059703
1003.261255	-23.049825
1003.597111	-22.994046
1003.933192	-23.093644
1004.269497	-22.956636
1004.606029	-23.094153
1004.942785	-22.909440
1005.279768	-23.091818
1005.616977	-22.886444
1005.954412	-23.092215
1006.292074	-22.861784
1006.629962	-23.032450
1006.968077	-22.881546
1007.306420	-22.953450
1007.644990	-22.939730
1007.983787	-22.849418
1008.322813	-22.950993
1008.662067	-22.777894
1009.001549	-22.965291
1009.341259	-22.722028
1009.681199	-22.950988
1010.021367	-22.659494
1010.361765	-22.905643
1010.702392	-22.659949
1011.043250	-22.824136
1011.384337	-22.670319
1011.725654	-22.702566
1012.067202	-22.689175
1012.408980	-22.617134
1012.750989	-22.685283
1013.093230	-22.535655
1013.435702	-22.655385
1013.778405	-22.467734
1014.121341	-22.637257
1014.464508	-22.415679
1014.807908	-22.576603
1015.151540	-22.382359
1015.495405	-22.504740
1015.839503	-22.379726
1016.183835	-22.430200
1016.528400	-22.348092
1016.873198	-22.375545
1017.218231	-22.315506
1017.563498	-22.336122
1017.908999	-22.284097
1018.254735	-22.274197
1018.600707	-22.266093
1018.946913	-22.221003
1019.293354	-22.254777
1019.640032	-22.165075
1019.986945	-22.229799
1020.334094	-22.122744
1020.681480	-22.209729
1021.029102	-22.091808
1021.376961	-22.168541
1021.725058	-22.071409
1022.073391	-22.115567
1022.421962	-22.084684
1022.770772	-22.040391
1023.119819	-22.096285
1023.469104	-21.977183
1023.818628	-22.087711
1024.168391	-21.957584
1024.518393	-22.030518
1024.868634	-21.968836
1025.219115	-21.953845
1025.569836	-21.987650
1025.920796	-21.892370
1026.271997	-21.971405
1026.623438	-21.866262
1026.975121	-21.916838
1027.327044	-21.874721
1027.679208	-21.833733
1028.031614	-21.887204
1028.384262	-21.762157
1028.737152	-21.877012
1029.090284	-21.717376
1029.443659	-21.822119
1029.797276	-21.714577
1030.151137	-21.737533
1030.505240	-21.725362
1030.859587	-21.648721
1031.214178	-21.711264
1031.569013	-21.606605
1031.924093	-21.650700
1032.279417	-21.596791
1032.634985	-21.555117
1032.990799	-21.602347
1033.346858	-21.482651
1033.703162	-21.566320
1034.059712	-21.445821
1034.416509	-21.486509
1034.773551	-21.453732
1035.130841	-21.398904
1035.488377	-21.434438
1035.846160	-21.345469
1036.204190	-21.373358
1036.562468	-21.356711
1036.920994	-21.264705
1037.279768	-21.372230
1037.638790	-21.180184
1037.998061	-21.360560
1038.357581	-21.155314
1038.717350	-21.269684
1039.077368	-21.181948
1039.437636	-21.173299
1039.798154	-21.204847
1040.158922	-21.105850
1040.519940	-21.161831
1040.881209	-21.116495
1041.242729	-21.079267
1041.604501	-21.145207
1041.966524	-20.994627
1042.328798	-21.140775
1042.691325	-20.988546
1043.054103	-21.065815
1043.417135	-21.022546
1043.780419	-20.966292
1044.143956	-21.063326
1044.507746	-20.914984
1044.871791	-21.024551
1045.236088	-20.926653
1045.600641	-20.944471
1045.965447	-20.972692
1046.330508	-20.859905
1046.695824	-20.974777
1047.061395	-20.837618
1047.427222	-20.930828
1047.793304	-20.847051
1048.159642	-20.853613
1048.526237	-20.862723
1048.893088	-20.805052
1049.260196	-20.843865
1049.627561	-20.763393
1049.995183	-20.815607
1050.363063	-20.736595
1050.731201	-20.776280
1051.099597	-20.702134
1051.468251	-20.717848
1051.837164	-20.705977
1052.206336	-20.623322
1052.575767	-20.711891
1052.945458	-20.531212
1053.315409	-20.692077
1053.685619	-20.498453
1054.056090	-20.574834
1054.426821	-20.532629
1054.797814	-20.429694
1055.169067	-20.561084
1055.540582	-20.321668
1055.912359	-20.497783
1056.284398	-20.316623
1056.656698	-20.360948
1057.029262	-20.329214
1057.402088	-20.237546
1057.775177	-20.295674
1058.148530	-20.192551
1058.522146	-20.182973
1058.896027	-20.174319
1059.270171	-20.092233
1059.644580	-20.119983
1060.019254	-20.042598
1060.394193	-20.017640
1060.769397	-20.025993
1061.144867	-19.934044
1061.520602	-19.967462
1061.896604	-19.882581
1062.272872	-19.901554
1062.649407	-19.846985
1063.026210	-19.835018
1063.403279	-19.797088
1063.780616	-19.792102
1064.158221	-19.764319
1064.536094	-19.727730
1064.914235	-19.737318
1065.292645	-19.692825
1065.671325	-19.690468
1066.050273	-19.687405
1066.429491	-19.614811
1066.808979	-19.695831
1067.188738	-19.596954
1067.568766	-19.611124
1067.949066	-19.660500
1068.329636	-19.503179
1068.710478	-19.709468
1069.091592	-19.474828
1069.472977	-19.619895
1069.854635	-19.591567
1070.236565	-19.473691
1070.618768	-19.667512
1071.001243	-19.442896
1071.383993	-19.605940
1071.767016	-19.541719
1072.150313	-19.476280
1072.533884	-19.601821
1072.917730	-19.478061
1073.301850	-19.526095
1073.686246	-19.543965
1074.070917	-19.456057
1074.455864	-19.543698
1074.841087	-19.486067
1075.226586	-19.435050
1075.612362	-19.543466
1075.998415	-19.388421
1076.384745	-19.479875
1076.771353	-19.420199
1077.158238	-19.374804
1077.545401	-19.442778
1077.932843	-19.305216
1078.320564	-19.382110
1078.708564	-19.298659
1079.096842	-19.295933
1079.485401	-19.270307
1079.874240	-19.208795
1080.263358	-19.257040
1080.652757	-19.115802
1081.042438	-19.200505
1081.432399	-19.080130
1081.822641	-19.082043
1082.213166	-19.095536
1082.603972	-18.932063
1082.995061	-19.072994
1083.386433	-18.892465
1083.778087	-18.918507
1084.170025	-18.915599
1084.562246	-18.783915
1084.954751	-18.867575
1085.347541	-18.732493
1085.740615	-18.740242
1086.133973	-18.723807
1086.527617	-18.634002
1086.921546	-18.650947
1087.315761	-18.583997
1087.710262	-18.571211
1088.105050	-18.525829
1088.500124	-18.490725
1088.895485	-18.493592
1089.291134	-18.412958
1089.687070	-18.438541
1090.083294	-18.387252
1090.479806	-18.350412
1090.876607	-18.393483
1091.273696	-18.280899
1091.671075	-18.339267
1092.068744	-18.322249
1092.466702	-18.224854
1092.864950	-18.334765
1093.263489	-18.235726
1093.662319	-18.230598
1094.061440	-18.293733
1094.460852	-18.176800
1094.860555	-18.247490
1095.260551	-18.232840
1095.660840	-18.146775
1096.061421	-18.241842
1096.462295	-18.170074
1096.863462	-18.135255
1097.264923	-18.201620
1097.666678	-18.118347
1098.068727	-18.119470
1098.471071	-18.146353
1098.873710	-18.066253
1099.276644	-18.102578
1099.679874	-18.074877
1100.083400	-18.030628
1100.487222	-18.063331
1100.891340	-18.010397
1101.295756	-18.007617
1101.700468	-17.993582
1102.105478	-17.979872
1102.510787	-17.964922
1102.916393	-17.926925
1103.322298	-17.961775
1103.728502	-17.898141
1104.135005	-17.882875
1104.541807	-17.924020
1104.948909	-17.821634
1105.356312	-17.855532
1105.764015	-17.846413
1106.172019	-17.753566
1106.580324	-17.814190
1106.988931	-17.740073
1107.397840	-17.691474
1107.807051	-17.735496
1108.216564	-17.628747
1108.626380	-17.618373
1109.036500	-17.622400
1109.446923	-17.525586
1109.857649	-17.522459
1110.268680	-17.494066
1110.680016	-17.432714
1111.091657	-17.405113
1111.503602	-17.374894
1111.915854	-17.342366
1112.328411	-17.287378
1112.741275	-17.275809
1113.154445	-17.256585
1113.567922	-17.187635
1113.981706	-17.200247
1114.395798	-17.183965
1114.810198	-17.111540
1115.224906	-17.152827
1115.639923	-17.126682
1116.055249	-17.059897
1116.470884	-17.134881
1116.886829	-17.078258
1117.303084	-17.035903
1117.719650	-17.132396
1118.136526	-17.036852
1118.553713	-17.032502
1118.971212	-17.127934
1119.389022	-16.999793
1119.807145	-17.037402
1120.225580	-17.102768
1120.644328	-16.967103
1121.063389	-17.029826
1121.482763	-17.049990
1121.902452	-16.931487
1122.322454	-16.995971
1122.742771	-16.968914
1123.163404	-16.884943
1123.584351	-16.930256
1124.005614	-16.866396
1124.427193	-16.819779
1124.849089	-16.838425
1125.271301	-16.747617
1125.693830	-16.738634
1126.116677	-16.728440
1126.539842	-16.623732
1126.963324	-16.645982
1127.387126	-16.613468
1127.811246	-16.503988
1128.235685	-16.551062
1128.660444	-16.503577
1129.085522	-16.397966
1129.510922	-16.461430
1129.936641	-16.407035
1130.362682	-16.311553
1130.789044	-16.383778
1131.215728	-16.326373
1131.642734	-16.251260
1132.070063	-16.316913
1132.497714	-16.266313
1132.925689	-16.214046
1133.353987	-16.261463
1133.782610	-16.225293
1134.211556	-16.193000
1134.640827	-16.217420
1135.070424	-16.195374
1135.500345	-16.181185
1135.930593	-16.182970
1136.361166	-16.168351
1136.792067	-16.173083
1137.223294	-16.152581
1137.654848	-16.140735
1138.086730	-16.158349
1138.518940	-16.121856
1138.951479	-16.109399
1139.384346	-16.128865
1139.817543	-16.084836
1140.251069	-16.074407
1140.684925	-16.081132
1141.119111	-16.038404
1141.553628	-16.034527
1141.988475	-16.020294
1142.423655	-15.978487
1142.859166	-15.990326
1143.295009	-15.953662
1143.731185	-15.906328
1144.167694	-15.939445
1144.604536	-15.888196
1145.041711	-15.828094
1145.479221	-15.878065
1145.917065	-15.828166
1146.355245	-15.754528
1146.793759	-15.808165
1147.232609	-15.771673
1147.671795	-15.695875
1148.111317	-15.737174
1148.551177	-15.715046
1148.991373	-15.652222
1149.431907	-15.676967
1149.872779	-15.657497
1150.313989	-15.615020
1150.755538	-15.633233
1151.197426	-15.607614
1151.639653	-15.575078
1152.082220	-15.599034
1152.525128	-15.575230
1152.968376	-15.536743
1153.411966	-15.558281
1153.855897	-15.556967
1154.300169	-15.513865
1154.744784	-15.507165
1155.189742	-15.529087
1155.635042	-15.512013
1156.080687	-15.462344
1156.526674	-15.474167
1156.973007	-15.507718
1157.419683	-15.443635
1157.866705	-15.404044
1158.314072	-15.470135
1158.761786	-15.440873
1159.209845	-15.349386
1159.658251	-15.396043
1160.107004	-15.419612
1160.556104	-15.320966
1161.005553	-15.313154
1161.455349	-15.358834
1161.905494	-15.297771
1162.355989	-15.248350
1162.806832	-15.267957
1163.258026	-15.252479
1163.709570	-15.203270
1164.161464	-15.174526
1164.613710	-15.172874
1165.066307	-15.160631
1165.519256	-15.100396
1165.972558	-15.070126
1166.426212	-15.095616
1166.880219	-15.048494
1167.334580	-14.973271
1167.789295	-14.997394
1168.244364	-14.995104
1168.699788	-14.905623
1169.155567	-14.887498
1169.611702	-14.912562
1170.068193	-14.854024
1170.525041	-14.802516
1170.982245	-14.806794
1171.439807	-14.782177
1171.897726	-14.744632
1172.356004	-14.718459
1172.814640	-14.679273
1173.273635	-14.678827
1173.732989	-14.663989
1174.192703	-14.581757
1174.652778	-14.581285
1175.113213	-14.614815
1175.574009	-14.518934
1176.035167	-14.477378
1176.496687	-14.536828
1176.958569	-14.476177
1177.420814	-14.401709
1177.883422	-14.438107
1178.346394	-14.421747
1178.809730	-14.353791
1179.273430	-14.348082
1179.737496	-14.350055
1180.201927	-14.311646
1180.666723	-14.275277
1181.131886	-14.277984
1181.597416	-14.265417
1182.063312	-14.212693
1182.529576	-14.209778
1182.996209	-14.218908
1183.463209	-14.161084
1183.930579	-14.141982
1184.398317	-14.164998
1184.866426	-14.126894
1185.334904	-14.082858
1185.803754	-14.093575
1186.272974	-14.098951
1186.742566	-14.047202
1187.212529	-14.015633
1187.682865	-14.054374
1188.153574	-14.029462
1188.624656	-13.957902
1189.096112	-13.989816
1189.567942	-14.003799
1190.040147	-13.930243
1190.512726	-13.926640
1190.985681	-13.954678
1191.459012	-13.914982
1191.932720	-13.882666
1192.406804	-13.894726
1192.881265	-13.890548
1193.356104	-13.852500
1193.831322	-13.843675
1194.306918	-13.855090
1194.782893	-13.821449
1195.259248	-13.804481
1195.735982	-13.818415
1196.213097	-13.785868
1196.690593	-13.768558
1197.168471	-13.782650
1197.646730	-13.752866
1198.125371	-13.731464
1198.604395	-13.741582
1199.083803	-13.724992
1199.563594	-13.696900
1200.043769	-13.691583
1200.524329	-13.696036
1201.005273	-13.668824
1201.486604	-13.638414
1201.968320	-13.656538
1202.450422	-13.642584
1202.932912	-13.596433
1203.415789	-13.602745
1203.899054	-13.604240
1204.382707	-13.572322
1204.866748	-13.548011
1205.351179	-13.544436
1205.836000	-13.549733
1206.321211	-13.509102
1206.806812	-13.480106
1207.292805	-13.503063
1207.779189	-13.479266
1208.265965	-13.438474
1208.753134	-13.433706
1209.240696	-13.437172
1209.728651	-13.416429
1210.217000	-13.371319
1210.705744	-13.380483
1211.194883	-13.385471
1211.684417	-13.331531
1212.174347	-13.327189
1212.664673	-13.334715
1213.155396	-13.304395
1213.646516	-13.283462
1214.138034	-13.279617
1214.629951	-13.279658
1215.122266	-13.242708
1215.614980	-13.232654
1216.108095	-13.250872
1216.601609	-13.211483
1217.095524	-13.194347
1217.589841	-13.208969
1218.084559	-13.194310
1218.579679	-13.169344
1219.075202	-13.159803
1219.571128	-13.174338
1220.067458	-13.154712
1220.564191	-13.128386
1221.061330	-13.142420
1221.558874	-13.134812
1222.056823	-13.117949
1222.555178	-13.114007
1223.053940	-13.110966
1223.553109	-13.105956
1224.052686	-13.094250
1224.552671	-13.096355
1225.053065	-13.090190
1225.553867	-13.075310
1226.055079	-13.083153
1226.556702	-13.079751
1227.058735	-13.065262
1227.561179	-13.062996
1228.064035	-13.065896
1228.567303	-13.065557
1229.070983	-13.048468
1229.575077	-13.049363
1230.079585	-13.056984
1230.584506	-13.043675
1231.089842	-13.041591
1231.595594	-13.038318
1232.101761	-13.040113
1232.608345	-13.033125
1233.115345	-13.025974
1233.622762	-13.034651
1234.130597	-13.018204
1234.638851	-13.019556
1235.147523	-13.019864
1235.656615	-13.012969
1236.166126	-13.007625
1236.676058	-12.996851
1237.186411	-13.010283
1237.697185	-12.990635
1238.208381	-12.982733
1238.719999	-12.985226
1239.232040	-12.977490
1239.744505	-12.971328
1240.257394	-12.950037
1240.770708	-12.962909
1241.284446	-12.944171
1241.798610	-12.929574
1242.313201	-12.927340
1242.828218	-12.915620
1243.343662	-12.908673
1243.859534	-12.878370
1244.375834	-12.888993
1244.892563	-12.869319
1245.409721	-12.846407
1245.927309	-12.836676
1246.445327	-12.824758
1246.963777	-12.819794
1247.482657	-12.776869
1248.001970	-12.778062
1248.521716	-12.764468
1249.041894	-12.742470
1249.562506	-12.719249
1250.083553	-12.699459
1250.605034	-12.701547
1251.126950	-12.660669
1251.649302	-12.647771
1252.172091	-12.631176
1252.695316	-12.616843
1253.218979	-12.590801
1253.743079	-12.562765
1254.267619	-12.565322
1254.792597	-12.532100
1255.318015	-12.512911
1255.843874	-12.489782
1256.370173	-12.484455
1256.896913	-12.462771
1257.424095	-12.426209
1257.951720	-12.426296
1258.479787	-12.403921
1259.008298	-12.391174
1259.537254	-12.355421
1260.066654	-12.352208
1260.596499	-12.343003
1261.126790	-12.309957
1261.657527	-12.300453
1262.188711	-12.279806
1262.720342	-12.284461
1263.252422	-12.244634
1263.784950	-12.238321
1264.317928	-12.229436
1264.851355	-12.217847
1265.385232	-12.199722
1265.919560	-12.175815
1266.454340	-12.189408
1266.989572	-12.161755
1267.525256	-12.157185
1268.061394	-12.132734
1268.597985	-12.145475
1269.135031	-12.128258
1269.672531	-12.111922
1270.210487	-12.109630
1270.748899	-12.104648
1271.287768	-12.107821
1271.827094	-12.078768
1272.366877	-12.092088
1272.907119	-12.082534
1273.447820	-12.088669
1273.988981	-12.067368
1274.530601	-12.075492
1275.072683	-12.080325
1275.615226	-12.074193
1276.158230	-12.071267
1276.701697	-12.068646
1277.245627	-12.087469
1277.790021	-12.075178
1278.334879	-12.080012
1278.880202	-12.079171
1279.425991	-12.097327
1279.972245	-12.093023
1280.518966	-12.092906
1281.066155	-12.102777
1281.613811	-12.113849
1282.161936	-12.119700
1282.710529	-12.114992
1283.259593	-12.131353
1283.809126	-12.140830
1284.359131	-12.149236
1284.909607	-12.146727
1285.460555	-12.161893
1286.011976	-12.175593
1286.563870	-12.181731
1287.116237	-12.183083
1287.669080	-12.195434
1288.222397	-12.212015
1288.776191	-12.217973
1289.330460	-12.219926
1289.885207	-12.231229
1290.440431	-12.247833
1290.996133	-12.254933
1291.552314	-12.256987
1292.108975	-12.265876
1292.666115	-12.283371
1293.223737	-12.288839
1293.781839	-12.293451
1294.340424	-12.296947
1294.899491	-12.317066
1295.459041	-12.318833
1296.019075	-12.326682
1296.579593	-12.324159
1297.140597	-12.345871
1297.702086	-12.345051
1298.264061	-12.354225
1298.826524	-12.347787
1299.389474	-12.367280
1299.952912	-12.366949
1300.516839	-12.373696
1301.081255	-12.367155
1301.646162	-12.379639
1302.211559	-12.383037
1302.777448	-12.383825
1303.343829	-12.380384
1303.910702	-12.382910
1304.478069	-12.390772
1305.045930	-12.384732
1305.614285	-12.384485
1306.183136	-12.377621
1306.752483	-12.387751
1307.322326	-12.376544
1307.892666	-12.377533
1308.463504	-12.363597
1309.034841	-12.373365
1309.606677	-12.359043
1310.179012	-12.359662
1310.751849	-12.340765
1311.325186	-12.348010
1311.899025	-12.332304
1312.473366	-12.331587
1313.048211	-12.310013
1313.623559	-12.312858
1314.199412	-12.297377
1314.775770	-12.294380
1315.352634	-12.272765
1315.930004	-12.270237
1316.507881	-12.256037
1317.086266	-12.250393
1317.665159	-12.230226
1318.244562	-12.222671
1318.824474	-12.209560
1319.404897	-12.201923
1319.985831	-12.183535
1320.567276	-12.171987
1321.149234	-12.159316
1321.731706	-12.150212
1322.314691	-12.133825
1322.898190	-12.119181
1323.482205	-12.106349
1324.066736	-12.095660
1324.651783	-12.081515
1325.237347	-12.064913
1325.823430	-12.051605
1326.410031	-12.039483
1326.997151	-12.027152
1327.584791	-12.010071
1328.172952	-11.996085
1328.761634	-11.982856
1329.350839	-11.971819
1329.940566	-11.955301
1330.530817	-11.941211
1331.121592	-11.926939
1331.712891	-11.917057
1332.304716	-11.901732
1332.897068	-11.888362
1333.489946	-11.873405
1334.083352	-11.864199
1334.677287	-11.850380
1335.271750	-11.838126
1335.866744	-11.823138
1336.462268	-11.814095
1337.058323	-11.801926
1337.654910	-11.791081
1338.252029	-11.776780
1338.849682	-11.767628
1339.447869	-11.756881
1340.046591	-11.747549
1340.645848	-11.734455
1341.245641	-11.725152
1341.845972	-11.715511
1342.446840	-11.707585
1343.048246	-11.696355
1343.650191	-11.686867
1344.252677	-11.678363
1344.855702	-11.671118
1345.459269	-11.662506
1346.063379	-11.652773
1346.668030	-11.645752
1347.273226	-11.638309
1347.878965	-11.632874
1348.485250	-11.622837
1349.092080	-11.617763
1349.699456	-11.609240
1350.307380	-11.607060
1350.915851	-11.596692
1351.524871	-11.593948
1352.134441	-11.583882
1352.744560	-11.584449
1353.355231	-11.573874
1353.966453	-11.573465
1354.578227	-11.561954
1355.190555	-11.564238
1355.803436	-11.553831
1356.416872	-11.555260
1357.030863	-11.543379
1357.645411	-11.545805
1358.260515	-11.536307
1358.876177	-11.538417
1359.492397	-11.527976
1360.109176	-11.528846
1360.726516	-11.521349
1361.344416	-11.522203
1361.962877	-11.515370
1362.581901	-11.513280
1363.201487	-11.509080
1363.821637	-11.506673
1364.442352	-11.504875
1365.063632	-11.498861
1365.685478	-11.498833
1366.307891	-11.491815
1366.930871	-11.494967
1367.554420	-11.485373
1368.178538	-11.488975
1368.803226	-11.478366
1369.428485	-11.484031
1370.054315	-11.473454
1370.680717	-11.477785
1371.307693	-11.467632
1371.935242	-11.471170
1372.563366	-11.464288
1373.192065	-11.464740
1373.821341	-11.460232
1374.451193	-11.457162
1375.081623	-11.457409
1375.712632	-11.451049
1376.344221	-11.454064
1376.976389	-11.444062
1377.609139	-11.449819
1378.242470	-11.439112
1378.876384	-11.445175
1379.510881	-11.434290
1380.145963	-11.438553
1380.781629	-11.430896
1381.417881	-11.431909
1382.054720	-11.427827
1382.692147	-11.423497
1383.330161	-11.424120
1383.968765	-11.415915
1384.607959	-11.420293
1385.247743	-11.408351
1385.888119	-11.414188
1386.529087	-11.402246
1387.170648	-11.407775
1387.812804	-11.397994
1388.455554	-11.399313
1389.098899	-11.394245
1389.742842	-11.390952
1390.387381	-11.391932
1391.032519	-11.382858
1391.678256	-11.387947
1392.324592	-11.375816
1392.971529	-11.383456
1393.619068	-11.371762
1394.267208	-11.376985
1394.915952	-11.368995
1395.565300	-11.369468
1396.215253	-11.368499
1396.865812	-11.362435
1397.516977	-11.367081
1398.168749	-11.355844
1398.821130	-11.364206
1399.474120	-11.352440
1400.127719	-11.359117
1400.781930	-11.350572
1401.436752	-11.351717
1402.092186	-11.350724
1402.748234	-11.345141
1403.404897	-11.350759
1404.062174	-11.339767
1404.720067	-11.348778
1405.378577	-11.337990
1406.037705	-11.344872
1406.697451	-11.338647
1407.357817	-11.338535
1408.018803	-11.340353
1408.680410	-11.333316
1409.342639	-11.341597
1410.005492	-11.330689
1410.668968	-11.340304
1411.333068	-11.332485
1411.997795	-11.337779
1412.663147	-11.337768
1413.329127	-11.334864
1413.995736	-11.343107
1414.662973	-11.334713
1415.330840	-11.346550
1415.999339	-11.338641
1416.668469	-11.346617
1417.338232	-11.346033
1418.008628	-11.346273
1418.679659	-11.355132
1419.351325	-11.349072
1420.023628	-11.362779
1420.696568	-11.357633
1421.370145	-11.368868
1422.044362	-11.371248
1422.719219	-11.374399
1423.394717	-11.385662
1424.070856	-11.382552
1424.747638	-11.397517
1425.425064	-11.394673
1426.103134	-11.405464
1426.781850	-11.409961
1427.461212	-11.413249
1428.141221	-11.426550
1428.821878	-11.425312
1429.503185	-11.441965
1430.185141	-11.444206
1430.867749	-11.457381
1431.551008	-11.468513
1432.234920	-11.474337
1432.919486	-11.492507
1433.604707	-11.494793
1434.290583	-11.512548
1434.977116	-11.518173
1435.664307	-11.527770
1436.352156	-11.540707
1437.040664	-11.542791
1437.729833	-11.560269
1438.419663	-11.562833
1439.110156	-11.577364
1439.801312	-11.588975
1440.493132	-11.597686
1441.185617	-11.618964
1441.878768	-11.626213
1442.572586	-11.648174
1443.267072	-11.661420
1443.962228	-11.675866
1444.658053	-11.696194
1445.354549	-11.702510
1446.051717	-11.721416
1446.749558	-11.726836
1447.448073	-11.735858
1448.147263	-11.745803
1448.847128	-11.745093
1449.547671	-11.756988
1450.248891	-11.756549
1450.950789	-11.765211
1451.653368	-11.774485
1452.356627	-11.779406
1453.060568	-11.797694
1453.765192	-11.805599
1454.470500	-11.824692
1455.176492	-11.841310
1455.883170	-11.853734
1456.590534	-11.874739
1457.298586	-11.881250
1458.007327	-11.894696
1458.716758	-11.899378
1459.426880	-11.896544
1460.137693	-11.898196
1460.849199	-11.883441
1461.561398	-11.875558
1462.274293	-11.860507
1462.987883	-11.841550
1463.702170	-11.832355
1464.417155	-11.813477
1465.132838	-11.807624
1465.849222	-11.803011
1466.566306	-11.799709
1467.284093	-11.812058
1468.002582	-11.818900
1468.721775	-11.838494
1469.441674	-11.860842
1470.162278	-11.879317
1470.883590	-11.908584
1471.605609	-11.926008
1472.328338	-11.944998
1473.051777	-11.959873
1473.775928	-11.959863
1474.500790	-11.962504
1475.226367	-11.948920
1475.952657	-11.930830
1476.679663	-11.911134
1477.407386	-11.878958
1478.135826	-11.855493
1478.864985	-11.828210
1479.594863	-11.805316
1480.325463	-11.796716
1481.056784	-11.789210
1481.788828	-11.801992
1482.521597	-11.827106
1483.255090	-11.863124
1483.989309	-11.923564
1484.724256	-11.990743
1485.459931	-12.076115
1486.196336	-12.176085
1486.933471	-12.276782
1487.671337	-12.391283
1488.409937	-12.500128
1489.149270	-12.602485
1489.889337	-12.700879
1490.630141	-12.773268
1491.371682	-12.831105
1492.113961	-12.863731
1492.856979	-12.864570
1493.600738	-12.848699
1494.345238	-12.801816
1495.090481	-12.737668
1495.836467	-12.663288
1496.583198	-12.572850
1497.330675	-12.488100
1498.078899	-12.404304
1498.827872	-12.327436
1499.577593	-12.272288
1500.328065	-12.228729
1501.079289	-12.211175
1501.831265	-12.221018
1502.583995	-12.250720
1503.337480	-12.315415
1504.091721	-12.403730
1504.846719	-12.514649
1505.602475	-12.654923
1506.358991	-12.803111
1507.116268	-12.962652
1507.874306	-13.122816
1508.633108	-13.258288
1509.392673	-13.371190
1510.153004	-13.433917
1510.914101	-13.432032
1511.675965	-13.368749
1512.438599	-13.222897
1513.202002	-13.009808
1513.966176	-12.740450
1514.731122	-12.417482
1515.496842	-12.073364
1516.263336	-11.715885
1517.030607	-11.358042
1517.798654	-11.023655
1518.567479	-10.710944
1519.337083	-10.432141
1520.107468	-10.197534
1520.878634	-9.999757
1521.650584	-9.848763
1522.423317	-9.745031
1523.196836	-9.679929
1523.971141	-9.661212
1524.746233	-9.682919
1525.522115	-9.735935
1526.298786	-9.825736
1527.076249	-9.940357
1527.854504	-10.069374
1528.633553	-10.213843
1529.413397	-10.355482
1530.194037	-10.480807
1530.975474	-10.587010
1531.757709	-10.653465
1532.540745	-10.669451
1533.324581	-10.639272
1534.109220	-10.554001
1534.894662	-10.418307
1535.680909	-10.252600
1536.467961	-10.062940
1537.255821	-9.863982
1538.044489	-9.680456
1538.833967	-9.519318
1539.624256	-9.391840
1540.415357	-9.317205
1541.207271	-9.297370
1542.000000	-9.338389
1542.793545	-9.454998
1543.587907	-9.646110
1544.383087	-9.916426
1545.179088	-10.280454
1545.975909	-10.737819
1546.773552	-11.295957
1547.572019	-11.975112
1548.371311	-12.781467
1549.171428	-13.732498
1549.972373	-14.866795
1550.774147	-16.211690
1551.576751	-17.814591
1552.380185	-19.761214
1553.184453	-22.098852
1553.989554	-24.686884
1554.795490	-26.554992
1555.602263	-25.954468
1556.409873	-23.688218
1557.218322	-21.379261
1558.027612	-19.458873
1558.837743	-17.894047
1559.648717	-16.607016
1560.460536	-15.551409
1561.273200	-14.674434
1562.086710	-13.937364
1562.901069	-13.326500
1563.716278	-12.819680
1564.532337	-12.398124
1565.349249	-12.059461
1566.167014	-11.792194
1566.985634	-11.584757
1567.805111	-11.438527
1568.625444	-11.346104
1569.446637	-11.298896
1570.268690	-11.299357
1571.091605	-11.341782
1571.915382	-11.418741
1572.740024	-11.532777
1573.565532	-11.679289
1574.391907	-11.850977
1575.219150	-12.050151
1576.047262	-12.272893
1576.876246	-12.511541
1577.706103	-12.768433
1578.536833	-13.039716
1579.368439	-13.317276
1580.200922	-13.603479
1581.034282	-13.894054
1581.868522	-14.180545
1582.703643	-14.465135
1583.539646	-14.743280
1584.376532	-15.006121
1585.214304	-15.255984
1586.052962	-15.488387
1586.892508	-15.694365
1587.732943	-15.877300
1588.574269	-16.033808
1589.416487	-16.155956
1590.259599	-16.248709
1591.103605	-16.311312
1591.948508	-16.337468
1592.794309	-16.333635
1593.641009	-16.302176
1594.488609	-16.238051
1595.337112	-16.148328
1596.186518	-16.038017
1597.036829	-15.903220
1597.888047	-15.750433
1598.740172	-15.586274
1599.593207	-15.407817
1600.447153	-15.220192
1601.302010	-15.030564
1602.157782	-14.836771
1603.014469	-14.641887
1603.872072	-14.452459
1604.730593	-14.266760
1605.590034	-14.085972
1606.450397	-13.915672
1607.311681	-13.754331
1608.173890	-13.601327
1609.037024	-13.461158
1609.901085	-13.332729
1610.766075	-13.214052
1611.631995	-13.108353
1612.498846	-13.014923
1613.366630	-12.930651
1614.235349	-12.857292
1615.105004	-12.794741
1615.975596	-12.739349
1616.847128	-12.691254
1617.719600	-12.650812
1618.593014	-12.614438
1619.467372	-12.580862
1620.342675	-12.550737
1621.218924	-12.521306
1622.096122	-12.490571
1622.974270	-12.459494
1623.853369	-12.426649
1624.733420	-12.390267
1625.614427	-12.351869
1626.496389	-12.311636
1627.379308	-12.268261
1628.263187	-12.223397
1629.148026	-12.178687
1630.033828	-12.133230
1630.920593	-12.088179
1631.808324	-12.045949
1632.697022	-12.005921
1633.586688	-11.968102
1634.477324	-11.934919
1635.368932	-11.906182
1636.261514	-11.880442
1637.155070	-11.859122
1638.049602	-11.842506
1638.945113	-11.828333
1639.841603	-11.816599
1640.739075	-11.807838
1641.637529	-11.799922
1642.536968	-11.791875
1643.437393	-11.784601
1644.338806	-11.776868
1645.241209	-11.767311
1646.144602	-11.756931
1647.048988	-11.745709
1647.954368	-11.732485
1648.860744	-11.718147
1649.768118	-11.703658
1650.676491	-11.688222
1651.585865	-11.672366
1652.496241	-11.657754
1653.407621	-11.643949
1654.320008	-11.630558
1655.233401	-11.619221
1656.147804	-11.610025
1657.063218	-11.601621
1657.979645	-11.594693
1658.897085	-11.589930
1659.815542	-11.585654
1660.735016	-11.581328
1661.655509	-11.578125
1662.577023	-11.575164
1663.499560	-11.571020
1664.423121	-11.566745
1665.347709	-11.563004
1666.273324	-11.558545
1667.199969	-11.553668
1668.127645	-11.549880
1669.056353	-11.546813
1669.986097	-11.543817
1670.916877	-11.542105
1671.848695	-11.542156
1672.781553	-11.542949
1673.715452	-11.544673
1674.650395	-11.548158
1675.586383	-11.552553
1676.523418	-11.557115
1677.461501	-11.562663
1678.400635	-11.569179
1679.340821	-11.575565
1680.282061	-11.582144
1681.224357	-11.589754
1682.167710	-11.597762
1683.112122	-11.605762
1684.057595	-11.614631
1685.004132	-11.624541
1685.951732	-11.634795
1686.900400	-11.645743
1687.850135	-11.658005
1688.800940	-11.671040
1689.752818	-11.684493
1690.705768	-11.698940
1691.659795	-11.714247
1692.614898	-11.729692
1693.571081	-11.745555
1694.528345	-11.762201
1695.486691	-11.779007
1696.446122	-11.795812
1697.406640	-11.813326
1698.368245	-11.831423
1699.330941	-11.849461
1700.294729	-11.867761
1701.259611	-11.886715
1702.225588	-11.905701
1703.192664	-11.924416
1704.160838	-11.943438
1705.130114	-11.962728
1706.100493	-11.981783
1707.071977	-12.000967
1708.044568	-12.020757
1709.018268	-12.040714
1709.993079	-12.060630
1710.969003	-12.081066
1711.946041	-12.101936
1712.924196	-12.122676
1713.903469	-12.143611
1714.883862	-12.165301
1715.865378	-12.187293
1716.848017	-12.209308
1717.831783	-12.232098
1718.816677	-12.255848
1719.802701	-12.279770
1720.789857	-12.303876
1721.778147	-12.328903
1722.767573	-12.354560
1723.758136	-12.380071
1724.749840	-12.405823
1725.742685	-12.432449
1726.736673	-12.459435
1727.731808	-12.486325
1728.728090	-12.513673
1729.725521	-12.541686
1730.724105	-12.569678
1731.723842	-12.597420
1732.724735	-12.625378
1733.726785	-12.653621
1734.729995	-12.681846
1735.734366	-12.710263
1736.739902	-12.739255
1737.746603	-12.768703
1738.754472	-12.798313
1739.763510	-12.828211
1740.773721	-12.858423
1741.785105	-12.888561
1742.797665	-12.918571
1743.811403	-12.948990
1744.826321	-12.980013
1745.842422	-13.011406
1746.859706	-13.043351
1747.878177	-13.076174
1748.897835	-13.109548
1749.918685	-13.142933
1750.940726	-13.176293
1751.963963	-13.209648
1752.988395	-13.242740
1754.014027	-13.275612
1755.040860	-13.308562
1756.068895	-13.341647
1757.098135	-13.374756
1758.128583	-13.407956
1759.160240	-13.441207
1760.193109	-13.474181
1761.227191	-13.506706
1762.262488	-13.538785
1763.299004	-13.570391
1764.336740	-13.601394
1765.375697	-13.631803
1766.415880	-13.661842
1767.457288	-13.691563
1768.499926	-13.720976
1769.543794	-13.750414
1770.588895	-13.780182
1771.635231	-13.810027
1772.682805	-13.839733
1773.731619	-13.869406
1774.781674	-13.898884
1775.832973	-13.927782
1776.885519	-13.956277
1777.939312	-13.984935
1778.994357	-14.013986
1780.050654	-14.043409
1781.108207	-14.073421
1782.167017	-14.104186
1783.227087	-14.135215
1784.288418	-14.165877
1785.351013	-14.196157
1786.414875	-14.226278
1787.480006	-14.256036
1788.546407	-14.285395
1789.614082	-14.314881
1790.683032	-14.344846
1791.753259	-14.375098
1792.824767	-14.405449
1793.897557	-14.435915
1794.971632	-14.466276
1796.046994	-14.496056
1797.123645	-14.525136
1798.201588	-14.553829
1799.280824	-14.582226
1800.361357	-14.610212
1801.443188	-14.638076
1802.526320	-14.666181
1803.610756	-14.694300
1804.696497	-14.722009
1805.783546	-14.749117
1806.871906	-14.775468
1807.961578	-14.800752
1809.052565	-14.824859
1810.144870	-14.848175
1811.238494	-14.871115
1812.333441	-14.893646
1813.429713	-14.915642
1814.527311	-14.937176
1815.626239	-14.958082
1816.726499	-14.978088
1817.828094	-14.997111
1818.931025	-15.015305
1820.035295	-15.032866
1821.140906	-15.049826
1822.247862	-15.066231
1823.356165	-15.082289
1824.465816	-15.098030
1825.576819	-15.113497
1826.689175	-15.128646
1827.802888	-15.143239
1828.917960	-15.157109
1830.034394	-15.170247
1831.152191	-15.182761
1832.271354	-15.194700
1833.391887	-15.206137
1834.513790	-15.217353
1835.637068	-15.228495
1836.761722	-15.239173
1837.887755	-15.248999
1839.015169	-15.257803
1840.143968	-15.265546
1841.274153	-15.272084
1842.405727	-15.277399
1843.538693	-15.281810
1844.673053	-15.285467
1845.808810	-15.288238
1846.945966	-15.290052
1848.084525	-15.290878
1849.224488	-15.290743
1850.365858	-15.289507
1851.508638	-15.287285
1852.652831	-15.284541
1853.798438	-15.281480
1854.945463	-15.278166
1856.093909	-15.274461
1857.243777	-15.270379
1858.395071	-15.265829
1859.547794	-15.260675
1860.701947	-15.255077
1861.857533	-15.249152
1863.014556	-15.242807
1864.173018	-15.235720
1865.332922	-15.227781
1866.494270	-15.219252
1867.657065	-15.210348
1868.821309	-15.201177
1869.987006	-15.191778
1871.154158	-15.182091
1872.322768	-15.171851
1873.492839	-15.160763
1874.664373	-15.149011
1875.837373	-15.137005
1877.011841	-15.125085
1878.187782	-15.113240
1879.365197	-15.101135
1880.544089	-15.088499
1881.724460	-15.075096
1882.906315	-15.061027
1884.089655	-15.046537
1885.274483	-15.031838
1886.460803	-15.016916
1887.648616	-15.001343
1888.837927	-14.984814
1890.028736	-14.967288
1891.221049	-14.949114
1892.414866	-14.930608
1893.610192	-14.911949
1894.807028	-14.892992
1896.005379	-14.873504
1897.205246	-14.853258
1898.406633	-14.832172
1899.609542	-14.810493
1900.813977	-14.788363
1902.019940	-14.766090
1903.227434	-14.743512
1904.436462	-14.720393
1905.647028	-14.696596
1906.859133	-14.672205
1908.072781	-14.647545
1909.287976	-14.622668
1910.504719	-14.597579
1911.723013	-14.572255
1912.942863	-14.546765
1914.164270	-14.521503
1915.387238	-14.496692
1916.611770	-14.472322
1917.837868	-14.448030
1919.065536	-14.423504
1920.294777	-14.398728
1921.525594	-14.374066
1922.757989	-14.349735
1923.991967	-14.325983
1925.227529	-14.302743
1926.464679	-14.279788
1927.703420	-14.256694
1928.943755	-14.233155
1930.185688	-14.209347
1931.429221	-14.185778
1932.674356	-14.162945
1933.921099	-14.140781
1935.169451	-14.119081
1936.419415	-14.097236
1937.670996	-14.074970
1938.924195	-14.052409
1940.179017	-14.030063
1941.435463	-14.008288
1942.693538	-13.987192
1943.953245	-13.966352
1945.214586	-13.945513
1946.477566	-13.924474
1947.742186	-13.903210
1949.008451	-13.881686
1950.276363	-13.859944
1951.545926	-13.838113
1952.817143	-13.816503
1954.090017	-13.795278
1955.364551	-13.774307
1956.640749	-13.753197
1957.918615	-13.731304
1959.198150	-13.708412
1960.479359	-13.684946
1961.762244	-13.661734
1963.046810	-13.639132
1964.333059	-13.616902
1965.620995	-13.594341
1966.910621	-13.570912
1968.201940	-13.546629
1969.494956	-13.522119
1970.789672	-13.498274
1972.086091	-13.475667
1973.384217	-13.454200
1974.684053	-13.433320
1975.985602	-13.412468
1977.288869	-13.391470
1978.593855	-13.370620
1979.900566	-13.350349
1981.209003	-13.330903
1982.519171	-13.312174
1983.831073	-13.293844
1985.144712	-13.275512
1986.460093	-13.257007
1987.777217	-13.238445
1989.096089	-13.220203
1990.416713	-13.202812
1991.739092	-13.186670
1993.063228	-13.171663
1994.389127	-13.157296
1995.716791	-13.142981
1997.046223	-13.128483
1998.377428	-13.114131
1999.710409	-13.100514
2001.045169	-13.087917
2002.381713	-13.076173
2003.720043	-13.064825
2005.060163	-13.053395
2006.402077	-13.041666
2007.745788	-13.029726
2009.091301	-13.017780
2010.438618	-13.005925
2011.787743	-12.994270
2013.138680	-12.982730
2014.491433	-12.970996
2015.846005	-12.958703
2017.202399	-12.945783
2018.560621	-12.932491
2019.920673	-12.919289
2021.282558	-12.906407
2022.646281	-12.893809
2024.011846	-12.881210
2025.379256	-12.868415
2026.748515	-12.855488
2028.119626	-12.842603
2029.492594	-12.829840
2030.867422	-12.817362
2032.244114	-12.805458
2033.622673	-12.794336
2035.003104	-12.783865
2036.385411	-12.773670
2037.769597	-12.763500
2039.155665	-12.753555
2040.543621	-12.744367
2041.933467	-12.736382
2043.325208	-12.729473
2044.718847	-12.722841
2046.114389	-12.715724
2047.511837	-12.708248
2048.911195	-12.701321
2050.312467	-12.695814
2051.715657	-12.691736
2053.120769	-12.688430
2054.527807	-12.685540
2055.936775	-12.683222
2057.347677	-12.681649
2058.760516	-12.680732
2060.175297	-12.680505
2061.592025	-12.681166
2063.010701	-12.682661
2064.431332	-12.684421
2065.853921	-12.685674
2067.278472	-12.686289
2068.704988	-12.686997
2070.133475	-12.688602
2071.563936	-12.691116
2072.996375	-12.693662
2074.430796	-12.695252
2075.867204	-12.695719
2077.305603	-12.695968
2078.745996	-12.697023
2080.188389	-12.698965
2081.632784	-12.700972
2083.079187	-12.702235
2084.527601	-12.702671
2085.978030	-12.702813
2087.430480	-12.703369
2088.884954	-12.704655
2090.341455	-12.706362
2091.799990	-12.707779
2093.260561	-12.708413
2094.723173	-12.708567
2096.187831	-12.709393
2097.654538	-12.711964
2099.123300	-12.716114
2100.594119	-12.720466
2102.067001	-12.724216
2103.541950	-12.728206
2105.018971	-12.733850
2106.498067	-12.741396
2107.979243	-12.749898
2109.462503	-12.758728
2110.947853	-12.768267
2112.435295	-12.779102
2113.924836	-12.791266
2115.416478	-12.804406
2116.910227	-12.818342
2118.406087	-12.833206
2119.904063	-12.849149
2121.404158	-12.865973
2122.906378	-12.883395
2124.410727	-12.901492
2125.917210	-12.920451
2127.425831	-12.939939
2128.936594	-12.959380
2130.449505	-12.978699
2131.964567	-12.998284
2133.481786	-13.018203
2135.001166	-13.037704
2136.522711	-13.056092
2138.046427	-13.073625
2139.572317	-13.090796
2141.100388	-13.107036
2142.630642	-13.121246
2144.163085	-13.133506
2145.697722	-13.145187
2147.234558	-13.156922
2148.773596	-13.167601
2150.314842	-13.176672
2151.858301	-13.185927
2153.403977	-13.197159
2154.951875	-13.209723
2156.502000	-13.222325
2158.054357	-13.236122
2159.608950	-13.253536
2161.165785	-13.274916
2162.724866	-13.298874
2164.286198	-13.325195
2165.849786	-13.355022
2167.415635	-13.388506
2168.983749	-13.424237
2170.554134	-13.461211
2172.126795	-13.499801
2173.701737	-13.540516
2175.278964	-13.582701
2176.858481	-13.625232
2178.440294	-13.667535
2180.024408	-13.709302
2181.610827	-13.750386
2183.199557	-13.791180
2184.790602	-13.831962
2186.383968	-13.871901
2187.979660	-13.909973
2189.577683	-13.946557
2191.178041	-13.983035
2192.780741	-14.019680
2194.385787	-14.054880
2195.993185	-14.087559
2197.602939	-14.119001
2199.215054	-14.144633
