# 2022-03-22_00.47.44
# shape = sech2
# FWHM_ps = 0.1
# carrier_nm = 1542
# frep_MHz = 12126
# pow_mW = 8000
# GDD = 0.0
# propa_len = 0.14622222222222223
# untap_len = 0.01
# taper_len = 0.08622222222222223
# waist_len = 0.02
# uptap_len = 0.02
# untap_scale = 1.0
# waist_scale = 0.1
# workingDir = NL_20110305_12 (Spirou)
# axis = slow
# window_ps = 10.0
# steps = 200
# points = 21700
# 
# wavelength [nm]	 power spectral density [dB]
600.043425	-96.983699
600.163550	-99.419508
600.283723	-97.486716
600.403943	-93.937257
600.524212	-97.565208
600.644529	-98.174367
600.764895	-91.343517
600.885308	-93.715721
601.005770	-96.067294
601.126280	-94.941815
601.246839	-96.830921
601.367446	-93.617762
601.488101	-96.269908
601.608804	-95.900319
601.729557	-95.163841
601.850357	-101.055125
601.971206	-98.747437
602.092104	-104.075984
602.213050	-95.350778
602.334045	-98.491931
602.455089	-105.720077
602.576181	-97.641125
602.697322	-93.262923
602.818511	-94.166809
602.939749	-91.432324
603.061036	-91.512350
603.182372	-91.991777
603.303757	-88.633028
603.425191	-87.110320
603.546673	-86.666924
603.668204	-86.083631
603.789785	-86.384640
603.911414	-85.712388
604.033092	-87.655584
604.154820	-85.895767
604.276596	-86.496169
604.398422	-87.036629
604.520297	-89.042700
604.642220	-91.748709
604.764193	-89.292462
604.886216	-92.148373
605.008287	-93.616229
605.130408	-97.181481
605.252578	-103.924947
605.374798	-96.972687
605.497066	-96.847503
605.619385	-96.193707
605.741752	-92.856925
605.864169	-91.030592
605.986636	-90.049144
606.109152	-99.095456
606.231718	-113.686654
606.354333	-99.042429
606.476998	-93.332842
606.599712	-99.500295
606.722476	-103.371284
606.845290	-101.500346
606.968154	-93.261314
607.091067	-92.985482
607.214030	-85.934120
607.337043	-88.040072
607.460106	-91.624228
607.583219	-91.917352
607.706381	-97.389780
607.829594	-98.197398
607.952856	-95.313455
608.076169	-91.181063
608.199531	-88.984118
608.322944	-91.112600
608.446407	-91.447208
608.569920	-91.236252
608.693483	-89.784628
608.817096	-92.110790
608.940759	-92.458677
609.064473	-90.549556
609.188237	-91.432857
609.312051	-92.599511
609.435916	-95.071683
609.559831	-101.406712
609.683796	-96.318242
609.807812	-92.079312
609.931878	-92.201996
610.055995	-89.348388
610.180162	-93.496680
610.304380	-100.728104
610.428648	-100.387382
610.552967	-100.388797
610.677337	-105.952500
610.801757	-101.677236
610.926228	-90.661278
611.050750	-91.362663
611.175323	-91.838777
611.299946	-90.957942
611.424620	-92.186890
611.549345	-94.111632
611.674121	-90.528378
611.798948	-90.396660
611.923826	-92.401132
612.048755	-96.970638
612.173734	-91.696521
612.298765	-89.637506
612.423847	-88.236698
612.548980	-92.176015
612.674165	-91.962525
612.799400	-89.546667
612.924687	-86.071100
613.050025	-84.544178
613.175414	-83.120165
613.300854	-83.785244
613.426346	-83.488265
613.551889	-85.544131
613.677484	-85.982526
613.803130	-89.096496
613.928827	-87.259341
614.054576	-89.534018
614.180377	-89.414517
614.306229	-90.637313
614.432132	-91.480929
614.558087	-88.400953
614.684094	-88.771077
614.810153	-87.395158
614.936263	-90.022620
615.062425	-88.337078
615.188639	-88.936524
615.314904	-92.578611
615.441222	-91.143176
615.567591	-93.028530
615.694012	-90.987777
615.820486	-86.341519
615.947011	-87.534411
616.073588	-86.432333
616.200217	-87.143102
616.326898	-86.350618
616.453632	-86.553978
616.580417	-85.996815
616.707255	-84.128480
616.834144	-90.016733
616.961086	-90.135181
617.088081	-95.047127
617.215127	-90.212072
617.342226	-94.130867
617.469378	-92.734257
617.596581	-90.033186
617.723837	-91.389992
617.851146	-87.031168
617.978507	-86.530230
618.105920	-84.415761
618.233386	-89.248305
618.360905	-89.501717
618.488476	-94.625408
618.616100	-88.060053
618.743777	-87.622514
618.871506	-87.205262
618.999288	-87.046481
619.127123	-87.330936
619.255011	-85.718245
619.382951	-83.870860
619.510945	-80.721669
619.638991	-80.638394
619.767090	-79.403538
619.895243	-80.234149
620.023448	-81.332822
620.151706	-80.742598
620.280017	-83.900817
620.408382	-84.808301
620.536799	-85.519982
620.665270	-87.460544
620.793794	-86.940993
620.922371	-88.566300
621.051002	-87.142859
621.179686	-88.317328
621.308423	-96.643008
621.437213	-96.676039
621.566057	-99.180068
621.694954	-104.162585
621.823905	-108.712926
621.952909	-92.681515
622.081967	-95.297228
622.211079	-92.363294
622.340244	-89.136346
622.469462	-91.749148
622.598735	-88.657183
622.728061	-87.725225
622.857441	-91.555323
622.986874	-91.947556
623.116361	-88.600028
623.245903	-90.711039
623.375498	-93.097539
623.505147	-89.621569
623.634850	-92.072425
623.764606	-94.977041
623.894417	-91.190152
624.024282	-83.419876
624.154201	-82.965397
624.284174	-88.835181
624.414202	-89.673654
624.544283	-85.864727
624.674419	-86.223324
624.804609	-86.782954
624.934853	-90.146702
625.065151	-93.964125
625.195504	-88.835089
625.325911	-84.520372
625.456373	-82.317657
625.586889	-86.350053
625.717460	-88.785953
625.848085	-90.971968
625.978764	-89.310550
626.109498	-90.371374
626.240287	-92.127648
626.371131	-95.120959
626.502029	-92.333006
626.632982	-91.941570
626.763989	-86.658411
626.895052	-86.777423
627.026169	-88.936747
627.157341	-89.059353
627.288568	-99.041242
627.419850	-94.018589
627.551187	-96.723476
627.682579	-89.931959
627.814026	-86.223773
627.945528	-87.741451
628.077085	-95.002516
628.208697	-88.132591
628.340364	-87.505580
628.472087	-85.233830
628.603865	-83.990542
628.735698	-89.978397
628.867586	-89.519075
628.999530	-93.078281
629.131529	-100.873333
629.263584	-88.321706
629.395694	-90.487734
629.527859	-84.763074
629.660080	-83.318110
629.792357	-88.614048
629.924689	-88.864837
630.057077	-90.815603
630.189520	-93.232424
630.322019	-92.142250
630.454574	-87.580833
630.587184	-86.853175
630.719851	-83.316395
630.852573	-85.864083
630.985351	-92.036091
631.118185	-89.009477
631.251075	-88.673433
631.384021	-86.726873
631.517023	-89.527847
631.650081	-85.136966
631.783195	-89.265952
631.916365	-92.374252
632.049592	-86.851559
632.182874	-86.082464
632.316213	-89.160521
632.449608	-99.255338
632.583059	-91.698079
632.716567	-92.426405
632.850131	-97.949920
632.983751	-97.305501
633.117428	-85.468488
633.251161	-85.068260
633.384951	-82.288762
633.518797	-88.646509
633.652700	-84.328014
633.786660	-87.033773
633.920676	-88.104216
634.054749	-86.284287
634.188879	-84.638307
634.323065	-82.514916
634.457308	-85.359973
634.591608	-85.665644
634.725965	-88.235840
634.860379	-88.206970
634.994850	-93.922090
635.129377	-84.939450
635.263962	-88.808645
635.398604	-95.083001
635.533303	-83.407842
635.668058	-82.692911
635.802872	-82.332431
635.937742	-86.837133
636.072669	-94.000974
636.207654	-88.610307
636.342696	-85.722791
636.477796	-82.132525
636.612953	-87.259101
636.748167	-85.906772
636.883439	-88.816147
637.018768	-86.892529
637.154155	-90.322006
637.289599	-104.025266
637.425101	-87.673868
637.560660	-92.602732
637.696277	-93.643547
637.831952	-86.889002
637.967685	-81.477541
638.103475	-82.373570
638.239324	-82.043008
638.375230	-81.491391
638.511194	-87.453190
638.647215	-90.122997
638.783295	-92.248972
638.919433	-90.258662
639.055629	-87.720124
639.191883	-85.409143
639.328195	-102.364554
639.464565	-82.925159
639.600994	-89.597895
639.737481	-97.220374
639.874025	-84.204115
640.010629	-82.876195
640.147290	-101.825892
640.284010	-86.384957
640.420789	-81.840299
640.557625	-80.876419
640.694521	-83.119509
640.831474	-84.010859
640.968487	-94.433789
641.105558	-90.833934
641.242687	-84.185354
641.379876	-80.013477
641.517123	-80.990259
641.654429	-80.282376
641.791793	-84.234291
641.929216	-84.877322
642.066699	-85.220190
642.204240	-85.231815
642.341840	-84.095352
642.479499	-86.114032
642.617217	-88.197589
642.754994	-80.501963
642.892830	-81.848158
643.030726	-84.719251
643.168680	-83.359255
643.306694	-79.472035
643.444767	-86.074842
643.582899	-89.730821
643.721091	-89.770982
643.859342	-84.987760
643.997652	-85.807855
644.136022	-83.543095
644.274451	-87.382626
644.412940	-90.228520
644.551488	-86.958567
644.690096	-84.854014
644.828763	-83.167019
644.967490	-77.517775
645.106277	-79.829305
645.245124	-78.895031
645.384030	-88.940082
645.522997	-83.761915
645.662023	-92.260924
645.801109	-86.715671
645.940255	-82.102036
646.079460	-81.121331
646.218726	-90.389047
646.358052	-85.621482
646.497438	-91.864973
646.636884	-91.143157
646.776391	-83.326010
646.915957	-86.705085
647.055584	-81.767781
647.195271	-85.045958
647.335019	-82.797159
647.474826	-81.905561
647.614695	-77.934050
647.754623	-80.467115
647.894612	-80.779467
648.034662	-81.549233
648.174772	-80.602798
648.314943	-89.277551
648.455174	-80.834936
648.595466	-79.125058
648.735819	-83.185416
648.876233	-83.145051
649.016707	-92.251584
649.157242	-88.282715
649.297838	-78.876962
649.438495	-81.157159
649.579213	-77.847095
649.719992	-80.543946
649.860832	-86.445543
650.001733	-81.886246
650.142695	-82.681058
650.283718	-77.109141
650.424803	-73.751186
650.565949	-75.961710
650.707156	-73.937825
650.848424	-78.839710
650.989754	-79.550501
651.131145	-84.391139
651.272597	-85.831180
651.414111	-76.935015
651.555687	-74.884936
651.697324	-76.151682
651.839022	-75.807005
651.980782	-82.426619
652.122604	-83.084044
652.264488	-88.919427
652.406433	-80.934631
652.548441	-80.480831
652.690510	-79.124159
652.832640	-77.739964
652.974833	-75.096054
653.117088	-78.071550
653.259405	-78.047976
653.401784	-80.839626
653.544224	-85.481517
653.686727	-94.550923
653.829293	-92.049853
653.971920	-87.218636
654.114609	-88.079099
654.257361	-89.757897
654.400175	-82.116352
654.543052	-77.221492
654.685991	-81.975656
654.828992	-82.805419
654.972056	-82.444923
655.115183	-81.100974
655.258372	-87.165796
655.401623	-101.007841
655.544937	-79.584222
655.688314	-76.345485
655.831754	-78.767141
655.975256	-78.542558
656.118822	-81.761898
656.262450	-83.040953
656.406141	-81.544799
656.549894	-84.739813
656.693711	-79.538768
656.837591	-76.701499
656.981534	-78.336701
657.125540	-82.403238
657.269610	-82.823643
657.413742	-82.096725
657.557938	-82.795186
657.702196	-79.482537
657.846519	-78.631301
657.990904	-80.862632
658.135353	-88.699922
658.279866	-90.270872
658.424441	-80.488450
658.569081	-76.410006
658.713784	-77.053508
658.858550	-78.250560
659.003381	-76.554426
659.148274	-85.110616
659.293232	-97.308830
659.438253	-84.964921
659.583339	-82.118258
659.728488	-76.536565
659.873701	-76.261951
660.018978	-79.612485
660.164318	-77.183318
660.309723	-80.117114
660.455192	-79.657444
660.600725	-78.649433
660.746323	-79.297385
660.891984	-80.247091
661.037710	-80.553399
661.183500	-78.941353
661.329354	-80.846529
661.475272	-84.242021
661.621255	-91.592926
661.767303	-87.507274
661.913415	-81.185525
662.059591	-91.439524
662.205833	-88.297460
662.352138	-85.555505
662.498509	-83.862382
662.644944	-78.511783
662.791443	-77.286741
662.938008	-76.884430
663.084638	-73.997165
663.231332	-76.621633
663.378091	-83.264330
663.524915	-80.854322
663.671804	-78.441110
663.818759	-78.165929
663.965778	-82.234863
664.112863	-78.562446
664.260012	-84.278813
664.407227	-85.833600
664.554507	-91.906470
664.701853	-82.935199
664.849264	-77.461332
664.996740	-78.104250
665.144282	-81.080647
665.291889	-91.918299
665.439561	-84.835134
665.587300	-82.702103
665.735103	-85.232614
665.882973	-82.064353
666.030908	-83.105759
666.178909	-78.471527
666.326976	-87.921316
666.475109	-78.574240
666.623307	-78.531969
666.771571	-81.501531
666.919902	-78.507187
667.068298	-83.700573
667.216761	-86.971351
667.365289	-96.289519
667.513884	-87.469767
667.662545	-97.399512
667.811272	-79.575270
667.960065	-78.486349
668.108925	-77.424902
668.257851	-76.060587
668.406843	-84.651353
668.555902	-98.327793
668.705027	-93.792217
668.854219	-88.336887
669.003478	-86.217544
669.152803	-90.844905
669.302195	-88.192217
669.451653	-82.968772
669.601179	-79.698572
669.750771	-81.302237
669.900430	-80.066494
670.050156	-81.021134
670.199949	-96.719773
670.349808	-86.608269
670.499735	-82.649724
670.649729	-79.796168
670.799790	-77.476645
670.949918	-76.909575
671.100114	-79.850262
671.250377	-77.838127
671.400707	-75.958746
671.551104	-78.971666
671.701569	-80.782384
671.852101	-78.041077
672.002700	-84.978201
672.153368	-83.784440
672.304102	-84.803394
672.454905	-93.890803
672.605775	-83.579080
672.756713	-82.210504
672.907718	-84.977031
673.058791	-86.060026
673.209933	-92.774015
673.361142	-83.636755
673.512419	-89.265128
673.663764	-96.656786
673.815177	-86.277175
673.966658	-81.601076
674.118207	-78.719757
674.269825	-79.753857
674.421510	-80.522479
674.573264	-83.894713
674.725086	-82.287491
674.876977	-80.374568
675.028936	-80.735699
675.180963	-84.756656
675.333059	-81.580362
675.485224	-86.861409
675.637457	-82.055741
675.789758	-79.837525
675.942129	-81.308889
676.094568	-85.964702
676.247075	-77.321463
676.399652	-73.909043
676.552298	-76.881253
676.705012	-84.009744
676.857795	-81.798456
677.010648	-81.943894
677.163569	-85.597017
677.316560	-87.773042
677.469619	-97.649237
677.622748	-86.791909
677.775946	-82.369825
677.929214	-86.718886
678.082551	-88.817842
678.235957	-82.459561
678.389432	-78.253364
678.542977	-81.838143
678.696592	-82.944595
678.850276	-110.835254
679.004030	-82.512647
679.157853	-87.075437
679.311746	-90.457927
679.465709	-94.500134
679.619742	-79.886666
679.773844	-79.500478
679.928017	-82.004220
680.082259	-82.671476
680.236571	-83.390582
680.390954	-78.318049
680.545406	-77.806940
680.699929	-77.365980
680.854522	-82.205585
681.009185	-79.041508
681.163918	-78.369423
681.318722	-75.008745
681.473596	-74.173945
681.628540	-75.952567
681.783555	-82.641509
681.938641	-76.707181
682.093797	-75.425463
682.249023	-80.426463
682.404321	-79.220880
682.559689	-75.834969
682.715128	-73.987212
682.870637	-79.785468
683.026218	-83.769710
683.181869	-77.850110
683.337591	-75.203778
683.493385	-76.992347
683.649249	-75.125420
683.805185	-75.104498
683.961191	-78.306363
684.117269	-84.752275
684.273418	-87.623769
684.429639	-84.392573
684.585930	-83.401807
684.742294	-79.103136
684.898728	-80.121468
685.055234	-80.517346
685.211812	-78.224240
685.368461	-80.055787
685.525182	-77.403271
685.681975	-76.195098
685.838839	-76.894523
685.995775	-80.597990
686.152783	-78.841063
686.309863	-85.103967
686.467014	-87.653642
686.624238	-79.246064
686.781534	-81.928135
686.938902	-78.072910
687.096342	-75.311008
687.253854	-70.551519
687.411438	-71.910840
687.569095	-75.160207
687.726824	-80.484692
687.884626	-83.596787
688.042499	-86.091752
688.200446	-87.405608
688.358465	-79.408218
688.516556	-75.966173
688.674720	-75.089979
688.832957	-76.089884
688.991266	-84.456140
689.149649	-84.387212
689.308104	-79.533498
689.466632	-80.205521
689.625233	-75.871357
689.783906	-77.580138
689.942653	-74.874391
690.101473	-72.882347
690.260367	-72.356082
690.419333	-71.091594
690.578372	-76.128332
690.737485	-75.409775
690.896672	-88.545665
691.055931	-77.261395
691.215264	-77.475215
691.374671	-78.417300
691.534151	-84.223967
691.693704	-82.456665
691.853332	-73.534629
692.013033	-74.890915
692.172807	-74.427992
692.332656	-82.733744
692.492578	-78.652351
692.652575	-81.505235
692.812645	-78.034167
692.972789	-78.124512
693.133007	-81.300965
693.293300	-72.697318
693.453666	-74.353507
693.614107	-72.845875
693.774622	-73.087258
693.935211	-75.086382
694.095875	-77.358360
694.256613	-75.075361
694.417426	-74.401548
694.578313	-77.343218
694.739274	-96.740594
694.900311	-80.328791
695.061421	-75.813042
695.222607	-72.318144
695.383868	-76.930075
695.545203	-79.105321
695.706613	-76.264562
695.868098	-72.998712
696.029658	-73.954220
696.191293	-73.328664
696.353003	-75.352696
696.514789	-75.388653
696.676649	-81.161534
696.838585	-73.470891
697.000596	-79.552081
697.162682	-80.450505
697.324844	-79.832500
697.487081	-80.292290
697.649394	-75.486986
697.811782	-80.301308
697.974246	-74.300653
698.136786	-77.346968
698.299401	-71.810658
698.462092	-74.589963
698.624859	-73.608219
698.787702	-80.983870
698.950621	-76.439587
699.113616	-73.821314
699.276686	-76.279979
699.439833	-72.689079
699.603056	-82.879932
699.766355	-73.187502
699.929731	-72.207152
700.093183	-69.302351
700.256711	-70.074495
700.420315	-76.592746
700.583996	-74.129353
700.747754	-76.024303
700.911588	-75.622814
701.075499	-79.176439
701.239486	-84.006864
701.403550	-85.388144
701.567691	-77.288800
701.731909	-70.886307
701.896203	-77.709417
702.060575	-71.722013
702.225024	-72.071600
702.389549	-71.160512
702.554152	-70.598973
702.718832	-73.158123
702.883589	-78.918907
703.048424	-77.037524
703.213335	-76.741360
703.378324	-83.115446
703.543391	-79.917669
703.708535	-79.671800
703.873757	-72.841932
704.039056	-74.678158
704.204433	-72.883046
704.369887	-81.606964
704.535420	-76.735828
704.701030	-72.285860
704.866718	-83.535324
705.032484	-73.255796
705.198328	-77.460539
705.364250	-71.990841
705.530250	-75.202563
705.696328	-82.643261
705.862485	-74.137804
706.028720	-76.003432
706.195033	-70.325249
706.361424	-84.896431
706.527894	-72.321733
706.694442	-77.549295
706.861069	-71.750173
707.027775	-73.279645
707.194559	-92.312344
707.361422	-71.976119
707.528363	-80.827470
707.695384	-75.117487
707.862483	-79.474400
708.029661	-75.308924
708.196918	-74.754985
708.364254	-73.550125
708.531670	-70.635377
708.699164	-75.305282
708.866738	-71.886391
709.034391	-76.799615
709.202123	-76.023458
709.369935	-71.670026
709.537826	-75.956605
709.705796	-74.453565
709.873847	-74.135600
710.041976	-75.796226
710.210186	-72.012186
710.378475	-68.499932
710.546844	-72.262277
710.715292	-70.901708
710.883821	-80.582775
711.052429	-70.902007
711.221118	-71.662126
711.389887	-68.736558
711.558735	-65.410070
711.727664	-70.411050
711.896673	-78.844156
712.065763	-85.765022
712.234932	-79.818983
712.404183	-70.872472
712.573513	-79.693472
712.742924	-68.597535
712.912416	-71.977440
713.081988	-77.330530
713.251641	-70.855385
713.421375	-70.708320
713.591190	-73.471326
713.761085	-68.451226
713.931061	-68.283921
714.101119	-76.708785
714.271257	-70.960693
714.441476	-82.603963
714.611777	-74.167455
714.782159	-65.645231
714.952622	-67.910227
715.123166	-73.086500
715.293792	-75.770979
715.464499	-71.388623
715.635288	-71.915349
715.806158	-67.557004
715.977110	-68.757469
716.148143	-68.488964
716.319259	-72.827314
716.490456	-88.003361
716.661735	-67.350342
716.833096	-68.591671
717.004538	-70.176862
717.176063	-75.807432
717.347670	-70.437358
717.519359	-66.589470
717.691130	-66.523175
717.862984	-63.362197
718.034920	-66.740678
718.206938	-66.185333
718.379039	-80.480540
718.551222	-70.411282
718.723488	-67.536721
718.895836	-70.128931
719.068267	-68.797429
719.240781	-69.970363
719.413377	-65.206406
719.586057	-70.441442
719.758819	-69.390054
719.931664	-68.847235
720.104593	-67.471426
720.277604	-68.962736
720.450699	-69.099257
720.623876	-63.539504
720.797137	-68.020417
720.970482	-67.285079
721.143910	-71.385221
721.317421	-66.765700
721.491016	-65.868827
721.664694	-68.017200
721.838456	-69.424550
722.012302	-74.089915
722.186231	-71.386122
722.360244	-68.005133
722.534342	-64.875980
722.708523	-64.163965
722.882788	-65.836991
723.057137	-65.918905
723.231570	-75.022210
723.406088	-69.137737
723.580689	-65.348054
723.755375	-62.228553
723.930146	-62.903585
724.105000	-63.276965
724.279940	-65.538376
724.454963	-72.421548
724.630072	-66.209782
724.805265	-66.932522
724.980543	-64.545280
725.155905	-65.207109
725.331353	-63.078197
725.506885	-61.408973
725.682503	-64.256144
725.858205	-66.241177
726.033993	-74.289611
726.209865	-66.131281
726.385823	-65.396375
726.561866	-64.605488
726.737995	-62.483183
726.914209	-64.208474
727.090508	-61.764528
727.266893	-63.949984
727.443364	-62.704030
727.619920	-65.405731
727.796562	-62.887587
727.973290	-63.545984
728.150103	-65.114060
728.327003	-62.500233
728.503988	-64.949851
728.681060	-61.978072
728.858218	-63.051005
729.035461	-63.192976
729.212791	-65.378058
729.390208	-64.175097
729.567710	-60.038281
729.745299	-62.269594
729.922975	-62.236659
730.100737	-65.034790
730.278586	-62.647381
730.456521	-62.380207
730.634543	-63.361931
730.812652	-61.888586
730.990848	-62.559970
731.169130	-61.056071
731.347500	-64.147570
731.525957	-63.062119
731.704500	-63.958436
731.883131	-62.458140
732.061850	-60.769483
732.240655	-61.944549
732.419548	-59.716833
732.598528	-62.184434
732.777596	-61.447137
732.956751	-65.297249
733.135994	-62.354490
733.315325	-60.085895
733.494744	-62.091784
733.674250	-60.413081
733.853844	-62.790667
734.033526	-60.750160
734.213296	-64.605304
734.393154	-64.087277
734.573101	-61.860675
734.753135	-61.796774
734.933258	-60.984529
735.113469	-63.819579
735.293769	-59.521358
735.474157	-60.734379
735.654633	-59.831067
735.835198	-60.651294
736.015852	-62.938118
736.196594	-59.895572
736.377426	-62.257576
736.558346	-60.922479
736.739355	-62.680704
736.920453	-59.223668
737.101640	-60.688433
737.282916	-61.644483
737.464282	-59.531868
737.645736	-61.662174
737.827280	-59.747144
738.008914	-62.909601
738.190637	-61.823076
738.372449	-60.487795
738.554351	-60.058909
738.736342	-61.109752
738.918424	-62.314893
739.100595	-58.810068
739.282855	-61.569375
739.465206	-61.683649
739.647647	-62.137905
739.830178	-60.226338
740.012799	-59.707909
740.195510	-60.094432
740.378311	-58.845053
740.561203	-59.830420
740.744185	-58.358238
740.927258	-62.022972
741.110421	-61.622267
741.293674	-61.729238
741.477018	-61.753783
741.660453	-59.827628
741.843979	-61.378365
742.027596	-58.933588
742.211303	-59.211250
742.395102	-59.921579
742.578991	-60.504771
742.762972	-59.181695
742.947044	-59.370563
743.131207	-61.942713
743.315461	-59.612351
743.499807	-61.275230
743.684244	-59.576668
743.868773	-59.585529
744.053394	-59.699748
744.238106	-60.405047
744.422910	-61.007143
744.607805	-59.028830
744.792793	-62.528024
744.977872	-60.349357
745.163044	-60.323885
745.348307	-61.106047
745.533663	-58.672723
745.719111	-58.970936
745.904651	-61.175544
746.090283	-61.411010
746.276008	-56.297803
746.461826	-61.708706
746.647735	-61.349833
746.833738	-58.029433
747.019833	-64.567652
747.206021	-60.072012
747.392302	-58.635304
747.578676	-58.214116
747.765143	-61.406812
747.951703	-61.862011
748.138356	-60.165507
748.325102	-61.289745
748.511941	-59.542013
748.698874	-60.947786
748.885900	-60.886133
749.073019	-61.588007
749.260232	-58.863215
749.447539	-60.302370
749.634939	-59.530689
749.822433	-58.078944
750.010021	-60.875265
750.197703	-59.008526
750.385479	-64.386373
750.573348	-60.203329
750.761312	-61.117933
750.949370	-60.951171
751.137523	-59.865300
751.325769	-64.214832
751.514110	-60.284879
751.702545	-60.922564
751.891075	-58.691077
752.079700	-61.690987
752.268419	-63.068672
752.457233	-59.336945
752.646142	-66.314890
752.835145	-58.956928
753.024244	-61.304519
753.213437	-59.619413
753.402726	-61.347775
753.592110	-61.005609
753.781589	-58.205109
753.971163	-64.892979
754.160833	-59.500210
754.350598	-65.145923
754.540459	-62.847841
754.730415	-60.466458
754.920467	-62.447854
755.110615	-58.955846
755.300858	-62.483068
755.491198	-57.934796
755.681633	-62.725136
755.872164	-62.347641
756.062792	-61.540181
756.253515	-59.837375
756.444335	-62.628549
756.635252	-63.790578
756.826264	-62.739531
757.017373	-70.726261
757.208579	-61.911408
757.399881	-63.455128
757.591280	-58.974864
757.782776	-60.395652
757.974368	-61.614922
758.166058	-66.267132
758.357844	-64.615105
758.549728	-63.016052
758.741708	-60.363286
758.933786	-63.819323
759.125961	-62.545436
759.318233	-64.830253
759.510603	-60.771840
759.703071	-66.454396
759.895635	-62.775208
760.088298	-63.261609
760.281058	-62.130287
760.473916	-62.781711
760.666872	-66.523799
760.859926	-60.885472
761.053078	-61.851982
761.246328	-62.295403
761.439676	-61.298640
761.633122	-69.048855
761.826667	-62.484796
762.020310	-71.079082
762.214052	-63.281677
762.407892	-67.170637
762.601831	-59.281652
762.795868	-66.420639
762.990004	-66.235493
763.184239	-63.915021
763.378573	-61.484467
763.573006	-61.831257
763.767538	-63.413117
763.962169	-66.340331
764.156900	-65.667350
764.351729	-66.540605
764.546658	-64.320986
764.741687	-68.553653
764.936815	-63.192096
765.132042	-64.265336
765.327370	-62.672582
765.522797	-64.893521
765.718324	-63.747305
765.913950	-59.501259
766.109677	-61.495425
766.305504	-65.352695
766.501431	-69.342520
766.697458	-65.720858
766.893586	-65.766706
767.089814	-67.059807
767.286142	-61.228138
767.482571	-60.934680
767.679100	-60.755943
767.875730	-65.850767
768.072461	-66.461368
768.269293	-63.290610
768.466225	-62.953422
768.663259	-62.536674
768.860393	-64.779531
769.057629	-60.846617
769.254966	-64.149368
769.452404	-63.101377
769.649944	-61.476333
769.847585	-59.054668
770.045328	-61.727769
770.243172	-61.931609
770.441118	-63.744519
770.639166	-63.468332
770.837315	-62.161718
771.035567	-59.197034
771.233920	-60.395033
771.432376	-60.887589
771.630934	-62.100150
771.829594	-60.904392
772.028356	-60.461698
772.227220	-59.126766
772.426188	-59.858557
772.625257	-59.767892
772.824430	-60.801526
773.023705	-62.747235
773.223083	-59.094097
773.422563	-59.382528
773.622147	-57.434526
773.821834	-59.007794
774.021624	-59.472087
774.221517	-60.546970
774.421513	-58.280465
774.621613	-59.190650
774.821816	-58.855562
775.022122	-57.334072
775.222532	-57.445984
775.423046	-57.536105
775.623664	-59.000336
775.824385	-58.267934
776.025211	-58.119283
776.226140	-56.409930
776.427173	-55.495493
776.628311	-56.274200
776.829553	-58.653052
777.030899	-59.450578
777.232350	-59.913150
777.433905	-56.404718
777.635564	-54.692620
777.837328	-55.635343
778.039197	-57.754120
778.241171	-58.301665
778.443250	-56.460974
778.645433	-54.838542
778.847722	-54.246272
779.050116	-55.450309
779.252615	-57.465566
779.455219	-56.620986
779.657929	-54.741493
779.860744	-55.100798
780.063665	-54.792737
780.266691	-54.978719
780.469823	-54.991226
780.673061	-55.392866
780.876405	-54.658849
781.079855	-54.411755
781.283410	-56.327954
781.487072	-54.421943
781.690840	-53.752245
781.894715	-53.673363
782.098695	-54.118293
782.302783	-53.509347
782.506976	-54.575526
782.711277	-55.924628
782.915684	-52.934821
783.120198	-53.414485
783.324818	-53.593160
783.529546	-54.644113
783.734381	-52.227262
783.939322	-52.844560
784.144372	-53.669261
784.349528	-53.395399
784.554792	-53.222212
784.760163	-52.249027
784.965642	-52.579279
785.171228	-52.015605
785.376922	-54.924991
785.582724	-53.934071
785.788634	-51.407819
785.994651	-51.136410
786.200777	-52.008648
786.407011	-53.797829
786.613353	-52.383819
786.819804	-53.775595
787.026363	-51.958693
787.233030	-50.079738
787.439806	-50.983560
787.646691	-51.549539
787.853684	-52.468392
788.060786	-53.039461
788.267997	-52.976237
788.475317	-50.396049
788.682746	-49.603899
788.890285	-51.104202
789.097932	-51.826791
789.305689	-52.132175
789.513555	-51.131936
789.721531	-50.928301
789.929617	-50.344316
790.137812	-50.538698
790.346117	-50.598224
790.554531	-51.592801
790.763056	-51.746608
790.971691	-51.268047
791.180436	-50.976596
791.389291	-49.393931
791.598256	-50.983783
791.807332	-50.155897
792.016518	-49.595407
792.225815	-49.881882
792.435222	-50.456581
792.644740	-51.527095
792.854369	-50.648294
793.064109	-49.359475
793.273960	-48.878458
793.483922	-50.740549
793.693995	-49.648586
793.904180	-50.548572
794.114475	-49.719543
794.324882	-50.035564
794.535401	-49.049757
794.746031	-50.316196
794.956774	-48.786234
795.167627	-49.715974
795.378593	-49.569221
795.589671	-49.912313
795.800861	-49.227175
796.012162	-48.772764
796.223577	-49.092430
796.435103	-48.839545
796.646742	-49.650053
796.858493	-48.853040
797.070357	-49.792560
797.282334	-49.231414
797.494423	-48.370845
797.706626	-49.104882
797.918941	-48.997668
798.131369	-48.962384
798.343911	-48.506271
798.556566	-48.816498
798.769334	-49.382912
798.982215	-48.382934
799.195210	-47.823461
799.408319	-48.885327
799.621541	-48.447811
799.834877	-49.246627
800.048327	-47.534987
800.261890	-48.895751
800.475568	-48.785659
800.689360	-48.210642
800.903266	-47.530661
801.117287	-48.398503
801.331422	-49.013366
801.545671	-48.278467
801.760036	-48.051547
801.974514	-47.748164
802.189108	-49.414884
802.403816	-47.129884
802.618640	-47.369510
802.833578	-47.830021
803.048632	-48.059990
803.263800	-48.857448
803.479085	-47.527407
803.694484	-48.228060
803.909999	-47.328977
804.125630	-48.077573
804.341376	-47.657250
804.557239	-47.731264
804.773217	-48.119526
804.989311	-47.629393
805.205521	-48.761531
805.421847	-47.027725
805.638290	-47.349607
805.854849	-47.320063
806.071524	-46.667688
806.288316	-47.941656
806.505225	-47.570145
806.722250	-48.214249
806.939393	-47.395824
807.156652	-46.572728
807.374028	-48.963750
807.591521	-46.354390
807.809132	-47.518272
808.026859	-48.378612
808.244705	-46.479558
808.462667	-47.617657
808.680748	-46.311459
808.898946	-48.473121
809.117261	-47.372152
809.335695	-46.299030
809.554246	-46.809927
809.772916	-47.393628
809.991704	-46.671123
810.210610	-47.635737
810.429634	-47.897407
810.648777	-46.820446
810.868039	-47.030258
811.087419	-46.491982
811.306918	-47.890785
811.526535	-45.936035
811.746272	-47.075655
811.966127	-47.547338
812.186102	-46.791763
812.406196	-46.382025
812.626409	-46.674379
812.846742	-47.599590
813.067194	-46.418012
813.287766	-47.351295
813.508457	-46.977082
813.729269	-47.229965
813.950200	-45.626740
814.171251	-47.105570
814.392422	-47.047964
814.613714	-46.371780
814.835126	-46.977398
815.056658	-46.185182
815.278311	-47.050027
815.500084	-46.087368
815.721978	-47.310302
815.943993	-46.986398
816.166128	-46.586886
816.388385	-46.585864
816.610762	-46.861850
816.833261	-46.306573
817.055881	-46.125972
817.278623	-46.372128
817.501486	-46.376224
817.724471	-46.820452
817.947577	-46.148739
818.170805	-47.119779
818.394155	-46.335855
818.617627	-46.866591
818.841221	-46.506686
819.064937	-45.895299
819.288775	-45.955694
819.512736	-45.870121
819.736819	-47.038420
819.961025	-46.435939
820.185354	-46.767830
820.409805	-46.849005
820.634379	-46.159881
820.859076	-46.276142
821.083897	-46.267779
821.308840	-45.884840
821.533907	-46.486422
821.759097	-46.129704
821.984411	-46.070400
822.209848	-46.348918
822.435409	-47.024654
822.661093	-46.510454
822.886902	-45.732604
823.112834	-46.018797
823.338891	-45.554470
823.565072	-46.236297
823.791377	-46.193564
824.017807	-46.656572
824.244361	-46.050459
824.471039	-46.604038
824.697843	-46.004545
824.924771	-46.131726
825.151824	-46.224834
825.379002	-45.724389
825.606306	-46.550592
825.833734	-46.243129
826.061288	-45.868408
826.288967	-45.625808
826.516772	-46.324793
826.744703	-46.581962
826.972759	-46.250829
827.200941	-45.989728
827.429249	-45.750338
827.657683	-45.920125
827.886243	-45.908882
828.114930	-46.496030
828.343743	-46.207283
828.572682	-45.944707
828.801748	-46.350936
829.030941	-45.604747
829.260260	-46.104800
829.489706	-46.104987
829.719280	-46.208552
829.948980	-45.535261
830.178808	-46.420995
830.408763	-45.981825
830.638845	-45.892340
830.869055	-45.561906
831.099393	-46.431618
831.329858	-45.707033
831.560451	-45.987656
831.791173	-45.920061
832.022022	-45.763796
832.252999	-46.265296
832.484105	-46.058493
832.715339	-46.069943
832.946702	-45.155436
833.178193	-46.026180
833.409813	-45.360552
833.641561	-46.514674
833.873439	-45.593171
834.105445	-46.184669
834.337581	-45.284802
834.569846	-45.573489
834.802241	-45.906878
835.034764	-45.890266
835.267418	-45.831573
835.500201	-45.931446
835.733114	-45.705230
835.966157	-45.185107
836.199329	-45.714975
836.432632	-45.159219
836.666065	-46.376040
836.899629	-45.658197
837.133323	-45.577739
837.367147	-45.140613
837.601102	-45.410223
837.835188	-45.510077
838.069405	-45.492898
838.303752	-45.634222
838.538231	-45.376539
838.772841	-45.247917
839.007582	-44.901602
839.242455	-46.003983
839.477459	-45.221993
839.712595	-45.235670
839.947863	-45.108839
840.183263	-44.765236
840.418794	-45.098078
840.654458	-45.415027
840.890254	-45.288540
841.126182	-44.924083
841.362242	-44.559534
841.598435	-45.205699
841.834761	-44.913813
842.071220	-44.492973
842.307811	-45.797313
842.544536	-45.072118
842.781393	-43.899302
843.018384	-44.774706
843.255508	-44.995132
843.492765	-44.194759
843.730156	-45.211488
843.967681	-44.757902
844.205339	-44.387574
844.443132	-44.763374
844.681058	-43.826169
844.919118	-44.735546
845.157313	-44.619849
845.395642	-44.135762
845.634105	-44.236982
845.872703	-44.133827
846.111436	-43.446209
846.350303	-44.672528
846.589306	-44.207842
846.828443	-43.895919
847.067716	-43.785946
847.307124	-43.509115
847.546667	-43.527471
847.786345	-43.714101
848.026160	-43.295975
848.266110	-44.087565
848.506195	-44.098860
848.746417	-42.802469
848.986775	-43.402411
849.227269	-43.362733
849.467899	-43.172156
849.708666	-43.369070
849.949569	-43.757583
850.190609	-43.051497
850.431785	-42.324727
850.673099	-42.938239
850.914549	-43.533806
851.156137	-43.042795
851.397861	-42.558230
851.639723	-42.601554
851.881723	-42.450808
852.123860	-42.741727
852.366135	-43.059340
852.608547	-42.346119
852.851098	-42.210372
853.093786	-41.772022
853.336613	-42.736893
853.579578	-42.334186
853.822681	-41.960553
854.065923	-42.087208
854.309304	-41.990455
854.552823	-41.677371
854.796481	-42.058444
855.040278	-42.183236
855.284215	-41.647431
855.528290	-41.751456
855.772505	-41.027760
856.016859	-41.764196
856.261353	-41.222409
856.505987	-42.125841
856.750760	-40.818011
856.995673	-41.537254
857.240727	-40.555898
857.485920	-41.604520
857.731254	-40.765159
857.976729	-41.535092
858.222343	-41.064830
858.468099	-40.762252
858.713995	-40.647076
858.960032	-40.317606
859.206211	-40.898290
859.452530	-40.729180
859.698991	-41.080270
859.945593	-39.656764
860.192336	-40.336236
860.439222	-39.961919
860.686248	-40.829167
860.933417	-39.860895
861.180728	-40.685564
861.428181	-39.451401
861.675776	-40.218275
861.923514	-39.376108
862.171394	-40.255475
862.419417	-39.694783
862.667582	-40.011128
862.915890	-39.337903
863.164342	-39.381235
863.412936	-39.607860
863.661674	-39.567741
863.910555	-39.490418
864.159579	-38.972754
864.408747	-39.489220
864.658059	-38.706597
864.907515	-39.593545
865.157114	-38.843362
865.406858	-39.273783
865.656746	-38.531480
865.906778	-39.268736
866.156955	-38.256961
866.407277	-39.464506
866.657743	-38.542454
866.908354	-38.957428
867.159110	-38.101020
867.410011	-38.730504
867.661057	-38.280167
867.912249	-38.790816
868.163586	-38.345817
868.415069	-38.260815
868.666697	-38.133019
868.918472	-38.033031
869.170392	-38.202436
869.422458	-38.287437
869.674671	-38.202352
869.927030	-37.713984
870.179536	-37.962839
870.432188	-37.808213
870.684987	-37.746749
870.937933	-38.181817
871.191026	-37.565281
871.444266	-37.438856
871.697653	-37.767051
871.951188	-37.574342
872.204870	-37.565221
872.458700	-37.753347
872.712677	-37.002551
872.966803	-37.290539
873.221076	-37.484897
873.475498	-36.996603
873.730068	-37.650148
873.984787	-36.986965
874.239654	-36.758805
874.494669	-36.939673
874.749834	-37.125470
875.005147	-36.920010
875.260610	-37.284753
875.516222	-37.070101
875.771983	-36.342056
876.027894	-36.825861
876.283954	-36.647893
876.540164	-36.713160
876.796524	-36.948426
877.053033	-36.154720
877.309693	-36.532726
877.566503	-36.856975
877.823464	-36.507876
878.080575	-36.521113
878.337837	-36.503533
878.595249	-36.122628
878.852813	-36.196447
879.110528	-36.535999
879.368393	-36.426902
879.626410	-36.230924
879.884579	-36.176822
880.142899	-35.825351
880.401371	-36.233165
880.659994	-36.218681
880.918770	-35.980239
881.177698	-36.052497
881.436778	-35.772523
881.696010	-35.693751
881.955395	-36.143627
882.214933	-36.072486
882.474623	-35.770220
882.734467	-35.549823
882.994463	-35.886404
883.254613	-35.566579
883.514916	-35.853198
883.775372	-35.747747
884.035982	-35.390597
884.296746	-35.516892
884.557664	-35.464099
884.818735	-35.509722
885.079961	-35.619404
885.341341	-35.256801
885.602876	-35.244258
885.864565	-35.289899
886.126409	-35.184391
886.388407	-35.327841
886.650561	-35.424148
886.912870	-34.948305
887.175334	-35.051045
887.437953	-35.124474
887.700728	-35.153262
887.963658	-35.087971
888.226745	-35.022469
888.489987	-34.782788
888.753385	-34.890085
889.016940	-34.950623
889.280651	-34.870930
889.544518	-34.916317
889.808543	-34.559811
890.072723	-34.621942
890.337061	-34.786353
890.601556	-34.811590
890.866208	-34.518297
891.131017	-34.493220
891.395984	-34.449886
891.661109	-34.639345
891.926391	-34.481097
892.191831	-34.540666
892.457429	-34.313992
892.723186	-34.249476
892.989100	-34.421470
893.255173	-34.460388
893.521405	-34.251116
893.787796	-34.318907
894.054345	-33.971089
894.321053	-34.207818
894.587921	-34.289937
894.854948	-34.107955
895.122134	-34.063175
895.389480	-33.859636
895.656986	-33.872024
895.924651	-34.056965
896.192477	-33.906576
896.460463	-33.916677
896.728609	-33.591442
896.996915	-33.666065
897.265382	-33.873763
897.534010	-33.706695
897.802799	-33.641621
898.071749	-33.484546
898.340860	-33.583724
898.610132	-33.575275
898.879566	-33.615654
899.149162	-33.489703
899.418919	-33.387017
899.688838	-33.353855
899.958919	-33.422071
900.229162	-33.517353
900.499568	-33.391652
900.770136	-33.137834
901.040867	-33.208916
901.311761	-33.231947
901.582817	-33.359267
901.854037	-33.192934
902.125420	-33.087932
902.396966	-32.942977
902.668676	-33.153305
902.940550	-33.027907
903.212587	-33.232627
903.484788	-32.814300
903.757153	-32.877722
904.029683	-32.936615
904.302377	-32.943100
904.575236	-32.915298
904.848259	-32.757838
905.121447	-32.586918
905.394800	-32.788225
905.668319	-32.779855
905.942002	-32.738447
906.215852	-32.641937
906.489866	-32.330572
906.764047	-32.696207
907.038393	-32.577092
907.312906	-32.539521
907.587584	-32.494092
907.862429	-32.270703
908.137441	-32.364330
908.412619	-32.504800
908.687964	-32.250962
908.963476	-32.474468
909.239155	-31.963498
909.515002	-32.332246
909.791015	-32.342248
910.067197	-32.170633
910.343546	-32.209227
910.620063	-31.915468
910.896748	-32.011634
911.173601	-32.306655
911.450623	-31.737931
911.727813	-32.190925
912.005171	-31.688988
912.282699	-31.874528
912.560395	-31.915099
912.838261	-31.769559
913.116296	-31.854071
913.394500	-31.410780
913.672874	-31.750289
913.951418	-31.733934
914.230131	-31.480513
914.509015	-31.673267
914.788068	-31.283359
915.067292	-31.625436
915.346687	-31.442146
915.626252	-31.506356
915.905988	-31.367942
916.185895	-31.162186
916.465973	-31.540249
916.746223	-31.182883
917.026644	-31.581201
917.307236	-30.830613
917.588000	-31.352038
917.868937	-31.086990
918.150045	-31.319053
918.431325	-31.014718
918.712778	-30.935254
918.994404	-30.928206
919.276202	-30.995317
919.558173	-31.118295
919.840317	-30.707966
920.122634	-30.863469
920.405125	-30.579523
920.687789	-30.989450
920.970627	-30.693335
921.253639	-30.804280
921.536824	-30.383874
921.820184	-30.727710
922.103718	-30.576458
922.387427	-30.710941
922.671310	-30.445819
922.955368	-30.456750
923.239601	-30.375243
923.524009	-30.632629
923.808592	-30.378137
924.093351	-30.302828
924.378285	-30.301520
924.663396	-30.306552
924.948682	-30.355605
925.234144	-30.149349
925.519782	-30.129523
925.805597	-30.071180
926.091589	-30.205411
926.377757	-30.029463
926.664102	-30.020399
926.950624	-29.799567
927.237323	-29.997834
927.524200	-29.859654
927.811255	-30.021235
928.098487	-29.628705
928.385897	-29.744329
928.673485	-29.745901
928.961251	-29.793316
929.249196	-29.678127
929.537319	-29.569267
929.825621	-29.544644
930.114102	-29.732478
930.402762	-29.493417
930.691601	-29.539786
930.980620	-29.441451
931.269818	-29.405217
931.559196	-29.604536
931.848753	-29.299454
932.138491	-29.361206
932.428409	-29.166214
932.718508	-29.435244
933.008787	-29.288778
933.299246	-29.139657
933.589887	-29.128484
933.880709	-29.170416
934.171712	-29.114883
934.462896	-29.131201
934.754262	-29.005794
935.045810	-29.025963
935.337539	-29.010797
935.629451	-29.108289
935.921545	-28.887035
936.213822	-28.952217
936.506281	-28.934816
936.798922	-29.073300
937.091747	-28.890842
937.384755	-28.935686
937.677946	-28.819935
937.971321	-28.961221
938.264879	-28.953033
938.558621	-28.842751
938.852547	-28.803391
939.146657	-28.870380
939.440952	-28.876451
939.735431	-28.784780
940.030095	-28.726182
940.324943	-28.686633
940.619977	-28.821431
940.915196	-28.698177
941.210600	-28.675244
941.506189	-28.497110
941.801965	-28.672435
942.097926	-28.523387
942.394074	-28.639898
942.690407	-28.329803
942.986927	-28.552034
943.283634	-28.368385
943.580527	-28.558031
943.877608	-28.217089
944.174875	-28.391414
944.472330	-28.220520
944.769972	-28.457645
945.067802	-28.262954
945.365820	-28.158888
945.664026	-28.210561
945.962420	-28.265068
946.261002	-28.250648
946.559773	-28.031178
946.858733	-28.096407
947.157881	-28.143069
947.457219	-28.208241
947.756746	-27.926640
948.056462	-27.967175
948.356368	-28.010689
948.656464	-28.072202
948.956749	-27.862232
949.257225	-27.816779
949.557891	-27.945565
949.858748	-27.883664
950.159796	-27.859690
950.461034	-27.712498
950.762463	-27.847963
951.064084	-27.688543
951.365896	-27.796410
951.667900	-27.699678
951.970095	-27.659286
952.272483	-27.640570
952.575063	-27.716831
952.877835	-27.715979
953.180799	-27.452964
953.483956	-27.703735
953.787307	-27.563538
954.090850	-27.578047
954.394586	-27.517035
954.698516	-27.518266
955.002640	-27.506768
955.306957	-27.507525
955.611469	-27.555933
955.916174	-27.251320
956.221074	-27.559026
956.526169	-27.414294
956.831458	-27.391930
957.136942	-27.267081
957.442622	-27.413015
957.748496	-27.315869
958.054567	-27.319723
958.360833	-27.288062
958.667294	-27.161761
958.973952	-27.386347
959.280806	-27.191213
959.587857	-27.233045
959.895104	-27.134720
960.202548	-27.339516
960.510189	-27.148152
960.818027	-27.204893
961.126062	-27.143664
961.434295	-27.227940
961.742726	-27.284668
962.051355	-27.088608
962.360182	-27.195315
962.669207	-27.256753
962.978431	-27.229941
963.287854	-27.152102
963.597475	-27.182964
963.907296	-27.260631
964.217315	-27.216660
964.527535	-27.191062
964.837954	-27.114343
965.148573	-27.292238
965.459392	-27.194385
965.770411	-27.156273
966.081630	-27.097360
966.393051	-27.196356
966.704672	-27.224931
967.016494	-27.028185
967.328517	-27.119667
967.640742	-27.062209
967.953169	-27.177754
968.265797	-27.019072
968.578627	-26.921507
968.891660	-27.141908
969.204895	-27.016231
969.518332	-26.985584
969.831972	-26.844357
970.145816	-27.090411
970.459862	-26.947444
970.774112	-26.937817
971.088565	-26.800610
971.403223	-27.001537
971.718084	-27.019850
972.033149	-26.724530
972.348419	-26.894546
972.663893	-26.960707
972.979572	-26.887053
973.295456	-26.795852
973.611546	-26.850431
973.927840	-26.856706
974.244340	-26.917289
974.561046	-26.764964
974.877958	-26.772209
975.195076	-26.835559
975.512401	-26.868247
975.829932	-26.722457
976.147670	-26.700134
976.465615	-26.755120
976.783767	-26.875495
977.102126	-26.583841
977.420693	-26.625620
977.739468	-26.801552
978.058451	-26.610955
978.377642	-26.643412
978.697041	-26.508545
979.016649	-26.719738
979.336466	-26.538308
979.656492	-26.603810
979.976727	-26.368801
980.297171	-26.689226
980.617825	-26.538636
980.938689	-26.347533
981.259763	-26.533116
981.581048	-26.452143
981.902542	-26.579065
982.224248	-26.247145
982.546164	-26.475607
982.868291	-26.440847
983.190630	-26.475146
983.513180	-26.263675
983.835942	-26.354850
984.158916	-26.526351
984.482101	-26.294157
984.805500	-26.329285
985.129110	-26.310939
985.452934	-26.473069
985.776970	-26.324534
986.101220	-26.203361
986.425683	-26.432686
986.750359	-26.342124
987.075250	-26.353609
987.400354	-26.153026
987.725673	-26.413763
988.051206	-26.389970
988.376954	-26.194435
988.702916	-26.266476
989.029094	-26.282052
989.355487	-26.396345
989.682095	-26.144290
990.008919	-26.209500
990.335959	-26.330351
990.663216	-26.219422
990.990688	-26.184332
991.318377	-26.110090
991.646283	-26.332010
991.974406	-26.138513
992.302746	-26.073722
992.631304	-26.163779
992.960079	-26.179433
993.289072	-26.132153
993.618283	-25.954980
993.947713	-26.127591
994.277361	-26.135254
994.607227	-25.949355
994.937313	-25.976474
995.267618	-26.002717
995.598142	-26.075357
995.928886	-25.805405
996.259849	-25.912598
996.591033	-25.985294
996.922437	-25.855557
997.254061	-25.790729
997.585906	-25.771669
997.917972	-25.940435
998.250260	-25.705276
998.582768	-25.657516
998.915498	-25.800205
999.248450	-25.710164
999.581624	-25.637306
999.915020	-25.564502
1000.248639	-25.714317
1000.582480	-25.608662
1000.916545	-25.473775
1001.250832	-25.577593
1001.585343	-25.566710
1001.920077	-25.520232
1002.255035	-25.407404
1002.590218	-25.492426
1002.925624	-25.551568
1003.261255	-25.359957
1003.597111	-25.380598
1003.933192	-25.499660
1004.269497	-25.405585
1004.606029	-25.313350
1004.942785	-25.352058
1005.279768	-25.447533
1005.616977	-25.301468
1005.954412	-25.244532
1006.292074	-25.363392
1006.629962	-25.309404
1006.968077	-25.229855
1007.306420	-25.168332
1007.644990	-25.322089
1007.983787	-25.192322
1008.322813	-25.067928
1008.662067	-25.180832
1009.001549	-25.165452
1009.341259	-25.033164
1009.681199	-25.007241
1010.021367	-25.074302
1010.361765	-25.028440
1010.702392	-24.885559
1011.043250	-24.932661
1011.384337	-24.972504
1011.725654	-24.864991
1012.067202	-24.777757
1012.408980	-24.863213
1012.750989	-24.856941
1013.093230	-24.685509
1013.435702	-24.734466
1013.778405	-24.763691
1014.121341	-24.695832
1014.464508	-24.572713
1014.807908	-24.653200
1015.151540	-24.661359
1015.495405	-24.500833
1015.839503	-24.498956
1016.183835	-24.568235
1016.528400	-24.458851
1016.873198	-24.378465
1017.218231	-24.384582
1017.563498	-24.437271
1017.908999	-24.258349
1018.254735	-24.230457
1018.600707	-24.311310
1018.946913	-24.204078
1019.293354	-24.100668
1019.640032	-24.138691
1019.986945	-24.143144
1020.334094	-24.018814
1020.681480	-23.964204
1021.029102	-24.058174
1021.376961	-23.954428
1021.725058	-23.857941
1022.073391	-23.909685
1022.421962	-23.915113
1022.770772	-23.792331
1023.119819	-23.782181
1023.469104	-23.847184
1023.818628	-23.785139
1024.168391	-23.683643
1024.518393	-23.771834
1024.868634	-23.778158
1025.219115	-23.655637
1025.569836	-23.703527
1025.920796	-23.746194
1026.271997	-23.696524
1026.623438	-23.637482
1026.975121	-23.715454
1027.327044	-23.745138
1027.679208	-23.615032
1028.031614	-23.692784
1028.384262	-23.735405
1028.737152	-23.653202
1029.090284	-23.632762
1029.443659	-23.683480
1029.797276	-23.682811
1030.151137	-23.554323
1030.505240	-23.609437
1030.859587	-23.630282
1031.214178	-23.497464
1031.569013	-23.465697
1031.924093	-23.525034
1032.279417	-23.403385
1032.634985	-23.312872
1032.990799	-23.336898
1033.346858	-23.273803
1033.703162	-23.145470
1034.059712	-23.097164
1034.416509	-23.114969
1034.773551	-22.960101
1035.130841	-22.873960
1035.488377	-22.897959
1035.846160	-22.774995
1036.204190	-22.666448
1036.562468	-22.647541
1036.920994	-22.602041
1037.279768	-22.484357
1037.638790	-22.393611
1037.998061	-22.449118
1038.357581	-22.304599
1038.717350	-22.216902
1039.077368	-22.280766
1039.437636	-22.154435
1039.798154	-22.107328
1040.158922	-22.076684
1040.519940	-22.095631
1040.881209	-22.004681
1041.242729	-21.952449
1041.604501	-22.028775
1041.966524	-21.931100
1042.328798	-21.886085
1042.691325	-21.961574
1043.054103	-21.915438
1043.417135	-21.854399
1043.780419	-21.892035
1044.143956	-21.908541
1044.507746	-21.840335
1044.871791	-21.841438
1045.236088	-21.899114
1045.600641	-21.855706
1045.965447	-21.790778
1046.330508	-21.890419
1046.695824	-21.841081
1047.061395	-21.756456
1047.427222	-21.856566
1047.793304	-21.806667
1048.159642	-21.752118
1048.526237	-21.751764
1048.893088	-21.782610
1049.260196	-21.701522
1049.627561	-21.635057
1049.995183	-21.725636
1050.363063	-21.613780
1050.731201	-21.533897
1051.099597	-21.610004
1051.468251	-21.512968
1051.837164	-21.414691
1052.206336	-21.458125
1052.575767	-21.412957
1052.945458	-21.286819
1053.315409	-21.315465
1053.685619	-21.292769
1054.056090	-21.176598
1054.426821	-21.151009
1054.797814	-21.190891
1055.169067	-21.069939
1055.540582	-20.998438
1055.912359	-21.094073
1056.284398	-20.960429
1056.656698	-20.892354
1057.029262	-20.973793
1057.402088	-20.875160
1057.775177	-20.804006
1058.148530	-20.845080
1058.522146	-20.812409
1058.896027	-20.719231
1059.270171	-20.751816
1059.644580	-20.750420
1060.019254	-20.646699
1060.394193	-20.668289
1060.769397	-20.701338
1061.144867	-20.591173
1061.520602	-20.585081
1061.896604	-20.659095
1062.272872	-20.544636
1062.649407	-20.536371
1063.026210	-20.598733
1063.403279	-20.502170
1063.780616	-20.490350
1064.158221	-20.530211
1064.536094	-20.467191
1064.914235	-20.427586
1065.292645	-20.470308
1065.671325	-20.445684
1066.050273	-20.362396
1066.429491	-20.410190
1066.808979	-20.397490
1067.188738	-20.305718
1067.568766	-20.340192
1067.949066	-20.348886
1068.329636	-20.245261
1068.710478	-20.274079
1069.091592	-20.300095
1069.472977	-20.178413
1069.854635	-20.206397
1070.236565	-20.211451
1070.618768	-20.121848
1071.001243	-20.117554
1071.383993	-20.114841
1071.767016	-20.052726
1072.150313	-20.010984
1072.533884	-20.028394
1072.917730	-19.963758
1073.301850	-19.913222
1073.686246	-19.922484
1074.070917	-19.878831
1074.455864	-19.802582
1074.841087	-19.826907
1075.226586	-19.787556
1075.612362	-19.695875
1075.998415	-19.746815
1076.384745	-19.696829
1076.771353	-19.610128
1077.158238	-19.653700
1077.545401	-19.609271
1077.932843	-19.514625
1078.320564	-19.554967
1078.708564	-19.513801
1079.096842	-19.427942
1079.485401	-19.460673
1079.874240	-19.427085
1080.263358	-19.344554
1080.652757	-19.361179
1081.042438	-19.336852
1081.432399	-19.253784
1081.822641	-19.271272
1082.213166	-19.266901
1082.603972	-19.185742
1082.995061	-19.209512
1083.386433	-19.211868
1083.778087	-19.125820
1084.170025	-19.148251
1084.562246	-19.161429
1084.954751	-19.076316
1085.347541	-19.114003
1085.740615	-19.119950
1086.133973	-19.036285
1086.527617	-19.068889
1086.921546	-19.065362
1087.315761	-18.985626
1087.710262	-19.014423
1088.105050	-19.006337
1088.500124	-18.929555
1088.895485	-18.963332
1089.291134	-18.937013
1089.687070	-18.872302
1090.083294	-18.892411
1090.479806	-18.876610
1090.876607	-18.817588
1091.273696	-18.838525
1091.671075	-18.821979
1092.068744	-18.773509
1092.466702	-18.789185
1092.864950	-18.773917
1093.263489	-18.730268
1093.662319	-18.738171
1094.061440	-18.730295
1094.460852	-18.680062
1094.860555	-18.683046
1095.260551	-18.665351
1095.660840	-18.604578
1096.061421	-18.604772
1096.462295	-18.578754
1096.863462	-18.508340
1097.264923	-18.498291
1097.666678	-18.472737
1098.068727	-18.384173
1098.471071	-18.388035
1098.873710	-18.342167
1099.276644	-18.263964
1099.679874	-18.276893
1100.083400	-18.220532
1100.487222	-18.160620
1100.891340	-18.175820
1101.295756	-18.124957
1101.700468	-18.079581
1102.105478	-18.106196
1102.510787	-18.049179
1102.916393	-18.023931
1103.322298	-18.057696
1103.728502	-17.992466
1104.135005	-17.989075
1104.541807	-18.005952
1104.948909	-17.944267
1105.356312	-17.950346
1105.764015	-17.948078
1106.172019	-17.882206
1106.580324	-17.890971
1106.988931	-17.875705
1107.397840	-17.804214
1107.807051	-17.813968
1108.216564	-17.778230
1108.626380	-17.716968
1109.036500	-17.726472
1109.446923	-17.680807
1109.857649	-17.631775
1110.268680	-17.646722
1110.680016	-17.598863
1111.091657	-17.567665
1111.503602	-17.590415
1111.915854	-17.543866
1112.328411	-17.542848
1112.741275	-17.562337
1113.154445	-17.530054
1113.567922	-17.538299
1113.981706	-17.571190
1114.395798	-17.532006
1114.810198	-17.566445
1115.224906	-17.574326
1115.639923	-17.550267
1116.055249	-17.580770
1116.470884	-17.574638
1116.886829	-17.538888
1117.303084	-17.565912
1117.719650	-17.536342
1118.136526	-17.496614
1118.553713	-17.503884
1118.971212	-17.444722
1119.389022	-17.409092
1119.807145	-17.394802
1120.225580	-17.319194
1120.644328	-17.279156
1121.063389	-17.256750
1121.482763	-17.166885
1121.902452	-17.145425
1122.322454	-17.096139
1122.742771	-17.030656
1123.163404	-17.007457
1123.584351	-16.967301
1124.005614	-16.903105
1124.427193	-16.905358
1124.849089	-16.860914
1125.271301	-16.820664
1125.693830	-16.833372
1126.116677	-16.784430
1126.539842	-16.783758
1126.963324	-16.780598
1127.387126	-16.754472
1127.811246	-16.749598
1128.235685	-16.764083
1128.660444	-16.728750
1129.085522	-16.735983
1129.510922	-16.741052
1129.936641	-16.697062
1130.362682	-16.730591
1130.789044	-16.683687
1131.215728	-16.683459
1131.642734	-16.659070
1132.070063	-16.657760
1132.497714	-16.594353
1132.925689	-16.623539
1133.353987	-16.547447
1133.782610	-16.549523
1134.211556	-16.514028
1134.640827	-16.474948
1135.070424	-16.452994
1135.500345	-16.428587
1135.930593	-16.387553
1136.361166	-16.364557
1136.792067	-16.352931
1137.223294	-16.299534
1137.654848	-16.314361
1138.086730	-16.261838
1138.518940	-16.268671
1138.951479	-16.242093
1139.384346	-16.239978
1139.817543	-16.213332
1140.251069	-16.230158
1140.684925	-16.199732
1141.119111	-16.216359
1141.553628	-16.193276
1141.988475	-16.207473
1142.423655	-16.191012
1142.859166	-16.198287
1143.295009	-16.183355
1143.731185	-16.190663
1144.167694	-16.170036
1144.604536	-16.176191
1145.041711	-16.147402
1145.479221	-16.148040
1145.917065	-16.127742
1146.355245	-16.104809
1146.793759	-16.080237
1147.232609	-16.071127
1147.671795	-16.021525
1148.111317	-16.006220
1148.551177	-15.973977
1148.991373	-15.925866
1149.431907	-15.906622
1149.872779	-15.861865
1150.313989	-15.813608
1150.755538	-15.797931
1151.197426	-15.741066
1151.639653	-15.699488
1152.082220	-15.682562
1152.525128	-15.625750
1152.968376	-15.593545
1153.411966	-15.571820
1153.855897	-15.524615
1154.300169	-15.502994
1154.744784	-15.479085
1155.189742	-15.440551
1155.635042	-15.434584
1156.080687	-15.406891
1156.526674	-15.384518
1156.973007	-15.378519
1157.419683	-15.363524
1157.866705	-15.351404
1158.314072	-15.344029
1158.761786	-15.337877
1159.209845	-15.339754
1159.658251	-15.325551
1160.107004	-15.328929
1160.556104	-15.332779
1161.005553	-15.321398
1161.455349	-15.324941
1161.905494	-15.328951
1162.355989	-15.313344
1162.806832	-15.328071
1163.258026	-15.312244
1163.709570	-15.305282
1164.161464	-15.311976
1164.613710	-15.291310
1165.066307	-15.277326
1165.519256	-15.283402
1165.972558	-15.249399
1166.426212	-15.238319
1166.880219	-15.230507
1167.334580	-15.197224
1167.789295	-15.181569
1168.244364	-15.162113
1168.699788	-15.130097
1169.155567	-15.114461
1169.611702	-15.078680
1170.068193	-15.060561
1170.525041	-15.030586
1170.982245	-14.998658
1171.439807	-14.986211
1171.897726	-14.941852
1172.356004	-14.928078
1172.814640	-14.908750
1173.273635	-14.859978
1173.732989	-14.866721
1174.192703	-14.828880
1174.652778	-14.792208
1175.113213	-14.810318
1175.574009	-14.751202
1176.035167	-14.739132
1176.496687	-14.750687
1176.958569	-14.686611
1177.420814	-14.691125
1177.883422	-14.689283
1178.346394	-14.632865
1178.809730	-14.644666
1179.273430	-14.625951
1179.737496	-14.584056
1180.201927	-14.596357
1180.666723	-14.561553
1181.131886	-14.531931
1181.597416	-14.549587
1182.063312	-14.490298
1182.529576	-14.483361
1182.996209	-14.497204
1183.463209	-14.415576
1183.930579	-14.444887
1184.398317	-14.432930
1184.866426	-14.348630
1185.334904	-14.415715
1185.803754	-14.351820
1186.272974	-14.306523
1186.742566	-14.383472
1187.212529	-14.263276
1187.682865	-14.299736
1188.153574	-14.325503
1188.624656	-14.197944
1189.096112	-14.314589
1189.567942	-14.237187
1190.040147	-14.184800
1190.512726	-14.309000
1190.985681	-14.153105
1191.459012	-14.217856
1191.932720	-14.254035
1192.406804	-14.116806
1192.881265	-14.250614
1193.356104	-14.169597
1193.831322	-14.139375
1194.306918	-14.237318
1194.782893	-14.100925
1195.259248	-14.188971
1195.735982	-14.167389
1196.213097	-14.088519
1196.690593	-14.204098
1197.168471	-14.085205
1197.646730	-14.115665
1198.125371	-14.157648
1198.604395	-14.038512
1199.083803	-14.134434
1199.563594	-14.070902
1200.043769	-14.038082
1200.524329	-14.099087
1201.005273	-14.001209
1201.486604	-14.041622
1201.968320	-14.019791
1202.450422	-13.967173
1202.932912	-14.011795
1203.415789	-13.934783
1203.899054	-13.952881
1204.382707	-13.936077
1204.866748	-13.878701
1205.351179	-13.918461
1205.836000	-13.845947
1206.321211	-13.846769
1206.806812	-13.843549
1207.292805	-13.777915
1207.779189	-13.803689
1208.265965	-13.753562
1208.753134	-13.731348
1209.240696	-13.730652
1209.728651	-13.679570
1210.217000	-13.678646
1210.705744	-13.647559
1211.194883	-13.621092
1211.684417	-13.607063
1212.174347	-13.576420
1212.664673	-13.560055
1213.155396	-13.530016
1213.646516	-13.517906
1214.138034	-13.487895
1214.629951	-13.465012
1215.122266	-13.457309
1215.614980	-13.417189
1216.108095	-13.410697
1216.601609	-13.389911
1217.095524	-13.362339
1217.589841	-13.351819
1218.084559	-13.332686
1218.579679	-13.312202
1219.075202	-13.296017
1219.571128	-13.285842
1220.067458	-13.264858
1220.564191	-13.247549
1221.061330	-13.249772
1221.558874	-13.213873
1222.056823	-13.221565
1222.555178	-13.202897
1223.053940	-13.184914
1223.553109	-13.192447
1224.052686	-13.163671
1224.552671	-13.168023
1225.053065	-13.159417
1225.553867	-13.137878
1226.055079	-13.152330
1226.556702	-13.128111
1227.058735	-13.123827
1227.561179	-13.130833
1228.064035	-13.104295
1228.567303	-13.113330
1229.070983	-13.103446
1229.575077	-13.091976
1230.079585	-13.092611
1230.584506	-13.081379
1231.089842	-13.078602
1231.595594	-13.066217
1232.101761	-13.064102
1232.608345	-13.054599
1233.115345	-13.043266
1233.622762	-13.041711
1234.130597	-13.025052
1234.638851	-13.021092
1235.147523	-13.008997
1235.656615	-12.996136
1236.166126	-12.994633
1236.676058	-12.966483
1237.186411	-12.973319
1237.697185	-12.949890
1238.208381	-12.934376
1238.719999	-12.936972
1239.232040	-12.903351
1239.744505	-12.904871
1240.257394	-12.885862
1240.770708	-12.867114
1241.284446	-12.863411
1241.798610	-12.835088
1242.313201	-12.832369
1242.828218	-12.812311
1243.343662	-12.792203
1243.859534	-12.790625
1244.375834	-12.759562
1244.892563	-12.755689
1245.409721	-12.737576
1245.927309	-12.719493
1246.445327	-12.708424
1246.963777	-12.690809
1247.482657	-12.677960
1248.001970	-12.661208
1248.521716	-12.647367
1249.041894	-12.633132
1249.562506	-12.618596
1250.083553	-12.602213
1250.605034	-12.592511
1251.126950	-12.574003
1251.649302	-12.560896
1252.172091	-12.551723
1252.695316	-12.531652
1253.218979	-12.522732
1253.743079	-12.508724
1254.267619	-12.495005
1254.792597	-12.484359
1255.318015	-12.468615
1255.843874	-12.461488
1256.370173	-12.445240
1256.896913	-12.435289
1257.424095	-12.427597
1257.951720	-12.410262
1258.479787	-12.405782
1259.008298	-12.393658
1259.537254	-12.383053
1260.066654	-12.376904
1260.596499	-12.363265
1261.126790	-12.361664
1261.657527	-12.347296
1262.188711	-12.343387
1262.720342	-12.337753
1263.252422	-12.324772
1263.784950	-12.327748
1264.317928	-12.313770
1264.851355	-12.313764
1265.385232	-12.305865
1265.919560	-12.301145
1266.454340	-12.301538
1266.989572	-12.287433
1267.525256	-12.295869
1268.061394	-12.280961
1268.597985	-12.284983
1269.135031	-12.278486
1269.672531	-12.273394
1270.210487	-12.275751
1270.748899	-12.262629
1271.287768	-12.271796
1271.827094	-12.255739
1272.366877	-12.260231
1272.907119	-12.253679
1273.447820	-12.247609
1273.988981	-12.248748
1274.530601	-12.235332
1275.072683	-12.241796
1275.615226	-12.224126
1276.158230	-12.229730
1276.701697	-12.216887
1277.245627	-12.212741
1277.790021	-12.208282
1278.334879	-12.196478
1278.880202	-12.197934
1279.425991	-12.178816
1279.972245	-12.184208
1280.518966	-12.165157
1281.066155	-12.164210
1281.613811	-12.152584
1282.161936	-12.144478
1282.710529	-12.137993
1283.259593	-12.122979
1283.809126	-12.123671
1284.359131	-12.102585
1284.909607	-12.104750
1285.460555	-12.085881
1286.011976	-12.082738
1286.563870	-12.069406
1287.116237	-12.059276
1287.669080	-12.054917
1288.222397	-12.035100
1288.776191	-12.036581
1289.330460	-12.015420
1289.885207	-12.015198
1290.440431	-11.996469
1290.996133	-11.992524
1291.552314	-11.979649
1292.108975	-11.967052
1292.666115	-11.962268
1293.223737	-11.945649
1293.781839	-11.940094
1294.340424	-11.925601
1294.899491	-11.919294
1295.459041	-11.904645
1296.019075	-11.897696
1296.579593	-11.884235
1297.140597	-11.877985
1297.702086	-11.861847
1298.264061	-11.858561
1298.826524	-11.842786
1299.389474	-11.836456
1299.952912	-11.825659
1300.516839	-11.815146
1301.081255	-11.809892
1301.646162	-11.793049
1302.211559	-11.795756
1302.777448	-11.774422
1303.343829	-11.778382
1303.910702	-11.760226
1304.478069	-11.761389
1305.045930	-11.747392
1305.614285	-11.745100
1306.183136	-11.736528
1306.752483	-11.731112
1307.322326	-11.724383
1307.892666	-11.721468
1308.463504	-11.712645
1309.034841	-11.712487
1309.606677	-11.702477
1310.179012	-11.704578
1310.751849	-11.695244
1311.325186	-11.694827
1311.899025	-11.692864
1312.473366	-11.684288
1313.048211	-11.690449
1313.623559	-11.676716
1314.199412	-11.687790
1314.775770	-11.671066
1315.352634	-11.683184
1315.930004	-11.670735
1316.507881	-11.674923
1317.086266	-11.672372
1317.665159	-11.668606
1318.244562	-11.671978
1318.824474	-11.664437
1319.404897	-11.670314
1319.985831	-11.664292
1320.567276	-11.664153
1321.149234	-11.667309
1321.731706	-11.658195
1322.314691	-11.669298
1322.898190	-11.654418
1323.482205	-11.669900
1324.066736	-11.653887
1324.651783	-11.666918
1325.237347	-11.657456
1325.823430	-11.662008
1326.410031	-11.661493
1326.997151	-11.658508
1327.584791	-11.665271
1328.172952	-11.657456
1328.761634	-11.665848
1329.350839	-11.661367
1329.940566	-11.663474
1330.530817	-11.666074
1331.121592	-11.661479
1331.712891	-11.670964
1332.304716	-11.659178
1332.897068	-11.674015
1333.489946	-11.660916
1334.083352	-11.671802
1334.677287	-11.664809
1335.271750	-11.668749
1335.866744	-11.667271
1336.462268	-11.664150
1337.058323	-11.669771
1337.654910	-11.660143
1338.252029	-11.666698
1338.849682	-11.660201
1339.447869	-11.660778
1340.046591	-11.660185
1340.645848	-11.653776
1341.245641	-11.661156
1341.845972	-11.646064
1342.446840	-11.660019
1343.048246	-11.641305
1343.650191	-11.655180
1344.252677	-11.638797
1344.855702	-11.648169
1345.459269	-11.637527
1346.063379	-11.640416
1346.668030	-11.635715
1347.273226	-11.633678
1347.878965	-11.632559
1348.485250	-11.629248
1349.092080	-11.625937
1349.699456	-11.628393
1350.307380	-11.617921
1350.915851	-11.626761
1351.524871	-11.610671
1352.134441	-11.625866
1352.744560	-11.603007
1353.355231	-11.622041
1353.966453	-11.600907
1354.578227	-11.613911
1355.190555	-11.599501
1355.803436	-11.606505
1356.416872	-11.599523
1357.030863	-11.595773
1357.645411	-11.600773
1358.260515	-11.588636
1358.876177	-11.596789
1359.492397	-11.583678
1360.109176	-11.594532
1360.726516	-11.578687
1361.344416	-11.588542
1361.962877	-11.578556
1362.581901	-11.582636
1363.201487	-11.575176
1363.821637	-11.579072
1364.442352	-11.573969
1365.063632	-11.573894
1365.685478	-11.571349
1366.307891	-11.573530
1366.930871	-11.567301
1367.554420	-11.571819
1368.178538	-11.566166
1368.803226	-11.571070
1369.428485	-11.564446
1370.054315	-11.570195
1370.680717	-11.567102
1371.307693	-11.566839
1371.935242	-11.571159
1372.563366	-11.565389
1373.192065	-11.575830
1373.821341	-11.563656
1374.451193	-11.580586
1375.081623	-11.565887
1375.712632	-11.581867
1376.344221	-11.571050
1376.976389	-11.582762
1377.609139	-11.578182
1378.242470	-11.581651
1378.876384	-11.587683
1379.510881	-11.581705
1380.145963	-11.595994
1380.781629	-11.583981
1381.417881	-11.603989
1382.054720	-11.589248
1382.692147	-11.609252
1383.330161	-11.598971
1383.968765	-11.612520
1384.607959	-11.610968
1385.247743	-11.614789
1385.888119	-11.624729
1386.529087	-11.617638
1387.170648	-11.636758
1387.812804	-11.624124
1388.455554	-11.646100
1389.098899	-11.633584
1389.742842	-11.652259
1390.387381	-11.647045
1391.032519	-11.656017
1391.678256	-11.661666
1392.324592	-11.660488
1392.971529	-11.676455
1393.619068	-11.667203
1394.267208	-11.689455
1394.915952	-11.678789
1395.565300	-11.699747
1396.215253	-11.694560
1396.865812	-11.708500
1397.516977	-11.712953
1398.168749	-11.716669
1398.821130	-11.731574
1399.474120	-11.726951
1400.127719	-11.747362
1400.781930	-11.740535
1401.436752	-11.761047
1402.092186	-11.757401
1402.748234	-11.771952
1403.404897	-11.776719
1404.062174	-11.782655
1404.720067	-11.794796
1405.378577	-11.794626
1406.037705	-11.810994
1406.697451	-11.808770
1407.357817	-11.824496
1408.018803	-11.826372
1408.680410	-11.837590
1409.342639	-11.844879
1410.005492	-11.852574
1410.668968	-11.863703
1411.333068	-11.869473
1411.997795	-11.881239
1412.663147	-11.888748
1413.329127	-11.897974
1413.995736	-11.907712
1414.662973	-11.916427
1415.330840	-11.926945
1415.999339	-11.937275
1416.668469	-11.946094
1417.338232	-11.961271
1418.008628	-11.966409
1418.679659	-11.984758
1419.351325	-11.989212
1420.023628	-12.006149
1420.696568	-12.013599
1421.370145	-12.024959
1422.044362	-12.039891
1422.719219	-12.043935
1423.394717	-12.066043
1424.070856	-12.067359
1424.747638	-12.091929
1425.425064	-12.095805
1426.103134	-12.116639
1426.781850	-12.128274
1427.461212	-12.140088
1428.141221	-12.159758
1428.821878	-12.165012
1429.503185	-12.187600
1430.185141	-12.191596
1430.867749	-12.212868
1431.551008	-12.221861
1432.234920	-12.239738
1432.919486	-12.256034
1433.604707	-12.273175
1434.290583	-12.293189
1434.977116	-12.311217
1435.664307	-12.331227
1436.352156	-12.350525
1437.040664	-12.367792
1437.729833	-12.385934
1438.419663	-12.403330
1439.110156	-12.415513
1439.801312	-12.437695
1440.493132	-12.446143
1441.185617	-12.474042
1441.878768	-12.485104
1442.572586	-12.514899
1443.267072	-12.536302
1443.962228	-12.561309
1444.658053	-12.594507
1445.354549	-12.613721
1446.051717	-12.651133
1446.749558	-12.665859
1447.448073	-12.697097
1448.147263	-12.712516
1448.847128	-12.732158
1449.547671	-12.751291
1450.248891	-12.766304
1450.950789	-12.787409
1451.653368	-12.808217
1452.356627	-12.832560
1453.060568	-12.865748
1453.765192	-12.897112
1454.470500	-12.938704
1455.176492	-12.981865
1455.883170	-13.020193
1456.590534	-13.071862
1457.298586	-13.101795
1458.007327	-13.150453
1458.716758	-13.172980
1459.426880	-13.206179
1460.137693	-13.229431
1460.849199	-13.246197
1461.561398	-13.275265
1462.274293	-13.290575
1462.987883	-13.327759
1463.702170	-13.360432
1464.417155	-13.410161
1465.132838	-13.469990
1465.849222	-13.537678
1466.566306	-13.618401
1467.284093	-13.709003
1468.002582	-13.796970
1468.721775	-13.900092
1469.441674	-13.984910
1470.162278	-14.079572
1470.883590	-14.156492
1471.605609	-14.223590
1472.328338	-14.291352
1473.051777	-14.328924
1473.775928	-14.383797
1474.500790	-14.413408
1475.226367	-14.459209
1475.952657	-14.505032
1476.679663	-14.559833
1477.407386	-14.637595
1478.135826	-14.727571
1478.864985	-14.839312
1479.594863	-14.978098
1480.325463	-15.123034
1481.056784	-15.295252
1481.788828	-15.466626
1482.521597	-15.635204
1483.255090	-15.806607
1483.989309	-15.933321
1484.724256	-16.058666
1485.459931	-16.121670
1486.196336	-16.158186
1486.933471	-16.152962
1487.671337	-16.100884
1488.409937	-16.029201
1489.149270	-15.925159
1489.889337	-15.808130
1490.630141	-15.692201
1491.371682	-15.567495
1492.113961	-15.462920
1492.856979	-15.375160
1493.600738	-15.300762
1494.345238	-15.274835
1495.090481	-15.256681
1495.836467	-15.297678
1496.583198	-15.361336
1497.330675	-15.468239
1498.078899	-15.616883
1498.827872	-15.789709
1499.577593	-16.001167
1500.328065	-16.227716
1501.079289	-16.454950
1501.831265	-16.684467
1502.583995	-16.869406
1503.337480	-17.009398
1504.091721	-17.080451
1504.846719	-17.045814
1505.602475	-16.944056
1506.358991	-16.725899
1507.116268	-16.449277
1507.874306	-16.110735
1508.633108	-15.732741
1509.392673	-15.350101
1510.153004	-14.963727
1510.914101	-14.598070
1511.675965	-14.269485
1512.438599	-13.969564
1513.202002	-13.729934
1513.966176	-13.536887
1514.731122	-13.404822
1515.496842	-13.346295
1516.263336	-13.346401
1517.030607	-13.441633
1517.798654	-13.609870
1518.567479	-13.882942
1519.337083	-14.265338
1520.107468	-14.768348
1520.878634	-15.427828
1521.650584	-16.265786
1522.423317	-17.329326
1523.196836	-18.720798
1523.971141	-20.529984
1524.746233	-23.096090
1525.522115	-27.010484
1526.298786	-34.675863
1527.076249	-36.031122
1527.854504	-27.095757
1528.633553	-22.439453
1529.413397	-19.331352
1530.194037	-16.992739
1530.975474	-15.109825
1531.757709	-13.551585
1532.540745	-12.219858
1533.324581	-11.064138
1534.109220	-10.061167
1534.894662	-9.168996
1535.680909	-8.391090
1536.467961	-7.700784
1537.255821	-7.096884
1538.044489	-6.572549
1538.833967	-6.119293
1539.624256	-5.737167
1540.415357	-5.422627
1541.207271	-5.169248
1542.000000	-4.982468
1542.793545	-4.852512
1543.587907	-4.783029
1544.383087	-4.772077
1545.179088	-4.813710
1545.975909	-4.914132
1546.773552	-5.064257
1547.572019	-5.267862
1548.371311	-5.522475
1549.171428	-5.825171
1549.972373	-6.176742
1550.774147	-6.576932
1551.576751	-7.019176
1552.380185	-7.512527
1553.184453	-8.043966
1553.989554	-8.623103
1554.795490	-9.243160
1555.602263	-9.902449
1556.409873	-10.603624
1557.218322	-11.337795
1558.027612	-12.100920
1558.837743	-12.887428
1559.648717	-13.675098
1560.460536	-14.445068
1561.273200	-15.171453
1562.086710	-15.794291
1562.901069	-16.296691
1563.716278	-16.617708
1564.532337	-16.752503
1565.349249	-16.714698
1566.167014	-16.529740
1566.985634	-16.247184
1567.805111	-15.915813
1568.625444	-15.564078
1569.446637	-15.219072
1570.268690	-14.910149
1571.091605	-14.624663
1571.915382	-14.392955
1572.740024	-14.198585
1573.565532	-14.049674
1574.391907	-13.944063
1575.219150	-13.877020
1576.047262	-13.844861
1576.876246	-13.849337
1577.706103	-13.877559
1578.536833	-13.933048
1579.368439	-14.010981
1580.200922	-14.097353
1581.034282	-14.205645
1581.868522	-14.311915
1582.703643	-14.427642
1583.539646	-14.541124
1584.376532	-14.652395
1585.214304	-14.757112
1586.052962	-14.860956
1586.892508	-14.950165
1587.732943	-15.044324
1588.574269	-15.127537
1589.416487	-15.211348
1590.259599	-15.301922
1591.103605	-15.389246
1591.948508	-15.491400
1592.794309	-15.601878
1593.641009	-15.724698
1594.488609	-15.863066
1595.337112	-16.021468
1596.186518	-16.186667
1597.036829	-16.381662
1597.888047	-16.579891
1598.740172	-16.798634
1599.593207	-17.030113
1600.447153	-17.265879
1601.302010	-17.513018
1602.157782	-17.763115
1603.014469	-18.009738
1603.872072	-18.255093
1604.730593	-18.495989
1605.590034	-18.713239
1606.450397	-18.932203
1607.311681	-19.115696
1608.173890	-19.285229
1609.037024	-19.429601
1609.901085	-19.540788
1610.766075	-19.625264
1611.631995	-19.680778
1612.498846	-19.697064
1613.366630	-19.685675
1614.235349	-19.645427
1615.105004	-19.561910
1615.975596	-19.468505
1616.847128	-19.333495
1617.719600	-19.184738
1618.593014	-19.018313
1619.467372	-18.833859
1620.342675	-18.638951
1621.218924	-18.443200
1622.096122	-18.234458
1622.974270	-18.030644
1623.853369	-17.831724
1624.733420	-17.626229
1625.614427	-17.440968
1626.496389	-17.252620
1627.379308	-17.076828
1628.263187	-16.910461
1629.148026	-16.750765
1630.033828	-16.595941
1630.920593	-16.454372
1631.808324	-16.309266
1632.697022	-16.172489
1633.586688	-16.039806
1634.477324	-15.900334
1635.368932	-15.770179
1636.261514	-15.632575
1637.155070	-15.495992
1638.049602	-15.358607
1638.945113	-15.220767
1639.841603	-15.078212
1640.739075	-14.944303
1641.637529	-14.803728
1642.536968	-14.671266
1643.437393	-14.543458
1644.338806	-14.416110
1645.241209	-14.300393
1646.144602	-14.187444
1647.048988	-14.081612
1647.954368	-13.982762
1648.860744	-13.891172
1649.768118	-13.800595
1650.676491	-13.722529
1651.585865	-13.641472
1652.496241	-13.568232
1653.407621	-13.497860
1654.320008	-13.426804
1655.233401	-13.360116
1656.147804	-13.294028
1657.063218	-13.228137
1657.979645	-13.164487
1658.897085	-13.104689
1659.815542	-13.042210
1660.735016	-12.989630
1661.655509	-12.934263
1662.577023	-12.885807
1663.499560	-12.840616
1664.423121	-12.798126
1665.347709	-12.759093
1666.273324	-12.724620
1667.199969	-12.690689
1668.127645	-12.659712
1669.056353	-12.632858
1669.986097	-12.602701
1670.916877	-12.579467
1671.848695	-12.552997
1672.781553	-12.529647
1673.715452	-12.506773
1674.650395	-12.485651
1675.586383	-12.464016
1676.523418	-12.446710
1677.461501	-12.428584
1678.400635	-12.412242
1679.340821	-12.400075
1680.282061	-12.384724
1681.224357	-12.374968
1682.167710	-12.363275
1683.112122	-12.353600
1684.057595	-12.343682
1685.004132	-12.336171
1685.951732	-12.326084
1686.900400	-12.320013
1687.850135	-12.312620
1688.800940	-12.305491
1689.752818	-12.301859
1690.705768	-12.295229
1691.659795	-12.292503
1692.614898	-12.288892
1693.571081	-12.286802
1694.528345	-12.284245
1695.486691	-12.285099
1696.446122	-12.283022
1697.406640	-12.284842
1698.368245	-12.286138
1699.330941	-12.286464
1700.294729	-12.290129
1701.259611	-12.291172
1702.225588	-12.294304
1703.192664	-12.297087
1704.160838	-12.301124
1705.130114	-12.304019
1706.100493	-12.310790
1707.071977	-12.314590
1708.044568	-12.321306
1709.018268	-12.328266
1709.993079	-12.333699
1710.969003	-12.342169
1711.946041	-12.348904
1712.924196	-12.357092
1713.903469	-12.365358
1714.883862	-12.375287
1715.865378	-12.383311
1716.848017	-12.395052
1717.831783	-12.404321
1718.816677	-12.415231
1719.802701	-12.427101
1720.789857	-12.437399
1721.778147	-12.450212
1722.767573	-12.461937
1723.758136	-12.474287
1724.749840	-12.486046
1725.742685	-12.499145
1726.736673	-12.509580
1727.731808	-12.522861
1728.728090	-12.534222
1729.725521	-12.545861
1730.724105	-12.559057
1731.723842	-12.570205
1732.724735	-12.582691
1733.726785	-12.594333
1734.729995	-12.606140
1735.734366	-12.616643
1736.739902	-12.629415
1737.746603	-12.639500
1738.754472	-12.651975
1739.763510	-12.664138
1740.773721	-12.675568
1741.785105	-12.689012
1742.797665	-12.701088
1743.811403	-12.714213
1744.826321	-12.727445
1745.842422	-12.741709
1746.859706	-12.754473
1747.878177	-12.770201
1748.897835	-12.783618
1749.918685	-12.798004
1750.940726	-12.813750
1751.963963	-12.827756
1752.988395	-12.843531
1754.014027	-12.859172
1755.040860	-12.874999
1756.068895	-12.889854
1757.098135	-12.906705
1758.128583	-12.920774
1759.160240	-12.936128
1760.193109	-12.951142
1761.227191	-12.965156
1762.262488	-12.980263
1763.299004	-12.994509
1764.336740	-13.009980
1765.375697	-13.024138
1766.415880	-13.039727
1767.457288	-13.053937
1768.499926	-13.068680
1769.543794	-13.082500
1770.588895	-13.097286
1771.635231	-13.111205
1772.682805	-13.124572
1773.731619	-13.140471
1774.781674	-13.153007
1775.832973	-13.168098
1776.885519	-13.183029
1777.939312	-13.196597
1778.994357	-13.211176
1780.050654	-13.226737
1781.108207	-13.240064
1782.167017	-13.255151
1783.227087	-13.271651
1784.288418	-13.284652
1785.351013	-13.302335
1786.414875	-13.318220
1787.480006	-13.333949
1788.546407	-13.352037
1789.614082	-13.368733
1790.683032	-13.385264
1791.753259	-13.402918
1792.824767	-13.419947
1793.897557	-13.435734
1794.971632	-13.454167
1796.046994	-13.469837
1797.123645	-13.486951
1798.201588	-13.504102
1799.280824	-13.519882
1800.361357	-13.537159
1801.443188	-13.553071
1802.526320	-13.569248
1803.610756	-13.584500
1804.696497	-13.599626
1805.783546	-13.613203
1806.871906	-13.627130
1807.961578	-13.639941
1809.052565	-13.652376
1810.144870	-13.665721
1811.238494	-13.677181
1812.333441	-13.690237
1813.429713	-13.701769
1814.527311	-13.713208
1815.626239	-13.724634
1816.726499	-13.735571
1817.828094	-13.746720
1818.931025	-13.757809
1820.035295	-13.769127
1821.140906	-13.779305
1822.247862	-13.790801
1823.356165	-13.800782
1824.465816	-13.811258
1825.576819	-13.821514
1826.689175	-13.830432
1827.802888	-13.839941
1828.917960	-13.848196
1830.034394	-13.856671
1831.152191	-13.864695
1832.271354	-13.873177
1833.391887	-13.881107
1834.513790	-13.889461
1835.637068	-13.897380
1836.761722	-13.904189
1837.887755	-13.911774
1839.015169	-13.918277
1840.143968	-13.926136
1841.274153	-13.934122
1842.405727	-13.941718
1843.538693	-13.949405
1844.673053	-13.956214
1845.808810	-13.962989
1846.945966	-13.969528
1848.084525	-13.976257
1849.224488	-13.982195
1850.365858	-13.988249
1851.508638	-13.993290
1852.652831	-13.997977
1853.798438	-14.002874
1854.945463	-14.006717
1856.093909	-14.011310
1857.243777	-14.014890
1858.395071	-14.017999
1859.547794	-14.020367
1860.701947	-14.021433
1861.857533	-14.022223
1863.014556	-14.022553
1864.173018	-14.022685
1865.332922	-14.021954
1866.494270	-14.020546
1867.657065	-14.017452
1868.821309	-14.013705
1869.987006	-14.009136
1871.154158	-14.004224
1872.322768	-14.000151
1873.492839	-13.995308
1874.664373	-13.990990
1875.837373	-13.985747
1877.011841	-13.979376
1878.187782	-13.972651
1879.365197	-13.964955
1880.544089	-13.957626
1881.724460	-13.950411
1882.906315	-13.943151
1884.089655	-13.935462
1885.274483	-13.927331
1886.460803	-13.918234
1887.648616	-13.909091
1888.837927	-13.900368
1890.028736	-13.891361
1891.221049	-13.883478
1892.414866	-13.874833
1893.610192	-13.866214
1894.807028	-13.858112
1896.005379	-13.849380
1897.205246	-13.841727
1898.406633	-13.833652
1899.609542	-13.825460
1900.813977	-13.817285
1902.019940	-13.808575
1903.227434	-13.800221
1904.436462	-13.792281
1905.647028	-13.784370
1906.859133	-13.776292
1908.072781	-13.768102
1909.287976	-13.758838
1910.504719	-13.749337
1911.723013	-13.739335
1912.942863	-13.728976
1914.164270	-13.719579
1915.387238	-13.709554
1916.611770	-13.699564
1917.837868	-13.688905
1919.065536	-13.676655
1920.294777	-13.664487
1921.525594	-13.651632
1922.757989	-13.639089
1923.991967	-13.626925
1925.227529	-13.613829
1926.464679	-13.600652
1927.703420	-13.586968
1928.943755	-13.573113
1930.185688	-13.559601
1931.429221	-13.546020
1932.674356	-13.532373
1933.921099	-13.518750
1935.169451	-13.504555
1936.419415	-13.489884
1937.670996	-13.475104
1938.924195	-13.459596
1940.179017	-13.444367
1941.435463	-13.428850
1942.693538	-13.412910
1943.953245	-13.397824
1945.214586	-13.383060
1946.477566	-13.369418
1947.742186	-13.356086
1949.008451	-13.342109
1950.276363	-13.328486
1951.545926	-13.314883
1952.817143	-13.302122
1954.090017	-13.290283
1955.364551	-13.278684
1956.640749	-13.267781
1957.918615	-13.256990
1959.198150	-13.246312
1960.479359	-13.235939
1961.762244	-13.225704
1963.046810	-13.215805
1964.333059	-13.206026
1965.620995	-13.196053
1966.910621	-13.185755
1968.201940	-13.175117
1969.494956	-13.164283
1970.789672	-13.153682
1972.086091	-13.143044
1973.384217	-13.131942
1974.684053	-13.120381
1975.985602	-13.108271
1977.288869	-13.096281
1978.593855	-13.084441
1979.900566	-13.072389
1981.209003	-13.060161
1982.519171	-13.047385
1983.831073	-13.034379
1985.144712	-13.021095
1986.460093	-13.007508
1987.777217	-12.993855
1989.096089	-12.979737
1990.416713	-12.965436
1991.739092	-12.950943
1993.063228	-12.936330
1994.389127	-12.921845
1995.716791	-12.907063
1997.046223	-12.892116
1998.377428	-12.877206
1999.710409	-12.862554
2001.045169	-12.848845
2002.381713	-12.836060
2003.720043	-12.824270
2005.060163	-12.812980
2006.402077	-12.801911
2007.745788	-12.791910
2009.091301	-12.783204
2010.438618	-12.775636
2011.787743	-12.768486
2013.138680	-12.761398
2014.491433	-12.755171
2015.846005	-12.750013
2017.202399	-12.746115
2018.560621	-12.743146
2019.920673	-12.740293
2021.282558	-12.737744
2022.646281	-12.735398
2024.011846	-12.733690
2025.379256	-12.732761
2026.748515	-12.731715
2028.119626	-12.730278
2029.492594	-12.728341
2030.867422	-12.726536
2032.244114	-12.725213
2033.622673	-12.723502
2035.003104	-12.720951
2036.385411	-12.717400
2037.769597	-12.713475
2039.155665	-12.709669
2040.543621	-12.705532
2041.933467	-12.700930
2043.325208	-12.695840
2044.718847	-12.690887
2046.114389	-12.686438
2047.511837	-12.681751
2048.911195	-12.676517
2050.312467	-12.670707
2051.715657	-12.665376
2053.120769	-12.661261
2054.527807	-12.657379
2055.936775	-12.652994
2057.347677	-12.648268
2058.760516	-12.644361
2060.175297	-12.642007
2061.592025	-12.640359
2063.010701	-12.638912
2064.431332	-12.637410
2065.853921	-12.636400
2067.278472	-12.636676
2068.704988	-12.638023
2070.133475	-12.640229
2071.563936	-12.643126
2072.996375	-12.647103
2074.430796	-12.652332
2075.867204	-12.658423
2077.305603	-12.665148
2078.745996	-12.672184
2080.188389	-12.680276
2081.632784	-12.689672
2083.079187	-12.699769
2084.527601	-12.709864
2085.978030	-12.719518
2087.430480	-12.729897
2088.884954	-12.741323
2090.341455	-12.752635
2091.799990	-12.762808
2093.260561	-12.772272
2094.723173	-12.782111
2096.187831	-12.791922
2097.654538	-12.801251
2099.123300	-12.809840
2100.594119	-12.818246
2102.067001	-12.826870
2103.541950	-12.835599
2105.018971	-12.844012
2106.498067	-12.851327
2107.979243	-12.858103
2109.462503	-12.865208
2110.947853	-12.873334
2112.435295	-12.882180
2113.924836	-12.891896
2115.416478	-12.902758
2116.910227	-12.914130
2118.406087	-12.924502
2119.904063	-12.933229
2121.404158	-12.941309
2122.906378	-12.950478
2124.410727	-12.962083
2125.917210	-12.975696
2127.425831	-12.991180
2128.936594	-13.008626
2130.449505	-13.028056
2131.964567	-13.047360
2133.481786	-13.065217
2135.001166	-13.081452
2136.522711	-13.097168
2138.046427	-13.112144
2139.572317	-13.126199
2141.100388	-13.140427
2142.630642	-13.157317
2144.163085	-13.178462
2145.697722	-13.204169
2147.234558	-13.235064
2148.773596	-13.271637
2150.314842	-13.312742
2151.858301	-13.355518
2153.403977	-13.397355
2154.951875	-13.436378
2156.502000	-13.470669
2158.054357	-13.497630
2159.608950	-13.515082
2161.165785	-13.522508
2162.724866	-13.523092
2164.286198	-13.519346
2165.849786	-13.513052
2167.415635	-13.506566
2168.983749	-13.503753
2170.554134	-13.506917
2172.126795	-13.517078
2173.701737	-13.534688
2175.278964	-13.560611
2176.858481	-13.594935
2178.440294	-13.636207
2180.024408	-13.683117
2181.610827	-13.734428
2183.199557	-13.789243
2184.790602	-13.845307
2186.383968	-13.901687
2187.979660	-13.958558
2189.577683	-14.016595
2191.178041	-14.073050
2192.780741	-14.127156
2194.385787	-14.179653
2195.993185	-14.232342
2197.602939	-14.283513
2199.215054	-14.333136
2200.829537	-14.380856
2202.446392	-14.426783
2204.065624	-14.468228
2205.687239	-14.503927
2207.311242	-14.534564
2208.937638	-14.560904
2210.566433	-14.582752
2212.197631	-14.599369
2213.831239	-14.613138
2215.467261	-14.624493
2217.105703	-14.636094
2218.746570	-14.650054
2220.389867	-14.670782
2222.035601	-14.699576
2223.683776	-14.737733
2225.334398	-14.786519
2226.987472	-14.845866
2228.643004	-14.913228
2230.300999	-14.983099
2231.961463	-15.052414
2233.624402	-15.116673
2235.289820	-15.173945
2236.957723	-15.221825
2238.628118	-15.260678
2240.301009	-15.294509
2241.976402	-15.325214
2243.654303	-15.356026
2245.334717	-15.389906
2247.017650	-15.428478
2248.703108	-15.473320
2250.391096	-15.523608
2252.081620	-15.580875
2253.774686	-15.641631
2255.470300	-15.707072
2257.168467	-15.776061
2258.869193	-15.847748
2260.572484	-15.920214
2262.278345	-15.991365
2263.986783	-16.062319
2265.697804	-16.132536
2267.411412	-16.201997
2269.127615	-16.274521
2270.846417	-16.346942
2272.567826	-16.418564
2274.291846	-16.488727
2276.018484	-16.558629
2277.747745	-16.625545
2279.479637	-16.687922
2281.214164	-16.749936
2282.951333	-16.813630
2284.691149	-16.873498
2286.433619	-16.932260
2288.178750	-16.990478
2289.926546	-17.047196
2291.677014	-17.101917
2293.430161	-17.157984
2295.185992	-17.216062
2296.944513	-17.273271
2298.705732	-17.331204
2300.469653	-17.395186
2302.236283	-17.460289
2304.005629	-17.526282
2305.777696	-17.598535
2307.552492	-17.674576
2309.330022	-17.749866
2311.110292	-17.827144
2312.893310	-17.909274
2314.679080	-17.992171
2316.467611	-18.072755
2318.258907	-18.156126
2320.052976	-18.242009
2321.849824	-18.325562
2323.649457	-18.412445
2325.451883	-18.503605
2327.257106	-18.593877
2329.065135	-18.687219
2330.875975	-18.786377
2332.689633	-18.886725
2334.506116	-18.987354
2336.325430	-19.090346
2338.147581	-19.193048
2339.972578	-19.289891
2341.800425	-19.384677
2343.631130	-19.479992
2345.464700	-19.568901
2347.301141	-19.654242
2349.140461	-19.739872
2350.982665	-19.821092
2352.827760	-19.899623
2354.675754	-19.978389
2356.526653	-20.053224
2358.380464	-20.124467
2360.237195	-20.198161
2362.096851	-20.272836
2363.959440	-20.345990
2365.824968	-20.421924
2367.693444	-20.503124
2369.564873	-20.587369
2371.439263	-20.675493
2373.316620	-20.768860
2375.196953	-20.864132
2377.080267	-20.963845
2378.966570	-21.069433
2380.855869	-21.174537
2382.748171	-21.280300
2384.643484	-21.389244
2386.541815	-21.499103
2388.443170	-21.611720
2390.347557	-21.726765
2392.254984	-21.844947
2394.165457	-21.966813
2396.078984	-22.093391
2397.995572	-22.223116
2399.915229	-22.353654
2401.837961	-22.486694
2403.763777	-22.617782
2405.692684	-22.745125
2407.624689	-22.871593
2409.559800	-22.991381
2411.498023	-23.102755
2413.439368	-23.206447
2415.383840	-23.304380
2417.331449	-23.400818
2419.282201	-23.492310
2421.236104	-23.577033
2423.193165	-23.659643
2425.153393	-23.745208
2427.116795	-23.828938
2429.083378	-23.910519
2431.053151	-23.995458
2433.026121	-24.085490
2435.002297	-24.179617
2436.981685	-24.279302
2438.964293	-24.383440
2440.950131	-24.494130
2442.939204	-24.609903
2444.931522	-24.726761
2446.927092	-24.848568
2448.925923	-24.977055
2450.928022	-25.105167
2452.933397	-25.235604
2454.942056	-25.379952
2456.954008	-25.523537
2458.969260	-25.667288
2460.987821	-25.817248
2463.009699	-25.970441
2465.034902	-26.132590
2467.063437	-26.298107
2469.095315	-26.463391
2471.130542	-26.634800
2473.169127	-26.802032
2475.211078	-26.963223
2477.256404	-27.120174
2479.305112	-27.259314
2481.357212	-27.387552
2483.412713	-27.512264
2485.471621	-27.616312
2487.533946	-27.704893
2489.599696	-27.788986
2491.668880	-27.870020
2493.741507	-27.953160
2495.817585	-28.024177
2497.897122	-28.096803
2499.980127	-28.188536
2502.066609	-28.279192
2504.156578	-28.374866
2506.250040	-28.480743
2508.347006	-28.583210
2510.447483	-28.702082
2512.551482	-28.823666
2514.659010	-28.942843
2516.770076	-29.077925
2518.884690	-29.212430
2521.002861	-29.363111
2523.124597	-29.520914
2525.249907	-29.672565
2527.378801	-29.845570
2529.511287	-30.022903
2531.647375	-30.200336
2533.787074	-30.389152
2535.930393	-30.579511
2538.077340	-30.791815
2540.227927	-31.027369
2542.382160	-31.263819
2544.540051	-31.492263
2546.701608	-31.705045
2548.866840	-31.929067
2551.035757	-32.127882
2553.208369	-32.274894
2555.384684	-32.410791
2557.564713	-32.527238
2559.748465	-32.632709
2561.935948	-32.703790
2564.127174	-32.758375
2566.322152	-32.830771
2568.520890	-32.914557
2570.723399	-32.972599
2572.929689	-33.020171
2575.139769	-33.123159
2577.353649	-33.218390
2579.571340	-33.253293
2581.792849	-33.348258
2584.018189	-33.462141
2586.247368	-33.560384
2588.480396	-33.642578
2590.717284	-33.740363
2592.958041	-33.892545
2595.202678	-34.026403
2597.451204	-34.139317
2599.703630	-34.290117
2601.959966	-34.485230
2604.220222	-34.666841
2606.484408	-34.841193
2608.752535	-35.117496
2611.024612	-35.343251
2613.300651	-35.628305
2615.580661	-35.977968
2617.864653	-36.272293
2620.152638	-36.615325
2622.444625	-36.950117
2624.740626	-37.290746
2627.040651	-37.566215
2629.344710	-37.757411
2631.652814	-38.011354
2633.964974	-38.212702
2636.281200	-38.290330
2638.601504	-38.355962
2640.925896	-38.560953
2643.254386	-38.621908
2645.586987	-38.702154
2647.923707	-38.815361
2650.264559	-38.863664
2652.609554	-38.899742
2654.958702	-38.899832
2657.312015	-38.911433
2659.669503	-38.916711
2662.031178	-38.986967
2664.397051	-39.024440
2666.767132	-39.011337
2669.141434	-39.091053
2671.519968	-39.134362
2673.902745	-39.120768
2676.289776	-39.127466
2678.681072	-39.219004
2681.076646	-39.282949
2683.476508	-39.396877
2685.880671	-39.581809
2688.289145	-39.798003
2690.701942	-40.091424
2693.119075	-40.428051
2695.540554	-40.826628
2697.966391	-41.249538
2700.396599	-41.686004
2702.831189	-42.131336
2705.270172	-42.557422
2707.713561	-42.923879
2710.161368	-43.307338
2712.613605	-43.580764
2715.070283	-43.949551
2717.531416	-44.310891
2719.997014	-44.613012
2722.467090	-44.980315
2724.941657	-45.281539
2727.420726	-45.466357
2729.904310	-45.857182
2732.392421	-45.833647
2734.885072	-45.980652
2737.382275	-46.151887
2739.884042	-46.115710
2742.390387	-46.222884
2744.901321	-46.157067
2747.416857	-46.031338
2749.937008	-46.050295
2752.461787	-45.709485
2754.991206	-45.611435
2757.525279	-45.406752
2760.064017	-45.155070
2762.607434	-45.055008
2765.155544	-44.991928
2767.708358	-44.967678
2770.265890	-45.101127
2772.828153	-45.193257
2775.395160	-45.480107
2777.966924	-45.854759
2780.543459	-46.138282
2783.124778	-46.557933
2785.710894	-46.824025
2788.301821	-47.034755
2790.897572	-47.325137
2793.498160	-47.521585
2796.103599	-47.846987
2798.713903	-48.190521
2801.329085	-48.513574
2803.949159	-49.017963
2806.574139	-49.387009
2809.204038	-49.777505
2811.838871	-50.328743
2814.478650	-50.779804
2817.123391	-51.406717
2819.773107	-52.005712
2822.427812	-52.883598
2825.087521	-53.737984
2827.752247	-54.504192
2830.422005	-55.317249
2833.096808	-55.976898
2835.776672	-55.833960
2838.461611	-55.397558
2841.151638	-54.929652
2843.846769	-54.429903
2846.547019	-53.676997
2849.252401	-53.176761
2851.962930	-52.858881
2854.678621	-52.665785
2857.399489	-52.588295
2860.125549	-52.618206
2862.856815	-53.051995
2865.593302	-53.109908
2868.335026	-53.314826
2871.082002	-53.322358
2873.834244	-53.342730
2876.591767	-53.379315
2879.354588	-53.448530
2882.122721	-53.541563
2884.896181	-53.637168
2887.674984	-53.790166
2890.459146	-53.851177
2893.248681	-53.772932
2896.043606	-53.728675
2898.843937	-53.759022
2901.649687	-53.874254
2904.460875	-54.088869
2907.277515	-54.358703
2910.099623	-54.783331
2912.927215	-55.394839
2915.760308	-56.285210
2918.598916	-57.340252
2921.443057	-58.353507
2924.292747	-59.966172
2927.148002	-61.440012
2930.008837	-62.992344
2932.875270	-64.229578
2935.747318	-64.493947
2938.624995	-64.209846
2941.508320	-63.001293
2944.397308	-62.816162
2947.291977	-62.425034
2950.192343	-62.780826
2953.098423	-62.946971
2956.010234	-62.922653
2958.927792	-62.925612
2961.851116	-62.933374
2964.780221	-62.755663
2967.715126	-62.652348
2970.655847	-63.327733
2973.602402	-64.081095
2976.554808	-64.114500
2979.513083	-64.766812
2982.477243	-64.347606
2985.447308	-63.879533
2988.423293	-63.162946
2991.405218	-61.849926
2994.393099	-61.507576
2997.386955	-60.483515
