# 2022-03-21_16.56.41
# shape = sech2
# FWHM_ps = 0.1
# carrier_nm = 1542
# frep_MHz = 12126
# pow_mW = 8000
# GDD = 0.0
# propa_len = 0.12111111111111113
# untap_len = 0.01
# taper_len = 0.061111111111111116
# waist_len = 0.02
# uptap_len = 0.02
# untap_scale = 1.0
# waist_scale = 0.18333333333333335
# workingDir = NL_20110305_12 (Spirou)
# axis = slow
# window_ps = 10.0
# steps = 200
# points = 21700
# 
# wavelength [nm]	 power spectral density [dB]
600.043425	-79.374669
600.163550	-81.047700
600.283723	-80.281690
600.403943	-78.471343
600.524212	-77.514237
600.644529	-77.955999
600.764895	-80.309108
600.885308	-85.347959
601.005770	-87.924471
601.126280	-83.078876
601.246839	-80.681911
601.367446	-79.960078
601.488101	-79.585686
601.608804	-78.409942
601.729557	-76.555386
601.850357	-74.965292
601.971206	-74.167751
602.092104	-74.339141
602.213050	-75.545592
602.334045	-77.878974
602.455089	-81.015911
602.576181	-83.126777
602.697322	-83.381955
602.818511	-84.546758
602.939749	-88.902188
603.061036	-87.283324
603.182372	-80.319408
603.303757	-76.421610
603.425191	-74.526013
603.546673	-74.062655
603.668204	-74.544740
603.789785	-75.418411
603.911414	-75.745657
604.033092	-75.291472
604.154820	-74.950659
604.276596	-75.379593
604.398422	-77.141045
604.520297	-81.004254
604.642220	-88.421819
604.764193	-85.720977
604.886216	-81.017728
605.008287	-79.480863
605.130408	-79.224232
605.252578	-78.623908
605.374798	-76.735019
605.497066	-74.932181
605.619385	-74.115936
605.741752	-74.587414
605.864169	-76.681675
605.986636	-80.832948
606.109152	-85.322288
606.231718	-82.157394
606.354333	-79.429744
606.476998	-78.848038
606.599712	-80.006560
606.722476	-83.064549
606.845290	-84.868342
606.968154	-81.476654
607.091067	-78.867911
607.214030	-78.085891
607.337043	-78.845327
607.460106	-79.890511
607.583219	-78.620803
607.706381	-76.358716
607.829594	-75.236403
607.952856	-75.748641
608.076169	-78.148003
608.199531	-82.747009
608.322944	-85.747695
608.446407	-82.799756
608.569920	-81.360410
608.693483	-82.176635
608.817096	-83.835336
608.940759	-82.100233
609.064473	-78.769756
609.188237	-76.526042
609.312051	-75.530409
609.435916	-75.670238
609.559831	-76.797254
609.683796	-78.616482
609.807812	-80.176076
609.931878	-80.316625
610.055995	-80.190669
610.180162	-81.378186
610.304380	-84.757447
610.428648	-87.352723
610.552967	-82.189028
610.677337	-78.813459
610.801757	-77.836215
610.926228	-78.219059
611.050750	-78.344186
611.175323	-77.273733
611.299946	-76.070870
611.424620	-75.747606
611.549345	-76.577710
611.674121	-78.766558
611.798948	-82.755809
611.923826	-86.846619
612.048755	-82.802057
612.173734	-79.157107
612.298765	-77.555515
612.423847	-77.322315
612.548980	-77.749152
612.674165	-78.000418
612.799400	-77.592712
612.924687	-77.195660
613.050025	-77.351018
613.175414	-77.993498
613.300854	-78.576254
613.426346	-78.060374
613.551889	-76.645903
613.677484	-75.772077
613.803130	-76.056903
613.928827	-77.583708
614.054576	-79.459769
614.180377	-79.262262
614.306229	-77.492223
614.432132	-76.730217
614.558087	-77.568316
614.684094	-79.363053
614.810153	-79.570720
614.936263	-77.595171
615.062425	-75.769217
615.188639	-75.000693
615.314904	-75.617488
615.441222	-77.408333
615.567591	-78.355476
615.694012	-76.821538
615.820486	-75.236690
615.947011	-74.985930
616.073588	-76.217901
616.200217	-77.987484
616.326898	-77.886306
616.453632	-76.722632
616.580417	-76.616525
616.707255	-78.317974
616.834144	-82.196770
616.961086	-82.028531
617.088081	-77.358251
617.215127	-75.060775
617.342226	-75.008688
617.469378	-76.926610
617.596581	-79.292712
617.723837	-77.446437
617.851146	-74.703982
617.978507	-73.552310
618.105920	-74.009697
618.233386	-76.099258
618.360905	-79.271695
618.488476	-80.371796
618.616100	-79.858876
618.743777	-81.615113
618.871506	-85.360801
618.999288	-79.601446
619.127123	-74.378459
619.255011	-71.735748
619.382951	-70.970172
619.510945	-71.798990
619.638991	-73.904364
619.767090	-76.032365
619.895243	-76.248766
620.023448	-76.072630
620.151706	-78.194746
620.280017	-87.406239
620.408382	-83.717419
620.536799	-75.370017
620.665270	-72.076155
620.793794	-70.915597
620.922371	-71.151252
621.051002	-71.733221
621.179686	-71.380826
621.308423	-70.677420
621.437213	-70.786461
621.566057	-72.324606
621.694954	-76.253899
621.823905	-87.241950
621.952909	-84.244544
622.081967	-78.091331
622.211079	-76.632213
622.340244	-75.425131
622.469462	-72.858635
622.598735	-70.083163
622.728061	-68.101049
622.857441	-67.343062
622.986874	-67.977080
623.116361	-69.998940
623.245903	-73.200606
623.375498	-77.210569
623.505147	-82.266201
623.634850	-95.289319
623.764606	-83.765527
623.894417	-75.296480
624.024282	-71.147245
624.154201	-69.275907
624.284174	-69.108795
624.414202	-70.227336
624.544283	-71.658123
624.674419	-71.861362
624.804609	-71.202995
624.934853	-71.324632
625.065151	-73.287536
625.195504	-78.789887
625.325911	-101.672276
625.456373	-79.643829
625.586889	-75.989529
625.717460	-75.443955
625.848085	-75.134360
625.978764	-72.802837
626.109498	-70.336066
626.240287	-69.247874
626.371131	-69.808020
626.502029	-71.939969
626.632982	-74.747092
626.763989	-75.609225
626.895052	-75.349304
627.026169	-77.308632
627.157341	-84.449451
627.288568	-79.228167
627.419850	-72.735585
627.551187	-70.095816
627.682579	-69.784118
627.814026	-71.321021
627.945528	-73.520644
628.077085	-73.208825
628.208697	-71.635874
628.340364	-71.497835
628.472087	-73.419541
628.603865	-76.837132
628.735698	-76.120733
628.867586	-73.232345
628.999530	-72.577593
629.131529	-74.393996
629.263584	-76.347195
629.395694	-73.362256
629.527859	-70.601183
629.660080	-69.986148
629.792357	-71.606486
629.924689	-75.710572
630.057077	-77.602014
630.189520	-73.766922
630.322019	-71.903054
630.454574	-72.189942
630.587184	-73.606921
630.719851	-73.822279
630.852573	-72.499800
630.985351	-71.971130
631.118185	-73.350733
631.251075	-76.952616
631.384021	-78.363237
631.517023	-74.843501
631.650081	-73.142578
631.783195	-73.431339
631.916365	-73.954142
632.049592	-72.517142
632.182874	-70.670172
632.316213	-70.051794
632.449608	-70.921990
632.583059	-73.352338
632.716567	-76.930124
632.850131	-78.121256
632.983751	-76.691026
633.117428	-75.891803
633.251161	-74.750401
633.384951	-72.251145
633.518797	-70.001305
633.652700	-68.930967
633.786660	-68.998650
633.920676	-69.770526
634.054749	-70.606072
634.188879	-71.231471
634.323065	-72.317479
634.457308	-75.405251
634.591608	-84.726871
634.725965	-78.204408
634.860379	-71.605807
634.994850	-68.952198
635.129377	-68.354683
635.263962	-68.991703
635.398604	-69.911009
635.533303	-70.254203
635.668058	-70.398310
635.802872	-71.345814
635.937742	-73.642567
636.072669	-76.197016
636.207654	-75.328426
636.342696	-73.792824
636.477796	-74.021547
636.612953	-75.013844
636.748167	-73.367068
636.883439	-70.556648
637.018768	-69.023696
637.154155	-68.994389
637.289599	-70.306974
637.425101	-72.251374
637.560660	-73.673449
637.696277	-74.962630
637.831952	-77.237001
637.967685	-77.298166
638.103475	-73.489793
638.239324	-70.905662
638.375230	-69.889607
638.511194	-69.846458
638.647215	-70.031742
638.783295	-70.063162
638.919433	-70.601862
639.055629	-72.809618
639.191883	-78.722595
639.328195	-79.880248
639.464565	-72.581668
639.600994	-69.582368
639.737481	-68.897977
639.874025	-69.603322
640.010629	-70.690604
640.147290	-70.964508
640.284010	-70.784438
640.420789	-71.434964
640.557625	-73.414339
640.694521	-75.422415
640.831474	-74.113974
640.968487	-71.737102
641.105558	-70.531841
641.242687	-70.455636
641.379876	-70.750069
641.517123	-70.689375
641.654429	-70.602230
641.791793	-71.421852
641.929216	-73.515540
642.066699	-75.552995
642.204240	-74.591024
642.341840	-72.178212
642.479499	-70.177339
642.617217	-68.891388
642.754994	-68.559516
642.892830	-69.444096
643.030726	-72.059892
643.168680	-77.238016
643.306694	-76.514509
643.444767	-71.487943
643.582899	-69.632028
643.721091	-70.721763
643.859342	-75.083781
643.997652	-75.885389
644.136022	-70.579969
644.274451	-68.275314
644.412940	-68.434251
644.551488	-70.931342
644.690096	-75.730385
644.828763	-75.059480
644.967490	-71.138442
645.106277	-69.540229
645.245124	-69.789654
645.384030	-71.546481
645.522997	-75.036241
645.662023	-77.379535
645.801109	-72.814723
645.940255	-69.197213
646.079460	-67.832826
646.218726	-68.772148
646.358052	-72.876569
646.497438	-77.327515
646.636884	-70.386522
646.776391	-66.980834
646.915957	-66.513059
647.055584	-68.596381
647.195271	-74.040891
647.335019	-81.098534
647.474826	-75.029880
647.614695	-72.130461
647.754623	-71.198559
647.894612	-70.622006
648.034662	-70.063816
648.174772	-69.826749
648.314943	-69.823227
648.455174	-69.406625
648.595466	-68.716851
648.735819	-69.107494
648.876233	-72.090007
649.016707	-82.360332
649.157242	-78.471514
649.297838	-71.937407
649.438495	-70.498445
649.579213	-70.742691
649.719992	-69.840688
649.860832	-67.981062
650.001733	-67.144196
650.142695	-67.983143
650.283718	-70.772203
650.424803	-75.564047
650.565949	-79.754141
650.707156	-79.530827
650.848424	-75.535577
650.989754	-70.801192
651.131145	-67.761248
651.272597	-66.573664
651.414111	-67.093435
651.555687	-69.058236
651.697324	-71.135958
651.839022	-71.713507
651.980782	-72.526310
652.122604	-75.321855
652.264488	-76.289453
652.406433	-72.965470
652.548441	-71.630697
652.690510	-72.110566
652.832640	-71.478817
652.974833	-68.914878
653.117088	-67.292245
653.259405	-67.579517
653.401784	-70.107830
653.544224	-75.127745
653.686727	-77.295864
653.829293	-75.100526
653.971920	-75.274960
654.114609	-74.860423
654.257361	-71.517330
654.400175	-69.365504
654.543052	-69.325364
654.685991	-71.201701
654.828992	-73.090064
654.972056	-72.469712
655.115183	-72.513576
655.258372	-75.341140
655.401623	-76.365046
655.544937	-71.652376
655.688314	-69.538412
655.831754	-70.253733
655.975256	-72.470566
656.118822	-71.767594
656.262450	-70.026607
656.406141	-70.806499
656.549894	-75.184610
656.693711	-76.913291
656.837591	-71.587016
656.981534	-69.642086
657.125540	-70.204813
657.269610	-71.490514
657.413742	-70.824571
657.557938	-69.892732
657.702196	-71.283973
657.846519	-76.461621
657.990904	-77.294008
658.135353	-72.177129
658.279866	-71.272463
658.424441	-73.376686
658.569081	-73.755127
658.713784	-70.779426
658.858550	-70.032053
659.003381	-72.564575
659.148274	-76.341722
659.293232	-73.196900
659.438253	-71.572974
659.583339	-74.416078
659.728488	-83.204782
659.873701	-73.578089
660.018978	-69.618264
660.164318	-69.235205
660.309723	-70.763418
660.455192	-71.164655
660.600725	-70.125736
660.746323	-70.865468
660.891984	-75.197474
661.037710	-79.318629
661.183500	-73.679826
661.329354	-72.217676
661.475272	-74.356874
661.621255	-74.579802
661.767303	-70.068572
661.913415	-67.732704
662.059591	-67.847881
662.205833	-69.676053
662.352138	-70.937548
662.498509	-71.055593
662.644944	-73.319973
662.791443	-77.206878
662.938008	-71.095774
663.084638	-67.099633
663.231332	-65.865964
663.378091	-66.112242
663.524915	-66.496679
663.671804	-66.681421
663.818759	-67.939903
663.965778	-71.591242
664.112863	-74.137037
664.260012	-70.333490
664.407227	-68.344324
664.554507	-67.857612
664.701853	-67.029611
664.849264	-65.984173
664.996740	-66.179742
665.144282	-68.656043
665.291889	-75.384934
665.439561	-90.308931
665.587300	-76.921232
665.735103	-74.488801
665.882973	-70.819066
666.030908	-67.284455
666.178909	-65.768303
666.326976	-66.302577
666.475109	-68.677038
666.623307	-72.326667
666.771571	-76.564409
666.919902	-85.400609
667.068298	-75.122052
667.216761	-68.584115
667.365289	-66.002502
667.513884	-65.844706
667.662545	-67.227309
667.811272	-68.706214
667.960065	-69.767629
668.108925	-72.644914
668.257851	-80.886986
668.406843	-74.916962
668.555902	-69.603809
668.705027	-67.739594
668.854219	-66.992417
669.003478	-66.094279
669.152803	-65.568456
669.302195	-66.528591
669.451653	-69.958141
669.601179	-78.389711
669.750771	-82.152307
669.900430	-73.445420
670.050156	-69.151613
670.199949	-66.293555
670.349808	-64.839209
670.499735	-64.920423
670.649729	-66.810752
670.799790	-70.927766
670.949918	-77.327879
671.100114	-80.874845
671.250377	-79.714751
671.400707	-73.581588
671.551104	-69.316078
671.701569	-67.684926
671.852101	-67.672867
672.002700	-67.582391
672.153368	-66.738953
672.304102	-66.924816
672.454905	-70.010442
672.605775	-81.483077
672.756713	-76.341040
672.907718	-70.416475
673.058791	-68.318176
673.209933	-66.043160
673.361142	-64.254826
673.512419	-64.457702
673.663764	-67.621500
673.815177	-76.560052
673.966658	-77.882513
674.118207	-71.948644
674.269825	-69.330259
674.421510	-66.525166
674.573264	-64.966283
674.725086	-65.838322
674.876977	-70.033041
675.028936	-73.995539
675.180963	-70.536488
675.333059	-70.532339
675.485224	-71.681759
675.637457	-68.448059
675.789758	-66.459558
675.942129	-67.018838
676.094568	-68.038966
676.247075	-67.059886
676.399652	-66.631355
676.552298	-68.823808
676.705012	-72.281813
676.857795	-69.534172
677.010648	-67.225889
677.163569	-66.921678
677.316560	-66.371546
677.469619	-65.278719
677.622748	-65.474332
677.775946	-67.700951
677.929214	-70.325587
678.082551	-69.436774
678.235957	-68.516344
678.389432	-68.880132
678.542977	-67.968389
678.696592	-65.858187
678.850276	-64.747528
679.004030	-64.711398
679.157853	-65.011992
679.311746	-65.525197
679.465709	-67.551801
679.619742	-72.898765
679.773844	-70.831903
679.928017	-65.267488
680.082259	-63.048969
680.236571	-62.539745
680.390954	-62.595991
680.545406	-63.010848
680.699929	-64.747170
680.854522	-68.611117
681.009185	-69.644969
681.163918	-66.299976
681.318722	-65.123868
681.473596	-65.008930
681.628540	-63.823678
681.783555	-62.932650
681.938641	-63.776637
682.093797	-65.538289
682.249023	-65.649151
682.404321	-65.640689
682.559689	-67.339894
682.715128	-66.891458
682.870637	-63.751703
683.026218	-62.527714
683.181869	-63.285077
683.337591	-64.052799
683.493385	-63.835038
683.649249	-64.547710
683.805185	-65.259179
683.961191	-63.342289
684.117269	-61.902752
684.273418	-62.633831
684.429639	-64.681046
684.585930	-64.462592
684.742294	-62.950823
684.898728	-62.585252
685.055234	-62.158974
685.211812	-61.461913
685.368461	-62.246798
685.525182	-65.328893
685.681975	-66.628281
685.838839	-63.545548
685.995775	-61.823987
686.152783	-61.240918
686.309863	-60.762769
686.467014	-60.907800
686.624238	-62.879685
686.781534	-65.955808
686.938902	-64.892499
687.096342	-62.899993
687.253854	-62.061335
687.411438	-60.962099
687.569095	-59.832245
687.726824	-59.723811
687.884626	-60.647346
688.042499	-61.682250
688.200446	-62.585231
688.358465	-64.307081
688.516556	-64.379309
688.674720	-61.306003
688.832957	-59.232276
688.991266	-58.726203
689.149649	-59.095681
689.308104	-60.022528
689.466632	-61.886281
689.625233	-64.289121
689.783906	-63.477292
689.942653	-61.134362
690.101473	-60.108690
690.260367	-59.957834
690.419333	-59.814908
690.578372	-59.885030
690.737485	-60.530561
690.896672	-61.104904
691.055931	-61.099664
691.215264	-61.186136
691.374671	-61.308547
691.534151	-60.469161
691.693704	-59.254771
691.853332	-58.788970
692.013033	-59.116167
692.172807	-59.759928
692.332656	-60.568611
692.492578	-61.244974
692.652575	-60.507685
692.812645	-59.002349
692.972789	-58.319495
693.133007	-58.729885
693.293300	-59.554849
693.453666	-60.111178
693.614107	-60.339412
693.774622	-59.956992
693.935211	-59.080152
694.095875	-58.681785
694.256613	-59.021626
694.417426	-59.262022
694.578313	-58.969854
694.739274	-59.057775
694.900311	-59.664287
695.061421	-59.860828
695.222607	-59.645060
695.383868	-59.345847
695.545203	-58.479280
695.706613	-57.602999
695.868098	-57.683727
696.029658	-58.660472
696.191293	-59.304993
696.353003	-59.076723
696.514789	-58.597856
696.676649	-57.763323
696.838585	-57.106948
697.000596	-57.510460
697.162682	-58.715219
697.324844	-59.210149
697.487081	-58.622714
697.649394	-57.956957
697.811782	-57.353952
697.974246	-57.043870
698.136786	-57.701370
698.299401	-58.971635
698.462092	-59.238237
698.624859	-58.808471
698.787702	-58.577979
698.950621	-57.986019
699.113616	-57.254485
699.276686	-56.892635
699.439833	-56.766871
699.603056	-56.846848
699.766355	-57.585567
699.929731	-58.985266
700.093183	-59.316667
700.256711	-57.689282
700.420315	-56.071700
700.583996	-55.140594
700.747754	-54.965089
700.911588	-55.771335
701.075499	-57.541183
701.239486	-59.283062
701.403550	-59.261442
701.567691	-57.961212
701.731909	-56.817070
701.896203	-56.166037
702.060575	-56.029310
702.225024	-56.504188
702.389549	-57.423013
702.554152	-58.290544
702.718832	-58.753967
702.883589	-58.406324
703.048424	-56.860317
703.213335	-55.237008
703.378324	-54.533504
703.543391	-54.737107
703.708535	-55.593661
703.873757	-57.205142
704.039056	-58.681263
704.204433	-57.631325
704.369887	-55.825422
704.535420	-55.018522
704.701030	-55.000330
704.866718	-55.438873
705.032484	-56.429414
705.198328	-57.488801
705.364250	-57.563342
705.530250	-57.537161
705.696328	-57.746929
705.862485	-57.038875
706.028720	-55.894934
706.195033	-55.213032
706.361424	-54.981923
706.527894	-55.333894
706.694442	-56.492769
706.861069	-57.600223
707.027775	-56.999378
707.194559	-55.655818
707.361422	-54.725013
707.528363	-54.271826
707.695384	-54.388202
707.862483	-55.038483
708.029661	-55.810380
708.196918	-56.390939
708.364254	-56.920986
708.531670	-57.163148
708.699164	-56.654795
708.866738	-55.732079
709.034391	-54.982693
709.202123	-54.825804
709.369935	-55.470563
709.537826	-56.793946
709.705796	-57.833733
709.873847	-57.006934
710.041976	-55.281708
710.210186	-54.185598
710.378475	-53.890739
710.546844	-54.251517
710.715292	-55.024747
710.883821	-55.579563
711.052429	-55.568010
711.221118	-55.407251
711.389887	-55.368820
711.558735	-55.243339
711.727664	-54.964888
711.896673	-54.855458
712.065763	-55.081154
712.234932	-55.786031
712.404183	-56.903076
712.573513	-57.177266
712.742924	-56.127357
712.912416	-55.010365
713.081988	-54.338512
713.251641	-54.253947
713.421375	-54.694377
713.591190	-55.205941
713.761085	-55.435722
713.931061	-55.456731
714.101119	-55.222611
714.271257	-54.592575
714.441476	-53.875221
714.611777	-53.427572
714.782159	-53.569172
714.952622	-54.617996
715.123166	-56.555389
715.293792	-57.907255
715.464499	-56.521859
715.635288	-54.464651
715.806158	-53.387771
715.977110	-53.520226
716.148143	-54.832303
716.319259	-56.671590
716.490456	-56.890440
716.661735	-55.213673
716.833096	-53.865073
717.004538	-53.444125
717.176063	-53.686169
717.347670	-54.328201
717.519359	-54.703398
717.691130	-54.533259
717.862984	-54.536590
718.034920	-54.761547
718.206938	-54.752005
718.379039	-54.536463
718.551222	-54.307245
718.723488	-54.295535
718.895836	-54.828960
719.068267	-55.668144
719.240781	-55.655084
719.413377	-54.904835
719.586057	-54.312007
719.758819	-54.051512
719.931664	-54.225050
720.104593	-54.540871
720.277604	-54.498294
720.450699	-54.218721
720.623876	-54.108616
720.797137	-54.111316
720.970482	-53.966865
721.143910	-53.747778
721.317421	-53.678559
721.491016	-53.948833
721.664694	-54.556423
721.838456	-55.026071
722.012302	-54.702857
722.186231	-53.960505
722.360244	-53.721674
722.534342	-54.263589
722.708523	-55.186043
722.882788	-55.626324
723.057137	-54.699126
723.231570	-53.343942
723.406088	-52.757034
723.580689	-53.027642
723.755375	-53.857992
723.930146	-54.641399
724.105000	-54.628095
724.279940	-53.868579
724.454963	-53.064161
724.630072	-52.710366
724.805265	-52.721440
724.980543	-53.153097
725.155905	-54.333676
725.331353	-55.798586
725.506885	-55.874703
725.682503	-54.297535
725.858205	-52.676297
726.033993	-51.967426
726.209865	-52.564664
726.385823	-54.360081
726.561866	-55.654263
726.737995	-54.688484
726.914209	-52.948989
727.090508	-51.811308
727.266893	-51.856916
727.443364	-52.755880
727.619920	-53.549601
727.796562	-53.935507
727.973290	-53.967666
728.150103	-53.640544
728.327003	-53.291367
728.503988	-52.958263
728.681060	-52.616248
728.858218	-52.897850
729.035461	-54.062240
729.212791	-54.904315
729.390208	-54.218992
729.567710	-52.718737
729.745299	-51.594451
729.922975	-51.522098
730.100737	-52.523085
730.278586	-53.746238
730.456521	-53.786985
730.634543	-52.884816
730.812652	-51.982415
730.990848	-51.676363
731.169130	-52.116454
731.347500	-52.781211
731.525957	-53.174867
731.704500	-53.520177
731.883131	-53.486733
732.061850	-52.803688
732.240655	-52.256182
732.419548	-51.930124
732.598528	-52.039569
732.777596	-52.926577
732.956751	-53.387639
733.135994	-52.537978
733.315325	-51.564709
733.494744	-51.031062
733.674250	-51.157939
733.853844	-52.129408
734.033526	-52.882480
734.213296	-52.511422
734.393154	-52.041554
734.573101	-51.588762
734.753135	-51.423710
734.933258	-51.861071
735.113469	-52.410491
735.293769	-52.863405
735.474157	-53.066299
735.654633	-52.141784
735.835198	-50.839853
736.015852	-50.401939
736.196594	-50.866730
736.377426	-52.107366
736.558346	-53.226684
736.739355	-51.987185
736.920453	-50.219666
737.101640	-49.625182
737.282916	-50.216011
737.464282	-51.771896
737.645736	-53.300776
737.827280	-52.535956
738.008914	-51.006244
738.190637	-50.477127
738.372449	-50.639646
738.554351	-51.177221
738.736342	-51.807319
738.918424	-51.778188
739.100595	-51.440167
739.282855	-51.054746
739.465206	-50.287216
739.647647	-49.765486
739.830178	-49.991398
740.012799	-50.653117
740.195510	-51.349969
740.378311	-51.368600
740.561203	-50.399098
740.744185	-49.925891
740.927258	-50.485255
741.110421	-51.297557
741.293674	-51.672687
741.477018	-51.028407
741.660453	-50.023830
741.843979	-49.935687
742.027596	-50.499716
742.211303	-50.710590
742.395102	-50.523372
742.578991	-50.027516
742.762972	-49.568968
742.947044	-49.741031
743.131207	-49.838387
743.315461	-49.763935
743.499807	-50.199226
743.684244	-50.642503
743.868773	-50.763689
744.053394	-50.363197
744.238106	-49.526739
744.422910	-49.346235
744.607805	-50.166251
744.792793	-50.938034
744.977872	-50.782157
745.163044	-49.707546
745.348307	-48.678043
745.533663	-48.624043
745.719111	-49.191511
745.904651	-49.800364
746.090283	-50.206899
746.276008	-50.065285
746.461826	-49.486535
746.647735	-49.026897
746.833738	-48.786364
747.019833	-49.115582
747.206021	-50.308921
747.392302	-51.124279
747.578676	-50.268581
747.765143	-48.833760
747.951703	-48.013954
748.138356	-48.364933
748.325102	-49.655220
748.511941	-50.210383
748.698874	-49.430768
748.885900	-48.460899
749.073019	-48.111487
749.260232	-48.721591
749.447539	-49.498073
749.634939	-49.611697
749.822433	-49.468207
750.010021	-49.216838
750.197703	-49.023774
750.385479	-48.989303
750.573348	-48.813632
750.761312	-48.983482
750.949370	-49.390491
751.137523	-49.090322
751.325769	-48.453904
751.514110	-48.017804
751.702545	-48.160052
751.891075	-49.024160
752.079700	-49.446738
752.268419	-48.722186
752.457233	-48.151092
752.646142	-48.137957
752.835145	-48.861948
753.024244	-49.707820
753.213437	-49.233469
753.402726	-48.527258
753.592110	-48.240065
753.781589	-48.217474
753.971163	-48.477602
754.160833	-48.498474
754.350598	-48.437485
754.540459	-48.762295
754.730415	-48.582116
754.920467	-48.061199
755.110615	-47.764584
755.300858	-47.872434
755.491198	-48.744474
755.681633	-49.418826
755.872164	-48.895744
756.062792	-48.278249
756.253515	-47.989477
756.444335	-48.142782
756.635252	-48.544552
756.826264	-48.443149
757.017373	-48.370653
757.208579	-48.439848
757.399881	-48.109627
757.591280	-47.744447
757.782776	-47.615172
757.974368	-47.978399
758.166058	-48.912537
758.357844	-48.925961
758.549728	-48.062485
758.741708	-47.623126
758.933786	-47.910618
759.125961	-48.893934
759.318233	-49.189776
759.510603	-48.148396
759.703071	-47.491511
759.895635	-47.571622
760.088298	-48.138279
760.281058	-48.614786
760.473916	-48.133305
760.666872	-47.687360
760.859926	-47.696168
761.053078	-47.831255
761.246328	-48.221243
761.439676	-48.548639
761.633122	-48.639747
761.826667	-48.583914
762.020310	-47.893599
762.214052	-47.529111
762.407892	-47.881689
762.601831	-48.422988
762.795868	-48.647489
762.990004	-47.894866
763.184239	-47.157753
763.378573	-47.349500
763.573006	-47.920026
763.767538	-48.452795
763.962169	-48.446667
764.156900	-48.075904
764.351729	-48.163758
764.546658	-48.139098
764.741687	-47.884797
764.936815	-47.938714
765.132042	-48.175545
765.327370	-48.545545
765.522797	-48.158118
765.718324	-47.206052
765.913950	-47.040175
766.109677	-47.553711
766.305504	-48.437515
766.501431	-48.658036
766.697458	-47.888353
766.893586	-47.633960
767.089814	-47.930204
767.286142	-48.274615
767.482571	-48.448970
767.679100	-48.041264
767.875730	-47.927019
768.072461	-47.752985
768.269293	-47.398898
768.466225	-47.492840
768.663259	-47.882027
768.860393	-48.368882
769.057629	-48.094387
769.254966	-47.218522
769.452404	-47.267673
769.649944	-48.162484
769.847585	-49.153264
770.045328	-48.632511
770.243172	-47.233285
770.441118	-46.913071
770.639166	-47.559074
770.837315	-48.407402
771.035567	-48.431481
771.233920	-47.507407
771.432376	-47.132323
771.630934	-47.231004
771.829594	-47.570716
772.028356	-48.174965
772.227220	-48.403351
772.426188	-48.229396
772.625257	-47.547612
772.824430	-47.016589
773.023705	-47.485726
773.223083	-48.139226
773.422563	-48.200373
773.622147	-47.364157
773.821834	-46.787875
774.021624	-47.308511
774.221517	-47.890352
774.421513	-47.768311
774.621613	-47.231406
774.821816	-47.095516
775.022122	-47.827984
775.222532	-47.950655
775.423046	-47.417227
775.623664	-47.065379
775.824385	-47.221004
776.025211	-47.707110
776.226140	-47.311926
776.427173	-46.789722
776.628311	-46.883567
776.829553	-47.190008
777.030899	-47.398742
777.232350	-46.898033
777.433905	-46.761130
777.635564	-47.227254
777.837328	-47.463719
778.039197	-47.333247
778.241171	-46.776541
778.443250	-46.627296
778.645433	-46.755071
778.847722	-46.644844
779.050116	-46.755153
779.252615	-46.725228
779.455219	-46.626457
779.657929	-46.284589
779.860744	-46.053765
780.063665	-46.592561
780.266691	-47.136110
780.469823	-46.928299
780.673061	-46.164277
780.876405	-45.769800
781.079855	-46.239499
781.283410	-46.502184
781.487072	-46.165048
781.690840	-45.662147
781.894715	-45.582564
782.098695	-45.972861
782.302783	-45.998021
782.506976	-45.897888
782.711277	-45.892668
782.915684	-45.918320
783.120198	-45.782065
783.324818	-45.432718
783.529546	-45.502350
783.734381	-45.687910
783.939322	-45.483174
784.144372	-45.013519
784.349528	-44.793793
784.554792	-45.137619
784.760163	-45.426147
784.965642	-45.280797
785.171228	-45.083464
785.376922	-45.030491
785.582724	-44.978016
785.788634	-44.658899
785.994651	-44.590374
786.200777	-44.962666
786.407011	-45.033198
786.613353	-44.382079
786.819804	-43.709455
787.026363	-43.956182
787.233030	-44.807741
787.439806	-45.024723
787.646691	-44.195071
787.853684	-43.590952
788.060786	-43.833236
788.267997	-44.336555
788.475317	-44.327066
788.682746	-43.878435
788.890285	-43.598075
789.097932	-43.507427
789.305689	-43.387255
789.513555	-43.462936
789.721531	-43.696737
789.929617	-43.757535
790.137812	-43.251962
790.346117	-42.883139
790.554531	-43.121771
790.763056	-43.624857
790.971691	-43.503328
791.180436	-42.755418
791.389291	-42.406260
791.598256	-42.648901
791.807332	-43.025835
792.016518	-42.904157
792.225815	-42.456508
792.435222	-42.244405
792.644740	-42.346954
792.854369	-42.639614
793.064109	-42.775069
793.273960	-42.457785
793.483922	-41.983202
793.693995	-41.747225
793.904180	-42.036390
794.114475	-42.268687
794.324882	-41.954807
794.535401	-41.498882
794.746031	-41.497458
794.956774	-41.952726
795.167627	-41.951587
795.378593	-41.564595
795.589671	-41.365556
795.800861	-41.597893
796.012162	-41.599493
796.223577	-41.104979
796.435103	-40.886379
796.646742	-41.102267
796.858493	-41.301693
797.070357	-40.911625
797.282334	-40.638591
797.494423	-40.958721
797.706626	-41.316778
797.918941	-40.975766
798.131369	-40.348553
798.343911	-40.346141
798.556566	-40.731513
798.769334	-40.720319
798.982215	-40.228569
799.195210	-39.964439
799.408319	-40.200950
799.621541	-40.418081
799.834877	-40.340965
800.048327	-40.157809
800.261890	-40.078855
800.475568	-39.999648
800.689360	-39.847509
800.903266	-39.814003
801.117287	-39.765814
801.331422	-39.644331
801.545671	-39.525282
801.760036	-39.605678
801.974514	-39.678784
802.189108	-39.497532
802.403816	-39.343177
802.618640	-39.453026
802.833578	-39.617118
803.048632	-39.341928
803.263800	-38.933594
803.479085	-38.878505
803.694484	-39.143839
803.909999	-39.216104
804.125630	-38.959725
804.341376	-38.776264
804.557239	-38.836872
804.773217	-38.953400
804.989311	-38.938435
805.205521	-38.804240
805.421847	-38.585777
805.638290	-38.408341
805.854849	-38.424629
806.071524	-38.570272
806.288316	-38.467585
806.505225	-38.186279
806.722250	-38.148890
806.939393	-38.455575
807.156652	-38.524237
807.374028	-38.133891
807.591521	-37.896115
807.809132	-38.070897
808.026859	-38.164769
808.244705	-37.781211
808.462667	-37.543690
808.680748	-37.799075
808.898946	-38.099481
809.117261	-37.852953
809.335695	-37.533189
809.554246	-37.657452
809.772916	-37.853029
809.991704	-37.632941
810.210610	-37.268812
810.429634	-37.281489
810.648777	-37.409579
810.868039	-37.340360
811.087419	-37.231345
811.306918	-37.350617
811.526535	-37.445953
811.746272	-37.237961
811.966127	-37.056427
812.186102	-37.057700
812.406196	-37.085713
812.626409	-36.897023
812.846742	-36.813376
813.067194	-36.872036
813.287766	-36.920396
813.508457	-36.851037
813.729269	-36.862973
813.950200	-36.910694
814.171251	-36.749040
814.392422	-36.551535
814.613714	-36.523752
814.835126	-36.615176
815.056658	-36.488089
815.278311	-36.357370
815.500084	-36.414686
815.721978	-36.574161
815.943993	-36.522019
816.166128	-36.353121
816.388385	-36.268248
816.610762	-36.218651
816.833261	-36.184521
817.055881	-36.169995
817.278623	-36.140294
817.501486	-35.978685
817.724471	-35.958311
817.947577	-36.165790
818.170805	-36.271680
818.394155	-35.961981
818.617627	-35.738406
818.841221	-35.910475
819.064937	-36.061093
819.288775	-35.750464
819.512736	-35.484712
819.736819	-35.699907
819.961025	-35.977932
820.185354	-35.811594
820.409805	-35.545467
820.634379	-35.639652
820.859076	-35.759770
821.083897	-35.593174
821.308840	-35.371339
821.533907	-35.386975
821.759097	-35.452783
821.984411	-35.444692
822.209848	-35.461757
822.435409	-35.465472
822.661093	-35.378144
822.886902	-35.341528
823.112834	-35.406630
823.338891	-35.284180
823.565072	-35.009484
823.791377	-34.992297
824.017807	-35.270715
824.244361	-35.341316
824.471039	-35.116816
824.697843	-35.040883
824.924771	-35.177193
825.151824	-35.125681
825.379002	-34.915492
825.606306	-34.865580
825.833734	-34.908814
826.061288	-34.847549
826.288967	-34.844167
826.516772	-35.003822
826.744703	-35.023092
826.972759	-34.815229
827.200941	-34.726690
827.429249	-34.786265
827.657683	-34.715117
827.886243	-34.578413
828.114930	-34.645247
828.343743	-34.755354
828.572682	-34.686779
828.801748	-34.644959
829.030941	-34.754203
829.260260	-34.666563
829.489706	-34.404394
829.719280	-34.386437
829.948980	-34.592228
830.178808	-34.542209
830.408763	-34.342049
830.638845	-34.439028
830.869055	-34.664024
831.099393	-34.540399
831.329858	-34.297932
831.560451	-34.322511
831.791173	-34.413805
832.022022	-34.302821
832.252999	-34.224577
832.484105	-34.340340
832.715339	-34.403078
832.946702	-34.345292
833.178193	-34.310254
833.409813	-34.300820
833.641561	-34.207364
833.873439	-34.156482
834.105445	-34.147752
834.337581	-34.114463
834.569846	-34.136505
834.802241	-34.302826
835.034764	-34.278462
835.267418	-34.056694
835.500201	-34.022676
835.733114	-34.214010
835.966157	-34.097101
836.199329	-33.816177
836.432632	-33.904290
836.666065	-34.248721
836.899629	-34.180693
837.133323	-33.926183
837.367147	-33.969778
837.601102	-34.106560
837.835188	-33.912925
838.069405	-33.756261
838.303752	-33.864617
838.538231	-33.978708
838.772841	-33.934901
839.007582	-33.980944
839.242455	-33.989691
839.477459	-33.829408
839.712595	-33.735374
839.947863	-33.848124
840.183263	-33.812582
840.418794	-33.687949
840.654458	-33.802800
840.890254	-34.030560
841.126182	-33.912638
841.362242	-33.699029
841.598435	-33.711813
841.834761	-33.781697
842.071220	-33.700590
842.307811	-33.703035
842.544536	-33.777215
842.781393	-33.779113
843.018384	-33.779340
843.255508	-33.844829
843.492765	-33.733188
843.730156	-33.560706
843.967681	-33.624868
844.205339	-33.769084
844.443132	-33.692144
844.681058	-33.648722
844.919118	-33.795512
845.157313	-33.798653
845.395642	-33.631068
845.634105	-33.617524
845.872703	-33.684069
846.111436	-33.586845
846.350303	-33.581671
846.589306	-33.744228
846.828443	-33.763795
847.067716	-33.624120
847.307124	-33.647423
847.546667	-33.661602
847.786345	-33.560652
848.026160	-33.557226
848.266110	-33.648046
848.506195	-33.555041
848.746417	-33.582855
848.986775	-33.828760
849.227269	-33.755944
849.467899	-33.374069
849.708666	-33.439631
849.949569	-33.762445
850.190609	-33.604469
850.431785	-33.363611
850.673099	-33.646235
850.914549	-33.874252
851.156137	-33.553484
851.397861	-33.404286
851.639723	-33.586164
851.881723	-33.527780
852.123860	-33.367793
852.366135	-33.617487
852.608547	-33.797364
852.851098	-33.542802
853.093786	-33.407065
853.336613	-33.609654
853.579578	-33.577320
853.822681	-33.348030
854.065923	-33.392992
854.309304	-33.686148
854.552823	-33.729391
854.796481	-33.521022
855.040278	-33.389488
855.284215	-33.481014
855.528290	-33.551214
855.772505	-33.409232
856.016859	-33.363232
856.261353	-33.631544
856.505987	-33.707712
856.750760	-33.384244
856.995673	-33.349702
857.240727	-33.605581
857.485920	-33.456525
857.731254	-33.197203
857.976729	-33.509827
858.222343	-33.786725
858.468099	-33.418866
858.713995	-33.253438
858.960032	-33.562695
859.206211	-33.500320
859.452530	-33.214967
859.698991	-33.399604
859.945593	-33.599264
860.192336	-33.387739
860.439222	-33.396527
860.686248	-33.582858
860.933417	-33.343800
861.180728	-33.143913
861.428181	-33.407343
861.675776	-33.533063
861.923514	-33.337157
862.171394	-33.372634
862.419417	-33.485026
862.667582	-33.333739
862.915890	-33.250017
863.164342	-33.283162
863.412936	-33.239013
863.661674	-33.362181
863.910555	-33.535159
864.159579	-33.303091
864.408747	-33.116458
864.658059	-33.331203
864.907515	-33.312856
865.157114	-33.048088
865.406858	-33.230795
865.656746	-33.533476
865.906778	-33.282253
866.156955	-33.072845
866.407277	-33.229802
866.657743	-33.234674
866.908354	-33.093593
867.159110	-33.174276
867.410011	-33.292797
867.661057	-33.280669
867.912249	-33.224307
868.163586	-33.052068
868.415069	-33.001590
868.666697	-33.211297
868.918472	-33.222283
869.170392	-33.029789
869.422458	-33.188316
869.674671	-33.319678
869.927030	-32.980382
870.179536	-32.912059
870.432188	-33.213361
870.684987	-33.125940
870.937933	-32.938669
871.191026	-33.197305
871.444266	-33.238167
871.697653	-32.904462
871.951188	-32.914393
872.204870	-33.077805
872.458700	-32.997867
872.712677	-33.024593
872.966803	-33.107657
873.221076	-32.956519
873.475498	-32.959458
873.730068	-33.041133
873.984787	-32.814660
874.239654	-32.798504
874.494669	-33.139386
874.749834	-33.061242
875.005147	-32.768850
875.260610	-32.888551
875.516222	-32.934706
875.771983	-32.715291
876.027894	-32.816654
876.283954	-33.006301
876.540164	-32.845636
876.796524	-32.763724
877.053033	-32.835286
877.309693	-32.743134
877.566503	-32.669805
877.823464	-32.749157
878.080575	-32.821942
878.337837	-32.856700
878.595249	-32.712358
878.852813	-32.514589
879.110528	-32.680941
879.368393	-32.792215
879.626410	-32.503738
879.884579	-32.592084
880.142899	-32.927599
880.401371	-32.527170
880.659994	-32.242484
880.918770	-32.720236
881.177698	-32.698614
881.436778	-32.223825
881.696010	-32.556049
881.955395	-32.845152
882.214933	-32.233423
882.474623	-32.148668
882.734467	-32.661429
882.994463	-32.449002
883.254613	-32.132516
883.514916	-32.446092
883.775372	-32.491617
884.035982	-32.118232
884.296746	-32.110952
884.557664	-32.289561
884.818735	-32.245500
885.079961	-32.160947
885.341341	-32.124304
885.602876	-32.113953
885.864565	-32.075309
886.126409	-31.942203
886.388407	-31.952643
886.650561	-32.066451
886.912870	-31.970923
887.175334	-31.865206
887.437953	-31.859121
887.700728	-31.736006
887.963658	-31.726555
888.226745	-31.858958
888.489987	-31.716193
888.753385	-31.618331
889.016940	-31.741183
889.280651	-31.553493
889.544518	-31.407788
889.808543	-31.656763
890.072723	-31.577875
890.337061	-31.338178
890.601556	-31.537404
890.866208	-31.460611
891.131017	-31.112220
891.395984	-31.351598
891.661109	-31.525676
891.926391	-31.141561
892.191831	-31.173859
892.457429	-31.369212
892.723186	-31.054860
892.989100	-31.012681
893.255173	-31.271522
893.521405	-31.103124
893.787796	-30.975997
894.054345	-31.077116
894.321053	-30.938133
894.587921	-30.883296
894.854948	-30.991259
895.122134	-30.880289
895.389480	-30.862262
895.656986	-30.925251
895.924651	-30.701079
896.192477	-30.666002
896.460463	-30.873608
896.728609	-30.724534
896.996915	-30.585942
897.265382	-30.736188
897.534010	-30.631839
897.802799	-30.432053
898.071749	-30.545549
898.340860	-30.624751
898.610132	-30.469822
898.879566	-30.371972
899.149162	-30.420898
899.418919	-30.409597
899.688838	-30.252464
899.958919	-30.263038
900.229162	-30.421668
900.499568	-30.228371
900.770136	-30.025056
901.040867	-30.215205
901.311761	-30.177604
901.582817	-29.959759
901.854037	-30.133000
902.125420	-30.099911
902.396966	-29.807806
902.668676	-29.963457
902.940550	-30.008634
903.212587	-29.742283
903.484788	-29.901702
903.757153	-29.940903
904.029683	-29.598130
904.302377	-29.717643
904.575236	-29.842580
904.848259	-29.566022
905.121447	-29.657978
905.394800	-29.727858
905.668319	-29.434831
905.942002	-29.536660
906.215852	-29.616732
906.489866	-29.347229
906.764047	-29.499345
907.038393	-29.559914
907.312906	-29.170079
907.587584	-29.301780
907.862429	-29.515124
908.137441	-29.149046
908.412619	-29.163052
908.687964	-29.399187
908.963476	-29.082670
909.239155	-28.976201
909.515002	-29.239787
909.791015	-29.111795
910.067197	-28.909075
910.343546	-29.015408
910.620063	-28.992562
910.896748	-28.820665
911.173601	-28.855297
911.450623	-28.920194
911.727813	-28.769096
912.005171	-28.684677
912.282699	-28.741242
912.560395	-28.643407
912.838261	-28.586709
913.116296	-28.671610
913.394500	-28.513740
913.672874	-28.403480
913.951418	-28.525490
914.230131	-28.374193
914.509015	-28.294497
914.788068	-28.472980
915.067292	-28.223911
915.346687	-28.077061
915.626252	-28.354664
915.905988	-28.142536
916.185895	-27.950275
916.465973	-28.247094
916.746223	-28.024980
917.026644	-27.766623
917.307236	-28.088632
917.588000	-27.982517
917.868937	-27.703113
918.150045	-27.915034
918.431325	-27.852470
918.712778	-27.625721
918.994404	-27.762685
919.276202	-27.767686
919.558173	-27.620325
919.840317	-27.596250
920.122634	-27.572846
920.405125	-27.584210
920.687789	-27.521662
920.970627	-27.448608
921.253639	-27.525322
921.536824	-27.406064
921.820184	-27.289907
922.103718	-27.448911
922.387427	-27.362728
922.671310	-27.202219
922.955368	-27.307308
923.239601	-27.226070
923.524009	-27.114672
923.808592	-27.224806
924.093351	-27.152781
924.378285	-27.022604
924.663396	-27.067929
924.948682	-27.050537
925.234144	-26.968084
925.519782	-26.968056
925.805597	-26.974681
926.091589	-26.855936
926.377757	-26.797811
926.664102	-26.915723
926.950624	-26.807831
927.237323	-26.672459
927.524200	-26.828945
927.811255	-26.693369
928.098487	-26.551337
928.385897	-26.796576
928.673485	-26.608657
928.961251	-26.428361
929.249196	-26.703813
929.537319	-26.482230
929.825621	-26.344462
930.114102	-26.654308
930.402762	-26.367880
930.691601	-26.234682
930.980620	-26.543370
931.269818	-26.279510
931.559196	-26.194725
931.848753	-26.433204
932.138491	-26.159214
932.428409	-26.105644
932.718508	-26.300557
933.008787	-26.108002
933.299246	-26.059210
933.589887	-26.124900
933.880709	-26.011619
934.171712	-26.017791
934.462896	-26.016868
934.754262	-25.948659
935.045810	-25.934599
935.337539	-25.877089
935.629451	-25.870812
935.921545	-25.878621
936.213822	-25.801657
936.506281	-25.765984
936.798922	-25.760766
937.091747	-25.744773
937.384755	-25.708261
937.677946	-25.678251
937.971321	-25.670578
938.264879	-25.597477
938.558621	-25.593913
938.852547	-25.621696
939.146657	-25.509444
939.440952	-25.504638
939.735431	-25.515818
940.030095	-25.417026
940.324943	-25.462282
940.619977	-25.429463
940.915196	-25.321051
941.210600	-25.369333
941.506189	-25.317301
941.801965	-25.270121
942.097926	-25.283244
942.394074	-25.181280
942.690407	-25.185519
942.986927	-25.171965
943.283634	-25.102438
943.580527	-25.130873
943.877608	-25.020918
944.174875	-25.004227
944.472330	-25.063361
944.769972	-24.904393
945.067802	-24.933214
945.365820	-24.935521
945.664026	-24.770539
945.962420	-24.881649
946.261002	-24.829383
946.559773	-24.679231
946.858733	-24.791050
947.157881	-24.697306
947.457219	-24.636505
947.756746	-24.706896
948.056462	-24.570126
948.356368	-24.569373
948.656464	-24.583333
948.956749	-24.498406
949.257225	-24.526831
949.557891	-24.451130
949.858748	-24.433432
950.159796	-24.455751
950.461034	-24.363558
950.762463	-24.404242
951.064084	-24.330359
951.365896	-24.268677
951.667900	-24.370405
951.970095	-24.228436
952.272483	-24.219921
952.575063	-24.288722
952.877835	-24.128930
953.180799	-24.209829
953.483956	-24.203766
953.787307	-24.052695
954.090850	-24.152297
954.394586	-24.087301
954.698516	-24.031158
955.002640	-24.088984
955.306957	-23.970114
955.611469	-24.006218
955.916174	-24.014048
956.221074	-23.913753
956.526169	-23.974309
956.831458	-23.899139
957.136942	-23.857399
957.442622	-23.924745
957.748496	-23.815025
958.054567	-23.808471
958.360833	-23.840663
958.667294	-23.753980
958.973952	-23.783963
959.280806	-23.772982
959.587857	-23.681380
959.895104	-23.722594
960.202548	-23.710175
960.510189	-23.622735
960.818027	-23.666193
961.126062	-23.628798
961.434295	-23.568672
961.742726	-23.653314
962.051355	-23.554904
962.360182	-23.517850
962.669207	-23.605887
962.978431	-23.467361
963.287854	-23.511449
963.597475	-23.522097
963.907296	-23.381362
964.217315	-23.522103
964.527535	-23.433550
964.837954	-23.367828
965.148573	-23.486738
965.459392	-23.316645
965.770411	-23.392854
966.081630	-23.392557
966.393051	-23.240213
966.704672	-23.392135
967.016494	-23.261496
967.328517	-23.263030
967.640742	-23.342630
967.953169	-23.144117
968.265797	-23.289067
968.578627	-23.211886
968.891660	-23.105824
969.204895	-23.249744
969.518332	-23.051790
969.831972	-23.136293
970.145816	-23.152308
970.459862	-22.971345
970.774112	-23.135246
971.088565	-22.993286
971.403223	-22.966436
971.718084	-23.048736
972.033149	-22.851743
972.348419	-22.964602
972.663893	-22.916948
972.979572	-22.816454
973.295456	-22.916919
973.611546	-22.782783
973.927840	-22.807577
974.244340	-22.808618
974.561046	-22.694038
974.877958	-22.749639
975.195076	-22.692640
975.512401	-22.664034
975.829932	-22.678571
976.147670	-22.614847
976.465615	-22.610181
976.783767	-22.606398
977.102126	-22.548740
977.420693	-22.520063
977.739468	-22.540292
978.058451	-22.473065
978.377642	-22.482191
978.697041	-22.482587
979.016649	-22.390840
979.336466	-22.472728
979.656492	-22.384379
979.976727	-22.341674
980.297171	-22.416722
980.617825	-22.275778
980.938689	-22.363256
981.259763	-22.319329
981.581048	-22.235744
981.902542	-22.358473
982.224248	-22.207749
982.546164	-22.251520
982.868291	-22.250697
983.190630	-22.149575
983.513180	-22.256480
983.835942	-22.144660
984.158916	-22.171780
984.482101	-22.181640
984.805500	-22.111982
985.129110	-22.162486
985.452934	-22.069657
985.776970	-22.119084
986.101220	-22.078589
986.425683	-22.053887
986.750359	-22.099404
987.075250	-22.002197
987.400354	-22.090258
987.725673	-22.005435
988.051206	-21.988929
988.376954	-22.041784
988.702916	-21.932748
989.029094	-22.018832
989.355487	-21.945551
989.682095	-21.951462
990.008919	-21.980510
990.335959	-21.898440
990.663216	-21.948001
990.990688	-21.877937
991.318377	-21.913786
991.646283	-21.872867
991.974406	-21.861080
992.302746	-21.893938
992.631304	-21.808545
992.960079	-21.886840
993.289072	-21.776636
993.618283	-21.809307
993.947713	-21.814643
994.277361	-21.715907
994.607227	-21.821398
994.937313	-21.696701
995.267618	-21.759129
995.598142	-21.722290
995.928886	-21.650925
996.259849	-21.727194
996.591033	-21.600670
996.922437	-21.676780
997.254061	-21.598703
997.585906	-21.603126
997.917972	-21.621411
998.250260	-21.516322
998.582768	-21.596552
998.915498	-21.477781
999.248450	-21.525708
999.581624	-21.482162
999.915020	-21.438533
1000.248639	-21.495499
1000.582480	-21.382461
1000.916545	-21.445873
1001.250832	-21.355127
1001.585343	-21.365831
1001.920077	-21.351286
1002.255035	-21.288954
1002.590218	-21.339885
1002.925624	-21.251949
1003.261255	-21.296023
1003.597111	-21.220565
1003.933192	-21.224904
1004.269497	-21.206116
1004.606029	-21.155946
1004.942785	-21.190554
1005.279768	-21.115503
1005.616977	-21.164649
1005.954412	-21.085020
1006.292074	-21.107017
1006.629962	-21.065082
1006.968077	-21.044065
1007.306420	-21.063398
1007.644990	-20.983432
1007.983787	-21.073367
1008.322813	-20.944472
1008.662067	-21.030365
1009.001549	-20.948583
1009.341259	-20.929412
1009.681199	-21.003445
1010.021367	-20.833996
1010.361765	-21.021282
1010.702392	-20.838577
1011.043250	-20.924255
1011.384337	-20.909080
1011.725654	-20.792235
1012.067202	-20.959644
1012.408980	-20.743833
1012.750989	-20.916498
1013.093230	-20.799262
1013.435702	-20.812025
1013.778405	-20.857122
1014.121341	-20.721023
1014.464508	-20.863796
1014.807908	-20.701671
1015.151540	-20.814562
1015.495405	-20.737137
1015.839503	-20.746953
1016.183835	-20.761658
1016.528400	-20.676174
1016.873198	-20.758890
1017.218231	-20.641258
1017.563498	-20.729427
1017.908999	-20.642842
1018.254735	-20.684749
1018.600707	-20.646734
1018.946913	-20.615875
1019.293354	-20.641177
1019.640032	-20.559680
1019.986945	-20.626846
1020.334094	-20.529485
1020.681480	-20.598192
1021.029102	-20.511850
1021.376961	-20.531953
1021.725058	-20.496899
1022.073391	-20.462599
1022.421962	-20.488537
1022.770772	-20.407102
1023.119819	-20.475765
1023.469104	-20.362229
1023.818628	-20.425437
1024.168391	-20.325398
1024.518393	-20.361070
1024.868634	-20.314613
1025.219115	-20.286288
1025.569836	-20.327984
1025.920796	-20.204969
1026.271997	-20.306193
1026.623438	-20.150046
1026.975121	-20.246160
1027.327044	-20.144298
1027.679208	-20.165839
1028.031614	-20.165406
1028.384262	-20.079940
1028.737152	-20.154674
1029.090284	-20.015672
1029.443659	-20.120146
1029.797276	-19.991363
1030.151137	-20.071227
1030.505240	-19.996926
1030.859587	-20.000265
1031.214178	-19.994152
1031.569013	-19.927654
1031.924093	-19.995682
1032.279417	-19.878020
1032.634985	-19.991133
1032.990799	-19.861010
1033.346858	-19.945118
1033.703162	-19.857414
1034.059712	-19.880347
1034.416509	-19.877102
1034.773551	-19.823306
1035.130841	-19.905186
1035.488377	-19.783368
1035.846160	-19.890659
1036.204190	-19.765840
1036.562468	-19.847693
1036.920994	-19.784026
1037.279768	-19.803400
1037.638790	-19.812841
1037.998061	-19.760343
1038.357581	-19.808874
1038.717350	-19.728138
1039.077368	-19.793531
1039.437636	-19.721885
1039.798154	-19.775953
1040.158922	-19.725928
1040.519940	-19.738390
1040.881209	-19.712045
1041.242729	-19.702794
1041.604501	-19.701218
1041.966524	-19.680871
1042.328798	-19.693974
1042.691325	-19.653245
1043.054103	-19.662912
1043.417135	-19.616900
1043.780419	-19.631161
1044.143956	-19.594126
1044.507746	-19.604410
1044.871791	-19.569955
1045.236088	-19.563205
1045.600641	-19.523859
1045.965447	-19.518797
1046.330508	-19.486653
1046.695824	-19.482280
1047.061395	-19.454633
1047.427222	-19.432855
1047.793304	-19.405450
1048.159642	-19.370477
1048.526237	-19.362049
1048.893088	-19.321505
1049.260196	-19.322598
1049.627561	-19.270607
1049.995183	-19.266424
1050.363063	-19.203940
1050.731201	-19.214023
1051.099597	-19.150447
1051.468251	-19.171716
1051.837164	-19.098897
1052.206336	-19.115507
1052.575767	-19.037742
1052.945458	-19.049938
1053.315409	-19.000997
1053.685619	-18.987994
1054.056090	-18.977250
1054.426821	-18.913219
1054.797814	-18.943252
1055.169067	-18.835531
1055.540582	-18.917634
1055.912359	-18.784512
1056.284398	-18.885032
1056.656698	-18.743676
1057.029262	-18.826233
1057.402088	-18.711681
1057.775177	-18.765325
1058.148530	-18.711458
1058.522146	-18.702805
1058.896027	-18.712499
1059.270171	-18.632705
1059.644580	-18.700143
1060.019254	-18.583782
1060.394193	-18.694542
1060.769397	-18.556442
1061.144867	-18.671059
1061.520602	-18.532314
1061.896604	-18.629602
1062.272872	-18.524764
1062.649407	-18.601030
1063.026210	-18.528555
1063.403279	-18.563381
1063.780616	-18.522841
1064.158221	-18.519089
1064.536094	-18.520853
1064.914235	-18.495848
1065.292645	-18.519528
1065.671325	-18.467395
1066.050273	-18.503279
1066.429491	-18.433284
1066.808979	-18.491697
1067.188738	-18.414901
1067.568766	-18.482670
1067.949066	-18.385281
1068.329636	-18.459359
1068.710478	-18.352098
1069.091592	-18.437868
1069.472977	-18.337246
1069.854635	-18.411008
1070.236565	-18.313644
1070.618768	-18.367267
1071.001243	-18.287907
1071.383993	-18.329069
1071.767016	-18.274087
1072.150313	-18.287246
1072.533884	-18.244223
1072.917730	-18.234766
1073.301850	-18.210719
1073.686246	-18.192363
1074.070917	-18.185319
1074.455864	-18.143031
1074.841087	-18.145150
1075.226586	-18.083852
1075.612362	-18.108683
1075.998415	-18.034201
1076.384745	-18.079151
1076.771353	-17.976631
1077.158238	-18.034647
1077.545401	-17.918356
1077.932843	-17.994724
1078.320564	-17.875276
1078.708564	-17.955670
1079.096842	-17.825794
1079.485401	-17.903841
1079.874240	-17.781411
1080.263358	-17.860855
1080.652757	-17.750608
1081.042438	-17.815329
1081.432399	-17.710601
1081.822641	-17.763422
1082.213166	-17.678057
1082.603972	-17.723692
1082.995061	-17.652044
1083.386433	-17.678829
1083.778087	-17.614247
1084.170025	-17.634961
1084.562246	-17.584706
1084.954751	-17.603692
1085.347541	-17.554184
1085.740615	-17.564737
1086.133973	-17.514701
1086.527617	-17.531656
1086.921546	-17.486638
1087.315761	-17.505189
1087.710262	-17.454033
1088.105050	-17.468626
1088.500124	-17.419522
1088.895485	-17.441947
1089.291134	-17.395819
1089.687070	-17.415458
1090.083294	-17.363678
1090.479806	-17.380982
1090.876607	-17.335581
1091.273696	-17.357839
1091.671075	-17.312008
1092.068744	-17.327313
1092.466702	-17.277655
1092.864950	-17.293120
1093.263489	-17.251329
1093.662319	-17.266210
1094.061440	-17.219828
1094.460852	-17.226641
1094.860555	-17.179306
1095.260551	-17.189558
1095.660840	-17.147571
1096.061421	-17.151460
1096.462295	-17.103695
1096.863462	-17.102102
1097.264923	-17.058299
1097.666678	-17.061907
1098.068727	-17.017332
1098.471071	-17.013480
1098.873710	-16.964336
1099.276644	-16.962715
1099.679874	-16.919686
1100.083400	-16.922612
1100.487222	-16.872236
1100.891340	-16.872331
1101.295756	-16.821211
1101.700468	-16.831362
1102.105478	-16.783647
1102.510787	-16.793381
1102.916393	-16.737131
1103.322298	-16.750795
1103.728502	-16.699016
1104.135005	-16.722259
1104.541807	-16.667141
1104.948909	-16.685455
1105.356312	-16.628278
1105.764015	-16.654362
1106.172019	-16.603218
1106.580324	-16.629702
1106.988931	-16.571297
1107.397840	-16.594066
1107.807051	-16.543628
1108.216564	-16.570361
1108.626380	-16.523489
1109.036500	-16.538590
1109.446923	-16.492206
1109.857649	-16.507982
1110.268680	-16.474110
1110.680016	-16.484195
1111.091657	-16.449690
1111.503602	-16.448786
1111.915854	-16.426896
1112.328411	-16.427002
1112.741275	-16.412452
1113.154445	-16.399393
1113.567922	-16.387975
1113.981706	-16.373786
1114.395798	-16.378586
1114.810198	-16.356706
1115.224906	-16.364265
1115.639923	-16.329483
1116.055249	-16.353621
1116.470884	-16.316258
1116.886829	-16.350713
1117.303084	-16.295953
1117.719650	-16.336799
1118.136526	-16.279682
1118.553713	-16.333919
1118.971212	-16.269787
1119.389022	-16.317351
1119.807145	-16.250779
1120.225580	-16.299258
1120.644328	-16.243960
1121.063389	-16.277872
1121.482763	-16.223987
1121.902452	-16.241644
1122.322454	-16.205952
1122.742771	-16.211161
1123.163404	-16.182955
1123.584351	-16.163057
1124.005614	-16.147389
1124.427193	-16.117133
1124.849089	-16.116508
1125.271301	-16.063081
1125.693830	-16.068239
1126.116677	-16.000484
1126.539842	-16.024451
1126.963324	-15.944102
1127.387126	-15.969073
1127.811246	-15.877628
1128.235685	-15.906858
1128.660444	-15.826531
1129.085522	-15.843976
1129.510922	-15.773131
1129.936641	-15.767841
1130.362682	-15.728295
1130.789044	-15.703225
1131.215728	-15.687519
1131.642734	-15.633178
1132.070063	-15.640313
1132.497714	-15.578450
1132.925689	-15.601308
1133.353987	-15.530237
1133.782610	-15.550040
1134.211556	-15.488693
1134.640827	-15.508963
1135.070424	-15.460287
1135.500345	-15.462046
1135.930593	-15.426879
1136.361166	-15.420346
1136.792067	-15.407445
1137.223294	-15.381570
1137.654848	-15.378538
1138.086730	-15.338205
1138.518940	-15.357175
1138.951479	-15.305879
1139.384346	-15.326742
1139.817543	-15.265395
1140.251069	-15.289634
1140.684925	-15.241185
1141.119111	-15.247780
1141.553628	-15.209849
1141.988475	-15.190807
1142.423655	-15.185997
1142.859166	-15.142268
1143.295009	-15.152262
1143.731185	-15.083559
1144.167694	-15.107856
1144.604536	-15.043640
1145.041711	-15.056959
1145.479221	-14.997719
1145.917065	-14.989353
1146.355245	-14.962824
1146.793759	-14.931613
1147.232609	-14.919825
1147.671795	-14.863931
1148.111317	-14.872641
1148.551177	-14.817531
1148.991373	-14.822783
1149.431907	-14.764351
1149.872779	-14.762861
1150.313989	-14.728662
1150.755538	-14.713730
1151.197426	-14.686350
1151.639653	-14.654794
1152.082220	-14.651663
1152.525128	-14.616449
1152.968376	-14.614704
1153.411966	-14.568393
1153.855897	-14.576857
1154.300169	-14.542778
1154.744784	-14.544546
1155.189742	-14.508516
1155.635042	-14.503996
1156.080687	-14.493813
1156.526674	-14.476110
1156.973007	-14.472185
1157.419683	-14.437366
1157.866705	-14.459738
1158.314072	-14.421357
1158.761786	-14.438366
1159.209845	-14.397774
1159.658251	-14.413502
1160.107004	-14.401200
1160.556104	-14.385857
1161.005553	-14.391120
1161.455349	-14.356354
1161.905494	-14.394555
1162.355989	-14.343153
1162.806832	-14.370783
1163.258026	-14.333593
1163.709570	-14.350740
1164.161464	-14.344048
1164.613710	-14.313829
1165.066307	-14.338618
1165.519256	-14.295820
1165.972558	-14.336172
1166.426212	-14.280728
1166.880219	-14.303769
1167.334580	-14.283243
1167.789295	-14.281011
1168.244364	-14.280973
1168.699788	-14.241834
1169.155567	-14.275798
1169.611702	-14.229018
1170.068193	-14.255531
1170.525041	-14.208449
1170.982245	-14.225181
1171.439807	-14.212540
1171.897726	-14.190034
1172.356004	-14.197735
1172.814640	-14.156475
1173.273635	-14.192999
1173.732989	-14.134151
1174.192703	-14.157815
1174.652778	-14.121645
1175.113213	-14.126338
1175.574009	-14.122531
1176.035167	-14.072837
1176.496687	-14.115116
1176.958569	-14.049451
1177.420814	-14.090160
1177.883422	-14.034006
1178.346394	-14.038026
1178.809730	-14.048474
1179.273430	-13.990334
1179.737496	-14.032330
1180.201927	-13.962655
1180.666723	-14.004159
1181.131886	-13.963013
1181.597416	-13.945579
1182.063312	-13.960863
1182.529576	-13.914297
1182.996209	-13.943198
1183.463209	-13.885961
1183.930579	-13.907612
1184.398317	-13.882774
1184.866426	-13.869868
1185.334904	-13.862684
1185.803754	-13.833789
1186.272974	-13.855267
1186.742566	-13.801886
1187.212529	-13.821931
1187.682865	-13.786558
1188.153574	-13.786452
1188.624656	-13.781131
1189.096112	-13.732181
1189.567942	-13.769376
1190.040147	-13.716082
1190.512726	-13.721204
1190.985681	-13.709350
1191.459012	-13.675274
1191.932720	-13.699731
1192.406804	-13.649784
1192.881265	-13.648209
1193.356104	-13.652289
1193.831322	-13.611585
1194.306918	-13.617796
1194.782893	-13.599990
1195.259248	-13.575115
1195.735982	-13.592334
1196.213097	-13.544612
1196.690593	-13.546173
1197.168471	-13.556109
1197.646730	-13.498174
1198.125371	-13.529607
1198.604395	-13.494493
1199.083803	-13.479555
1199.563594	-13.500326
1200.043769	-13.437348
1200.524329	-13.471758
1201.005273	-13.449855
1201.486604	-13.411605
1201.968320	-13.446067
1202.450422	-13.398852
1202.932912	-13.403987
1203.415789	-13.403999
1203.899054	-13.360849
1204.382707	-13.391788
1204.866748	-13.359752
1205.351179	-13.336759
1205.836000	-13.365720
1206.321211	-13.318356
1206.806812	-13.325046
1207.292805	-13.323959
1207.779189	-13.284856
1208.265965	-13.314649
1208.753134	-13.273779
1209.240696	-13.264796
1209.728651	-13.287618
1210.217000	-13.231067
1210.705744	-13.252427
1211.194883	-13.239196
1211.684417	-13.206329
1212.174347	-13.232333
1212.664673	-13.184347
1213.155396	-13.193655
1213.646516	-13.194023
1214.138034	-13.143651
1214.629951	-13.175994
1215.122266	-13.142605
1215.614980	-13.123503
1216.108095	-13.140123
1216.601609	-13.094073
1217.095524	-13.110885
1217.589841	-13.088418
1218.084559	-13.060456
1218.579679	-13.085311
1219.075202	-13.036677
1219.571128	-13.038552
1220.067458	-13.038563
1220.564191	-12.998997
1221.061330	-13.013538
1221.558874	-12.981714
1222.056823	-12.974081
1222.555178	-12.974206
1223.053940	-12.932518
1223.553109	-12.947755
1224.052686	-12.923453
1224.552671	-12.898392
1225.053065	-12.907411
1225.553867	-12.873734
1226.055079	-12.870715
1226.556702	-12.854463
1227.058735	-12.832895
1227.561179	-12.835961
1228.064035	-12.801121
1228.567303	-12.797563
1229.070983	-12.789086
1229.575077	-12.757731
1230.079585	-12.758612
1230.584506	-12.736736
1231.089842	-12.723369
1231.595594	-12.711868
1232.101761	-12.688796
1232.608345	-12.689471
1233.115345	-12.662123
1233.622762	-12.649202
1234.130597	-12.649037
1234.638851	-12.617299
1235.147523	-12.614536
1235.656615	-12.602806
1236.166126	-12.581513
1236.676058	-12.580050
1237.186411	-12.557405
1237.697185	-12.553042
1238.208381	-12.544040
1238.719999	-12.519054
1239.232040	-12.527306
1239.744505	-12.508542
1240.257394	-12.490265
1240.770708	-12.500932
1241.284446	-12.477096
1241.798610	-12.469955
1242.313201	-12.473599
1242.828218	-12.452267
1243.343662	-12.455245
1243.859534	-12.447164
1244.375834	-12.434771
1244.892563	-12.443305
1245.409721	-12.424353
1245.927309	-12.423984
1246.445327	-12.432154
1246.963777	-12.407687
1247.482657	-12.418297
1248.001970	-12.421226
1248.521716	-12.398801
1249.041894	-12.415643
1249.562506	-12.411344
1250.083553	-12.397578
1250.605034	-12.414441
1251.126950	-12.404152
1251.649302	-12.402806
1252.172091	-12.413996
1252.695316	-12.401444
1253.218979	-12.412366
1253.743079	-12.414654
1254.267619	-12.404239
1254.792597	-12.424127
1255.318015	-12.417538
1255.843874	-12.412501
1256.370173	-12.436648
1256.896913	-12.423722
1257.424095	-12.425523
1257.951720	-12.449389
1258.479787	-12.433865
1259.008298	-12.442107
1259.537254	-12.462382
1260.066654	-12.447965
1260.596499	-12.460976
1261.126790	-12.475951
1261.657527	-12.465274
1262.188711	-12.481004
1262.720342	-12.490203
1263.252422	-12.484676
1263.784950	-12.501185
1264.317928	-12.504946
1264.851355	-12.504879
1265.385232	-12.520579
1265.919560	-12.519591
1266.454340	-12.524541
1266.989572	-12.538164
1267.525256	-12.533307
1268.061394	-12.542378
1268.597985	-12.552993
1269.135031	-12.545167
1269.672531	-12.557195
1270.210487	-12.564232
1270.748899	-12.554220
1271.287768	-12.568002
1271.827094	-12.571194
1272.366877	-12.559625
1272.907119	-12.573961
1273.447820	-12.573418
1273.988981	-12.560639
1274.530601	-12.574606
1275.072683	-12.570591
1275.615226	-12.556758
1276.158230	-12.569609
1276.701697	-12.562627
1277.245627	-12.547733
1277.790021	-12.559029
1278.334879	-12.549395
1278.880202	-12.533465
1279.425991	-12.542843
1279.972245	-12.530981
1280.518966	-12.513993
1281.066155	-12.521352
1281.613811	-12.507396
1282.161936	-12.489391
1282.710529	-12.494651
1283.259593	-12.478783
1283.809126	-12.459757
1284.359131	-12.462964
1284.909607	-12.445294
1285.460555	-12.425261
1286.011976	-12.426431
1286.563870	-12.407174
1287.116237	-12.386123
1287.669080	-12.385317
1288.222397	-12.364623
1288.776191	-12.342658
1289.330460	-12.339744
1289.885207	-12.318000
1290.440431	-12.295195
1290.996133	-12.290032
1291.552314	-12.267587
1292.108975	-12.244334
1292.666115	-12.236711
1293.223737	-12.214094
1293.781839	-12.190702
1294.340424	-12.180459
1294.899491	-12.158144
1295.459041	-12.135188
1296.019075	-12.122053
1296.579593	-12.100694
1297.140597	-12.078595
1297.702086	-12.062404
1298.264061	-12.042556
1298.826524	-12.021804
1299.389474	-12.002493
1299.952912	-11.984607
1300.516839	-11.965446
1301.081255	-11.943228
1301.646162	-11.927594
1302.211559	-11.910143
1302.777448	-11.885433
1303.343829	-11.872179
1303.910702	-11.856199
1304.478069	-11.829797
1305.045930	-11.818695
1305.614285	-11.803738
1306.183136	-11.776813
1306.752483	-11.767365
1307.322326	-11.752942
1307.892666	-11.726858
1308.463504	-11.718363
1309.034841	-11.703971
1309.606677	-11.680312
1310.179012	-11.671747
1310.751849	-11.657204
1311.325186	-11.637327
1311.899025	-11.627695
1312.473366	-11.613115
1313.048211	-11.597990
1313.623559	-11.586383
1314.199412	-11.572293
1314.775770	-11.562162
1315.352634	-11.548224
1315.930004	-11.535465
1316.507881	-11.529685
1317.086266	-11.513827
1317.665159	-11.503131
1318.244562	-11.500219
1318.824474	-11.483797
1319.404897	-11.475602
1319.985831	-11.473394
1320.567276	-11.458517
1321.149234	-11.452730
1321.731706	-11.449190
1322.314691	-11.438164
1322.898190	-11.434102
1323.482205	-11.428073
1324.066736	-11.422401
1324.651783	-11.419094
1325.237347	-11.410780
1325.823430	-11.410552
1326.410031	-11.406968
1326.997151	-11.398354
1327.584791	-11.401770
1328.172952	-11.397542
1328.761634	-11.391313
1329.350839	-11.395426
1329.940566	-11.391144
1330.530817	-11.389283
1331.121592	-11.391174
1331.712891	-11.388318
1332.304716	-11.391070
1332.897068	-11.389496
1333.489946	-11.389656
1334.083352	-11.395013
1334.677287	-11.391258
1335.271750	-11.395066
1335.866744	-11.400028
1336.462268	-11.397359
1337.058323	-11.403646
1337.654910	-11.406262
1338.252029	-11.407902
1338.849682	-11.414207
1339.447869	-11.414988
1340.046591	-11.421832
1340.645848	-11.425916
1341.245641	-11.427551
1341.845972	-11.437337
1342.446840	-11.439221
1343.048246	-11.444258
1343.650191	-11.453013
1344.252677	-11.455287
1344.855702	-11.463794
1345.459269	-11.468969
1346.063379	-11.474743
1346.668030	-11.484125
1347.273226	-11.486874
1347.878965	-11.496823
1348.485250	-11.504163
1349.092080	-11.508433
1349.699456	-11.519616
1350.307380	-11.524771
1350.915851	-11.533428
1351.524871	-11.541979
1352.134441	-11.547749
1352.744560	-11.559585
1353.355231	-11.564762
1353.966453	-11.573851
1354.578227	-11.584623
1355.190555	-11.590000
1355.803436	-11.601490
1356.416872	-11.608819
1357.030863	-11.618262
1357.645411	-11.628734
1358.260515	-11.634806
1358.876177	-11.647708
1359.492397	-11.655428
1360.109176	-11.664345
1360.726516	-11.676090
1361.344416	-11.683442
1361.962877	-11.695825
1362.581901	-11.703769
1363.201487	-11.714091
1363.821637	-11.726276
1364.442352	-11.733286
1365.063632	-11.746153
1365.685478	-11.755211
1366.307891	-11.765731
1366.930871	-11.777277
1367.554420	-11.785297
1368.178538	-11.798988
1368.803226	-11.807537
1369.428485	-11.818413
1370.054315	-11.830518
1370.680717	-11.839408
1371.307693	-11.852808
1371.935242	-11.861436
1372.563366	-11.873973
1373.192065	-11.885829
1373.821341	-11.895121
1374.451193	-11.909159
1375.081623	-11.918619
1375.712632	-11.932180
1376.344221	-11.943442
1376.976389	-11.954695
1377.609139	-11.969421
1378.242470	-11.979252
1378.876384	-11.994017
1379.510881	-12.005631
1380.145963	-12.018991
1380.781629	-12.033115
1381.417881	-12.044017
1382.054720	-12.060191
1382.692147	-12.071730
1383.330161	-12.086483
1383.968765	-12.099980
1384.607959	-12.113141
1385.247743	-12.129442
1385.888119	-12.140923
1386.529087	-12.157350
1387.170648	-12.170592
1387.812804	-12.185688
1388.455554	-12.200688
1389.098899	-12.213500
1389.742842	-12.230809
1390.387381	-12.243410
1391.032519	-12.259842
1391.678256	-12.273592
1392.324592	-12.288928
1392.971529	-12.305281
1393.619068	-12.318422
1394.267208	-12.335921
1394.915952	-12.349457
1395.565300	-12.366927
1396.215253	-12.381450
1396.865812	-12.396909
1397.516977	-12.413953
1398.168749	-12.428096
1398.821130	-12.445955
1399.474120	-12.459496
1400.127719	-12.477520
1400.781930	-12.492718
1401.436752	-12.509073
1402.092186	-12.526002
1402.748234	-12.541260
1403.404897	-12.560115
1404.062174	-12.574552
1404.720067	-12.593363
1405.378577	-12.608707
1406.037705	-12.626705
1406.697451	-12.643412
1407.357817	-12.659401
1408.018803	-12.677786
1408.680410	-12.692866
1409.342639	-12.711939
1410.005492	-12.726729
1410.668968	-12.745652
1411.333068	-12.761900
1411.997795	-12.779686
1412.663147	-12.797321
1413.329127	-12.813744
1413.995736	-12.833043
1414.662973	-12.848365
1415.330840	-12.867651
1415.999339	-12.882689
1416.668469	-12.901534
1417.338232	-12.917308
1418.008628	-12.934436
1418.679659	-12.951358
1419.351325	-12.967469
1420.023628	-12.986175
1420.696568	-13.001401
1421.370145	-13.020882
1422.044362	-13.036451
1422.719219	-13.056530
1423.394717	-13.072866
1424.070856	-13.091720
1424.747638	-13.108937
1425.425064	-13.126443
1426.103134	-13.144590
1426.781850	-13.160013
1427.461212	-13.178299
1428.141221	-13.192648
1428.821878	-13.211420
1429.503185	-13.225632
1430.185141	-13.244227
1430.867749	-13.259744
1431.551008	-13.278839
1432.234920	-13.296777
1432.919486	-13.315776
1433.604707	-13.335749
1434.290583	-13.354680
1434.977116	-13.376447
1435.664307	-13.394552
1436.352156	-13.416115
1437.040664	-13.432743
1437.729833	-13.453196
1438.419663	-13.468526
1439.110156	-13.486792
1439.801312	-13.501137
1440.493132	-13.517738
1441.185617	-13.532770
1441.878768	-13.548936
1442.572586	-13.566060
1443.267072	-13.583308
1443.962228	-13.604054
1444.658053	-13.623710
1445.354549	-13.648144
1446.051717	-13.670176
1446.749558	-13.697301
1447.448073	-13.720702
1448.147263	-13.748011
1448.847128	-13.770341
1449.547671	-13.794995
1450.248891	-13.814300
1450.950789	-13.834002
1451.653368	-13.848600
1452.356627	-13.862241
1453.060568	-13.872570
1453.765192	-13.881665
1454.470500	-13.889856
1455.176492	-13.896931
1455.883170	-13.906062
1456.590534	-13.915100
1457.298586	-13.929007
1458.007327	-13.943181
1458.716758	-13.963692
1459.426880	-13.984363
1460.137693	-14.011948
1460.849199	-14.038406
1461.561398	-14.070259
1462.274293	-14.098447
1462.987883	-14.129602
1463.702170	-14.154386
1464.417155	-14.178950
1465.132838	-14.194082
1465.849222	-14.206021
1466.566306	-14.207046
1467.284093	-14.203765
1468.002582	-14.189892
1468.721775	-14.171961
1469.441674	-14.145530
1470.162278	-14.117443
1470.883590	-14.084920
1471.605609	-14.054087
1472.328338	-14.022730
1473.051777	-13.996100
1473.775928	-13.972543
1474.500790	-13.956114
1475.226367	-13.944836
1475.952657	-13.941051
1476.679663	-13.942219
1477.407386	-13.949397
1478.135826	-13.959366
1478.864985	-13.971790
1479.594863	-13.982641
1480.325463	-13.990493
1481.056784	-13.991101
1481.788828	-13.982607
1482.521597	-13.961013
1483.255090	-13.924905
1483.989309	-13.871317
1484.724256	-13.800305
1485.459931	-13.710682
1486.196336	-13.604308
1486.933471	-13.481832
1487.671337	-13.347021
1488.409937	-13.201921
1489.149270	-13.051568
1489.889337	-12.898229
1490.630141	-12.747275
1491.371682	-12.600366
1492.113961	-12.462659
1492.856979	-12.334545
1493.600738	-12.220409
1494.345238	-12.119043
1495.090481	-12.033988
1495.836467	-11.962545
1496.583198	-11.907556
1497.330675	-11.864872
1498.078899	-11.836711
1498.827872	-11.817753
1499.577593	-11.809879
1500.328065	-11.806813
1501.079289	-11.809995
1501.831265	-11.812251
1502.583995	-11.814499
1503.337480	-11.808963
1504.091721	-11.796037
1504.846719	-11.767656
1505.602475	-11.723924
1506.358991	-11.657335
1507.116268	-11.568583
1507.874306	-11.452358
1508.633108	-11.311100
1509.392673	-11.142971
1510.153004	-10.952826
1510.914101	-10.742711
1511.675965	-10.519442
1512.438599	-10.288235
1513.202002	-10.056432
1513.966176	-9.830789
1514.731122	-9.617731
1515.496842	-9.424332
1516.263336	-9.255527
1517.030607	-9.118123
1517.798654	-9.015629
1518.567479	-8.954513
1519.337083	-8.937449
1520.107468	-8.970927
1520.878634	-9.057844
1521.650584	-9.205291
1522.423317	-9.417641
1523.196836	-9.703539
1523.971141	-10.070652
1524.746233	-10.531006
1525.522115	-11.098679
1526.298786	-11.792975
1527.076249	-12.641114
1527.854504	-13.680227
1528.633553	-14.969982
1529.413397	-16.601737
1530.194037	-18.746630
1530.975474	-21.748890
1531.757709	-26.548493
1532.540745	-37.118401
1533.324581	-31.089964
1534.109220	-23.977624
1534.894662	-20.098210
1535.680909	-17.474866
1536.467961	-15.530237
1537.255821	-14.017248
1538.044489	-12.811486
1538.833967	-11.837040
1539.624256	-11.049052
1540.415357	-10.414238
1541.207271	-9.911270
1542.000000	-9.522537
1542.793545	-9.235133
1543.587907	-9.038469
1544.383087	-8.922539
1545.179088	-8.879786
1545.975909	-8.900758
1546.773552	-8.978378
1547.572019	-9.102747
1548.371311	-9.265434
1549.171428	-9.455911
1549.972373	-9.663397
1550.774147	-9.877472
1551.576751	-10.086160
1552.380185	-10.281001
1553.184453	-10.452272
1553.989554	-10.595526
1554.795490	-10.707166
1555.602263	-10.787426
1556.409873	-10.839846
1557.218322	-10.867760
1558.027612	-10.878694
1558.837743	-10.876928
1559.648717	-10.869541
1560.460536	-10.860902
1561.273200	-10.855118
1562.086710	-10.856515
1562.901069	-10.866230
1563.716278	-10.888199
1564.532337	-10.922359
1565.349249	-10.971383
1566.167014	-11.035761
1566.985634	-11.116119
1567.805111	-11.214158
1568.625444	-11.328620
1569.446637	-11.461570
1570.268690	-11.610887
1571.091605	-11.777320
1571.915382	-11.959155
1572.740024	-12.154488
1573.565532	-12.362371
1574.391907	-12.578271
1575.219150	-12.801185
1576.047262	-13.025218
1576.876246	-13.247742
1577.706103	-13.463412
1578.536833	-13.667010
1579.368439	-13.855053
1580.200922	-14.020683
1581.034282	-14.162438
1581.868522	-14.274617
1582.703643	-14.356936
1583.539646	-14.407817
1584.376532	-14.427426
1585.214304	-14.419124
1586.052962	-14.383459
1586.892508	-14.326599
1587.732943	-14.250259
1588.574269	-14.159891
1589.416487	-14.059061
1590.259599	-13.950295
1591.103605	-13.838260
1591.948508	-13.723052
1592.794309	-13.608356
1593.641009	-13.494014
1594.488609	-13.380923
1595.337112	-13.270069
1596.186518	-13.159835
1597.036829	-13.051714
1597.888047	-12.943760
1598.740172	-12.836273
1599.593207	-12.728939
1600.447153	-12.620461
1601.302010	-12.511967
1602.157782	-12.402040
1603.014469	-12.291610
1603.872072	-12.180741
1604.730593	-12.069323
1605.590034	-11.958878
1606.450397	-11.849045
1607.311681	-11.741327
1608.173890	-11.636233
1609.037024	-11.534273
1609.901085	-11.436940
1610.766075	-11.344189
1611.631995	-11.257362
1612.498846	-11.176736
1613.366630	-11.102750
1614.235349	-11.036299
1615.105004	-10.976982
1615.975596	-10.925577
1616.847128	-10.881665
1617.719600	-10.845114
1618.593014	-10.815979
1619.467372	-10.793208
1620.342675	-10.776865
1621.218924	-10.765907
1622.096122	-10.759643
1622.974270	-10.757714
1623.853369	-10.758654
1624.733420	-10.762314
1625.614427	-10.767622
1626.496389	-10.773766
1627.379308	-10.780682
1628.263187	-10.787053
1629.148026	-10.793082
1630.033828	-10.798312
1630.920593	-10.802193
1631.808324	-10.805462
1632.697022	-10.807496
1633.586688	-10.808954
1634.477324	-10.810453
1635.368932	-10.811738
1636.261514	-10.814200
1637.155070	-10.817808
1638.049602	-10.822965
1638.945113	-10.830784
1639.841603	-10.840668
1640.739075	-10.853451
1641.637529	-10.869282
1642.536968	-10.887395
1643.437393	-10.908625
1644.338806	-10.932056
1645.241209	-10.957250
1646.144602	-10.984581
1647.048988	-11.012576
1647.954368	-11.041384
1648.860744	-11.070761
1649.768118	-11.099413
1650.676491	-11.128035
1651.585865	-11.155958
1652.496241	-11.182645
1653.407621	-11.209050
1654.320008	-11.234343
1655.233401	-11.258798
1656.147804	-11.283283
1657.063218	-11.307008
1657.979645	-11.330874
1658.897085	-11.355317
1659.815542	-11.379731
1660.735016	-11.405204
1661.655509	-11.431593
1662.577023	-11.458485
1663.499560	-11.486749
1664.423121	-11.515694
1665.347709	-11.545066
1666.273324	-11.575387
1667.199969	-11.605677
1668.127645	-11.636058
1669.056353	-11.666807
1669.986097	-11.697086
1670.916877	-11.727315
1671.848695	-11.757640
1672.781553	-11.787501
1673.715452	-11.817649
1674.650395	-11.848022
1675.586383	-11.878377
1676.523418	-11.909433
1677.461501	-11.940928
1678.400635	-11.972824
1679.340821	-12.005626
1680.282061	-12.038963
1681.224357	-12.072892
1682.167710	-12.107680
1683.112122	-12.142860
1684.057595	-12.178550
1685.004132	-12.214824
1685.951732	-12.251286
1686.900400	-12.288223
1687.850135	-12.325653
1688.800940	-12.363340
1689.752818	-12.401661
1690.705768	-12.440571
1691.659795	-12.479982
1692.614898	-12.520294
1693.571081	-12.561351
1694.528345	-12.603081
1695.486691	-12.645719
1696.446122	-12.688929
1697.406640	-12.732638
1698.368245	-12.777011
1699.330941	-12.821745
1700.294729	-12.866973
1701.259611	-12.912823
1702.225588	-12.959096
1703.192664	-13.005911
1704.160838	-13.053364
1705.130114	-13.101142
1706.100493	-13.149407
1707.071977	-13.198162
1708.044568	-13.247050
1709.018268	-13.296295
1709.993079	-13.345829
1710.969003	-13.395307
1711.946041	-13.444998
1712.924196	-13.494845
1713.903469	-13.544468
1714.883862	-13.594162
1715.865378	-13.643898
1716.848017	-13.693322
1717.831783	-13.742874
1718.816677	-13.792690
1719.802701	-13.842395
1720.789857	-13.892413
1721.778147	-13.942978
1722.767573	-13.993582
1723.758136	-14.044494
1724.749840	-14.095985
1725.742685	-14.147439
1726.736673	-14.198993
1727.731808	-14.251063
1728.728090	-14.303066
1729.725521	-14.355027
1730.724105	-14.407520
1731.723842	-14.460111
1732.724735	-14.512633
1733.726785	-14.565607
1734.729995	-14.618622
1735.734366	-14.671301
1736.739902	-14.724096
1737.746603	-14.776771
1738.754472	-14.828836
1739.763510	-14.880687
1740.773721	-14.932378
1741.785105	-14.983418
1742.797665	-15.034061
1743.811403	-15.084483
1744.826321	-15.134143
1745.842422	-15.183165
1746.859706	-15.231832
1747.878177	-15.279656
1748.897835	-15.326560
1749.918685	-15.372897
1750.940726	-15.418384
1751.963963	-15.462817
1752.988395	-15.506555
1754.014027	-15.549537
1755.040860	-15.591455
1756.068895	-15.632615
1757.098135	-15.673157
1758.128583	-15.712700
1759.160240	-15.751388
1760.193109	-15.789445
1761.227191	-15.826452
1762.262488	-15.862306
1763.299004	-15.897303
1764.336740	-15.931227
1765.375697	-15.963785
1766.415880	-15.995197
1767.457288	-16.025530
1768.499926	-16.054483
1769.543794	-16.082084
1770.588895	-16.108473
1771.635231	-16.133386
1772.682805	-16.156584
1773.731619	-16.178091
1774.781674	-16.197818
1775.832973	-16.215591
1776.885519	-16.231454
1777.939312	-16.245566
1778.994357	-16.257933
1780.050654	-16.268564
1781.108207	-16.277559
1782.167017	-16.284946
1783.227087	-16.290647
1784.288418	-16.294453
1785.351013	-16.296158
1786.414875	-16.295724
1787.480006	-16.293142
1788.546407	-16.288373
1789.614082	-16.281574
1790.683032	-16.273146
1791.753259	-16.263250
1792.824767	-16.251762
1793.897557	-16.238769
1794.971632	-16.224358
1796.046994	-16.208312
1797.123645	-16.190487
1798.201588	-16.171106
1799.280824	-16.150403
1800.361357	-16.128410
1801.443188	-16.105363
1802.526320	-16.081666
1803.610756	-16.057391
1804.696497	-16.032406
1805.783546	-16.006832
1806.871906	-15.980813
1807.961578	-15.954220
1809.052565	-15.926911
1810.144870	-15.899045
1811.238494	-15.870659
1812.333441	-15.841621
1813.429713	-15.812071
1814.527311	-15.782253
1815.626239	-15.752127
1816.726499	-15.721530
1817.828094	-15.690475
1818.931025	-15.658905
1820.035295	-15.626599
1821.140906	-15.593534
1822.247862	-15.559938
1823.356165	-15.525957
1824.465816	-15.491631
1825.576819	-15.457086
1826.689175	-15.422401
1827.802888	-15.387327
1828.917960	-15.351512
1830.034394	-15.314876
1831.152191	-15.277515
1832.271354	-15.239429
1833.391887	-15.200679
1834.513790	-15.161524
1835.637068	-15.122122
1836.761722	-15.082393
1837.887755	-15.042295
1839.015169	-15.001931
1840.143968	-14.961327
1841.274153	-14.920426
1842.405727	-14.879266
1843.538693	-14.838016
1844.673053	-14.796799
1845.808810	-14.755611
1846.945966	-14.714458
1848.084525	-14.673430
1849.224488	-14.632627
1850.365858	-14.592087
1851.508638	-14.551860
1852.652831	-14.511994
1853.798438	-14.472407
1854.945463	-14.432886
1856.093909	-14.393266
1857.243777	-14.353471
1858.395071	-14.313593
1859.547794	-14.273881
1860.701947	-14.234524
1861.857533	-14.195549
1863.014556	-14.156919
1864.173018	-14.118591
1865.332922	-14.080599
1866.494270	-14.043010
1867.657065	-14.005901
1868.821309	-13.969365
1869.987006	-13.933482
1871.154158	-13.898242
1872.322768	-13.863626
1873.492839	-13.829670
1874.664373	-13.796386
1875.837373	-13.763684
1877.011841	-13.731448
1878.187782	-13.699608
1879.365197	-13.668113
1880.544089	-13.636848
1881.724460	-13.605728
1882.906315	-13.574770
1884.089655	-13.544063
1885.274483	-13.513689
1886.460803	-13.483663
1887.648616	-13.453923
1888.837927	-13.424387
1890.028736	-13.394975
1891.221049	-13.365728
1892.414866	-13.336830
1893.610192	-13.308424
1894.807028	-13.280520
1896.005379	-13.252993
1897.205246	-13.225660
1898.406633	-13.198379
1899.609542	-13.171102
1900.813977	-13.143910
1902.019940	-13.116983
1903.227434	-13.090427
1904.436462	-13.064151
1905.647028	-13.037976
1906.859133	-13.011807
1908.072781	-12.985711
1909.287976	-12.959819
1910.504719	-12.934203
1911.723013	-12.908880
1912.942863	-12.883819
1914.164270	-12.858992
1915.387238	-12.834300
1916.611770	-12.809662
1917.837868	-12.785084
1919.065536	-12.760684
1920.294777	-12.736564
1921.525594	-12.712757
1922.757989	-12.689236
1923.991967	-12.666008
1925.227529	-12.643100
1926.464679	-12.620528
1927.703420	-12.598278
1928.943755	-12.576350
1930.185688	-12.554745
1931.429221	-12.533515
1932.674356	-12.512759
1933.921099	-12.492581
1935.169451	-12.473083
1936.419415	-12.454278
1937.670996	-12.436076
1938.924195	-12.418385
1940.179017	-12.401152
1941.435463	-12.384469
1942.693538	-12.368493
1943.953245	-12.353274
1945.214586	-12.338723
1946.477566	-12.324623
1947.742186	-12.310789
1949.008451	-12.297130
1950.276363	-12.283692
1951.545926	-12.270561
1952.817143	-12.257792
1954.090017	-12.245354
1955.364551	-12.233170
1956.640749	-12.221165
1957.918615	-12.209262
1959.198150	-12.197419
1960.479359	-12.185581
1961.762244	-12.173751
1963.046810	-12.161963
1964.333059	-12.150293
1965.620995	-12.138846
1966.910621	-12.127651
1968.201940	-12.116624
1969.494956	-12.105587
1970.789672	-12.094394
1972.086091	-12.083084
1973.384217	-12.071929
1974.684053	-12.061232
1975.985602	-12.051087
1977.288869	-12.041263
1978.593855	-12.031440
1979.900566	-12.021400
1981.209003	-12.011173
1982.519171	-12.000959
1983.831073	-11.990971
1985.144712	-11.981333
1986.460093	-11.972048
1987.777217	-11.963046
1989.096089	-11.954288
1990.416713	-11.945845
1991.739092	-11.937950
1993.063228	-11.930822
1994.389127	-11.924540
1995.716791	-11.918954
1997.046223	-11.913792
1998.377428	-11.908904
1999.710409	-11.904379
2001.045169	-11.900527
2002.381713	-11.897614
2003.720043	-11.895660
2005.060163	-11.894377
2006.402077	-11.893427
2007.745788	-11.892654
2009.091301	-11.892227
2010.438618	-11.892486
2011.787743	-11.893681
2013.138680	-11.895757
2014.491433	-11.898252
2015.846005	-11.900661
2017.202399	-11.902811
2018.560621	-11.905001
2019.920673	-11.907624
2021.282558	-11.910716
2022.646281	-11.913987
2024.011846	-11.917094
2025.379256	-11.919951
2026.748515	-11.922664
2028.119626	-11.925387
2029.492594	-11.928238
2030.867422	-11.931232
2032.244114	-11.934284
2033.622673	-11.937210
2035.003104	-11.939969
2036.385411	-11.942773
2037.769597	-11.945925
2039.155665	-11.949524
2040.543621	-11.953453
2041.933467	-11.957471
2043.325208	-11.961481
2044.718847	-11.965433
2046.114389	-11.969525
2047.511837	-11.974036
2048.911195	-11.979257
2050.312467	-11.985091
2051.715657	-11.991168
2053.120769	-11.997195
2054.527807	-12.003383
2055.936775	-12.010281
2057.347677	-12.018245
2058.760516	-12.027209
2060.175297	-12.036932
2061.592025	-12.047408
2063.010701	-12.058798
2064.431332	-12.071236
2065.853921	-12.084623
2067.278472	-12.098766
2068.704988	-12.113509
2070.133475	-12.128813
2071.563936	-12.144648
2072.996375	-12.160918
2074.430796	-12.177552
2075.867204	-12.194598
2077.305603	-12.212230
2078.745996	-12.230544
2080.188389	-12.249415
2081.632784	-12.268538
2083.079187	-12.287788
2084.527601	-12.307493
2085.978030	-12.328154
2087.430480	-12.349776
2088.884954	-12.371677
2090.341455	-12.393191
2091.799990	-12.414224
2093.260561	-12.435111
2094.723173	-12.455945
2096.187831	-12.476326
2097.654538	-12.495790
2099.123300	-12.514362
2100.594119	-12.532666
2102.067001	-12.551384
2103.541950	-12.570727
2105.018971	-12.590577
2106.498067	-12.611088
2107.979243	-12.632828
2109.462503	-12.656353
2110.947853	-12.681731
2112.435295	-12.708774
2113.924836	-12.737368
2115.416478	-12.767496
2116.910227	-12.798900
2118.406087	-12.831241
2119.904063	-12.864509
2121.404158	-12.898903
2122.906378	-12.934211
2124.410727	-12.969659
2125.917210	-13.004492
2127.425831	-13.038704
2128.936594	-13.072973
2130.449505	-13.107758
2131.964567	-13.142647
2133.481786	-13.176925
2135.001166	-13.210648
2136.522711	-13.244861
2138.046427	-13.280424
2139.572317	-13.316992
2141.100388	-13.353699
2142.630642	-13.390412
2144.163085	-13.427821
2145.697722	-13.466369
2147.234558	-13.505697
2148.773596	-13.545108
2150.314842	-13.584150
2151.858301	-13.622698
2153.403977	-13.660757
2154.951875	-13.698661
2156.502000	-13.736840
2158.054357	-13.775364
2159.608950	-13.813701
2161.165785	-13.851670
2162.724866	-13.890238
2164.286198	-13.930986
2165.849786	-13.974522
2167.415635	-14.019981
2168.983749	-14.066530
2170.554134	-14.114631
2172.126795	-14.165572
2173.701737	-14.219720
2175.278964	-14.276053
2176.858481	-14.333372
2178.440294	-14.391493
2180.024408	-14.450851
2181.610827	-14.511432
2183.199557	-14.572620
2184.790602	-14.633775
2186.383968	-14.694651
2187.979660	-14.755587
2189.577683	-14.817273
2191.178041	-14.880152
2192.780741	-14.944042
2194.385787	-15.008521
2195.993185	-15.073632
2197.602939	-15.140188
2199.215054	-15.209147
2200.829537	-15.280273
2202.446392	-15.351934
2204.065624	-15.423127
2205.687239	-15.494729
2207.311242	-15.567893
2208.937638	-15.641673
2210.566433	-15.713946
2212.197631	-15.784155
2213.831239	-15.853694
2215.467261	-15.923514
2217.105703	-15.992768
2218.746570	-16.060169
2220.389867	-16.125705
2222.035601	-16.190787
2223.683776	-16.256608
2225.334398	-16.323054
2226.987472	-16.389627
2228.643004	-16.456726
2230.300999	-16.525237
2231.961463	-16.595781
2233.624402	-16.668337
2235.289820	-16.741970
2236.957723	-16.815885
2238.628118	-16.891089
2240.301009	-16.969461
2241.976402	-17.050447
2243.654303	-17.131714
2245.334717	-17.213168
2247.017650	-17.297250
2248.703108	-17.385195
2250.391096	-17.475445
2252.081620	-17.566305
2253.774686	-17.658078
2255.470300	-17.751927
2257.168467	-17.848071
2258.869193	-17.945781
2260.572484	-18.044838
2262.278345	-18.146104
2263.986783	-18.250172
2265.697804	-18.356455
2267.411412	-18.464112
2269.127615	-18.572860
2270.846417	-18.683306
2272.567826	-18.796167
2274.291846	-18.910848
2276.018484	-19.025500
2277.747745	-19.139315
2279.479637	-19.252813
2281.214164	-19.366302
2282.951333	-19.479401
2284.691149	-19.591604
2286.433619	-19.702028
2288.178750	-19.810041
2289.926546	-19.915788
2291.677014	-20.019359
2293.430161	-20.120934
2295.185992	-20.222310
2296.944513	-20.324644
2298.705732	-20.425931
2300.469653	-20.524664
2302.236283	-20.623123
2304.005629	-20.724342
2305.777696	-20.828486
2307.552492	-20.933097
2309.330022	-21.037575
2311.110292	-21.145274
2312.893310	-21.257417
2314.679080	-21.370950
2316.467611	-21.485668
2318.258907	-21.605239
2320.052976	-21.730495
2321.849824	-21.858050
2323.649457	-21.985146
2325.451883	-22.113111
2327.257106	-22.245127
2329.065135	-22.381413
2330.875975	-22.518855
2332.689633	-22.656413
2334.506116	-22.797260
2336.325430	-22.943385
2338.147581	-23.091666
2339.972578	-23.238466
2341.800425	-23.386051
2343.631130	-23.538654
2345.464700	-23.693449
2347.301141	-23.845588
2349.140461	-23.995930
2350.982665	-24.145484
2352.827760	-24.292341
2354.675754	-24.435279
2356.526653	-24.572399
2358.380464	-24.702882
2360.237195	-24.829256
2362.096851	-24.952450
2363.959440	-25.071645
2365.824968	-25.189406
2367.693444	-25.308760
2369.564873	-25.425061
2371.439263	-25.534274
2373.316620	-25.646111
2375.196953	-25.769480
2377.080267	-25.895794
2378.966570	-26.017493
2380.855869	-26.145437
2382.748171	-26.286673
2384.643484	-26.430912
2386.541815	-26.573619
2388.443170	-26.723449
2390.347557	-26.884305
2392.254984	-27.050122
2394.165457	-27.213849
2396.078984	-27.378383
2397.995572	-27.553000
2399.915229	-27.733639
2401.837961	-27.908868
2403.763777	-28.082851
2405.692684	-28.268633
2407.624689	-28.462732
2409.559800	-28.649451
2411.498023	-28.832707
2413.439368	-29.028935
2415.383840	-29.231143
2417.331449	-29.421660
2419.282201	-29.605327
2421.236104	-29.793087
2423.193165	-29.974649
2425.153393	-30.133413
2427.116795	-30.276044
2429.083378	-30.417521
2431.053151	-30.548149
2433.026121	-30.656627
2435.002297	-30.756648
2436.981685	-30.857493
2438.964293	-30.954945
2440.950131	-31.052089
2442.939204	-31.153486
2444.931522	-31.258243
2446.927092	-31.370281
2448.925923	-31.494865
2450.928022	-31.627627
2452.933397	-31.765952
2454.942056	-31.914466
2456.954008	-32.076738
2458.969260	-32.259197
2460.987821	-32.452892
2463.009699	-32.645035
2465.034902	-32.856310
2467.063437	-33.083009
2469.095315	-33.290320
2471.130542	-33.504991
2473.169127	-33.760594
2475.211078	-34.010243
2477.256404	-34.229896
2479.305112	-34.467290
2481.357212	-34.730280
2483.412713	-34.982003
2485.471621	-35.220939
2487.533946	-35.474493
2489.599696	-35.741560
2491.668880	-35.977543
2493.741507	-36.180406
2495.817585	-36.410922
2497.897122	-36.630739
2499.980127	-36.752243
2502.066609	-36.840153
2504.156578	-36.948630
2506.250040	-37.004156
2508.347006	-37.005522
2510.447483	-37.028531
2512.551482	-37.070379
2514.659010	-37.081934
2516.770076	-37.094420
2518.884690	-37.170858
2521.002861	-37.271425
2523.124597	-37.340787
2525.249907	-37.447430
2527.378801	-37.617642
2529.511287	-37.762838
2531.647375	-37.903512
2533.787074	-38.117121
2535.930393	-38.355548
2538.077340	-38.566090
2540.227927	-38.814408
2542.382160	-39.120344
2544.540051	-39.398384
2546.701608	-39.667143
2548.866840	-40.011849
2551.035757	-40.366165
2553.208369	-40.682050
2555.384684	-41.070742
2557.564713	-41.497677
2559.748465	-41.854208
2561.935948	-42.243356
2564.127174	-42.699040
2566.322152	-43.098095
2568.520890	-43.450144
2570.723399	-43.817991
2572.929689	-44.151645
2575.139769	-44.348328
2577.353649	-44.438750
2579.571340	-44.470840
2581.792849	-44.337785
2584.018189	-44.157154
2586.247368	-44.049985
2588.480396	-43.882798
2590.717284	-43.685853
2592.958041	-43.575519
2595.202678	-43.530551
2597.451204	-43.493935
2599.703630	-43.460306
2601.959966	-43.491644
2604.220222	-43.538428
2606.484408	-43.573799
2608.752535	-43.695043
2611.024612	-43.842135
2613.300651	-43.968303
2615.580661	-44.144519
2617.864653	-44.377055
2620.152638	-44.642159
2622.444625	-44.899219
2624.740626	-45.195534
2627.040651	-45.577082
2629.344710	-45.923046
2631.652814	-46.344537
2633.964974	-46.913940
2636.281200	-47.403339
2638.601504	-47.935604
2640.925896	-48.675871
2643.254386	-49.455845
2645.586987	-50.261880
2647.923707	-51.220847
2650.264559	-52.226041
2652.609554	-53.119994
2654.958702	-53.958393
2657.312015	-54.604711
2659.669503	-54.506950
2662.031178	-54.072115
2664.397051	-53.502082
2666.767132	-52.876491
2669.141434	-52.359000
2671.519968	-51.863839
2673.902745	-51.523420
2676.289776	-51.313185
2678.681072	-51.038239
2681.076646	-50.779984
2683.476508	-50.555009
2685.880671	-50.354117
2688.289145	-50.318359
2690.701942	-50.297006
2693.119075	-50.020204
2695.540554	-49.955851
2697.966391	-50.158696
2700.396599	-50.126215
2702.831189	-50.134085
2705.270172	-50.298116
2707.713561	-50.339751
2710.161368	-50.431148
2712.613605	-50.813598
2715.070283	-51.033527
2717.531416	-51.146506
2719.997014	-51.837650
2722.467090	-52.498950
2724.941657	-52.874376
2727.420726	-53.801789
2729.904310	-54.905989
2732.392421	-55.958080
2734.885072	-57.552579
2737.382275	-59.425238
2739.884042	-60.759890
2742.390387	-63.427714
2744.901321	-66.348255
2747.416857	-64.999614
2749.937008	-65.062589
2752.461787	-64.580050
2754.991206	-63.735765
2757.525279	-63.539561
2760.064017	-62.969987
2762.607434	-62.646777
2765.155544	-62.758393
2767.708358	-61.282561
2770.265890	-60.643586
2772.828153	-60.903636
2775.395160	-59.687701
2777.966924	-58.714902
2780.543459	-58.597825
2783.124778	-58.188507
2785.710894	-57.578978
2788.301821	-57.257177
2790.897572	-56.467056
2793.498160	-56.315830
2796.103599	-56.298842
2798.713903	-55.668686
2801.329085	-55.617738
2803.949159	-55.975353
2806.574139	-56.164387
2809.204038	-56.435740
2811.838871	-57.061651
2814.478650	-57.641649
2817.123391	-58.759787
2819.773107	-59.631033
2822.427812	-60.825314
2825.087521	-62.501779
2827.752247	-63.873470
2830.422005	-66.098527
2833.096808	-65.916801
2835.776672	-65.997970
2838.461611	-67.015452
2841.151638	-66.476257
2843.846769	-66.763916
2846.547019	-67.832990
2849.252401	-67.693079
2851.962930	-70.371601
2854.678621	-71.946784
2857.399489	-73.063048
2860.125549	-76.424852
2862.856815	-84.882561
2865.593302	-86.158168
2868.335026	-88.477292
2871.082002	-73.930508
2873.834244	-69.893929
2876.591767	-69.368178
2879.354588	-66.771837
2882.122721	-64.844513
2884.896181	-64.072500
2887.674984	-62.550726
2890.459146	-62.889302
2893.248681	-62.305738
2896.043606	-61.937120
2898.843937	-62.875911
2901.649687	-62.685333
2904.460875	-62.791701
2907.277515	-64.282662
2910.099623	-65.180338
2912.927215	-66.485531
2915.760308	-68.450598
2918.598916	-71.052220
2921.443057	-70.765257
2924.292747	-72.029433
2927.148002	-70.643156
2930.008837	-69.422330
2932.875270	-69.612064
2935.747318	-68.990757
2938.624995	-69.616615
2941.508320	-69.144385
2944.397308	-69.034113
2947.291977	-69.722550
2950.192343	-68.492638
2953.098423	-68.975560
2956.010234	-69.353175
2958.927792	-69.819911
2961.851116	-69.989479
2964.780221	-71.605213
2967.715126	-73.614134
2970.655847	-72.353255
2973.602402	-72.767513
2976.554808	-75.067861
2979.513083	-74.783816
2982.477243	-72.139391
2985.447308	-70.506265
2988.423293	-71.673002
2991.405218	-70.743560
2994.393099	-68.907366
2997.386955	-70.393030
