# 2022-03-21_23.16.12
# shape = sech2
# FWHM_ps = 0.1
# carrier_nm = 1542
# frep_MHz = 12126
# pow_mW = 8000
# GDD = 0.0
# propa_len = 0.12555555555555556
# untap_len = 0.01
# taper_len = 0.06555555555555556
# waist_len = 0.02
# uptap_len = 0.02
# untap_scale = 1.0
# waist_scale = 0.17894736842105266
# workingDir = NL_20110305_12 (Spirou)
# axis = slow
# window_ps = 10.0
# steps = 200
# points = 21700
# 
# wavelength [nm]	 power spectral density [dB]
600.043425	-81.206697
600.163550	-79.780549
600.283723	-80.149042
600.403943	-82.805945
600.524212	-90.097786
600.644529	-96.090258
600.764895	-86.052482
600.885308	-83.856982
601.005770	-85.548301
601.126280	-92.703654
601.246839	-89.937628
601.367446	-83.024325
601.488101	-80.395188
601.608804	-80.123064
601.729557	-81.961387
601.850357	-86.072048
601.971206	-88.511666
602.092104	-84.810346
602.213050	-82.540407
602.334045	-82.895545
602.455089	-85.967448
602.576181	-90.202936
602.697322	-85.523620
602.818511	-81.729733
602.939749	-80.596987
603.061036	-81.475651
603.182372	-84.830962
603.303757	-92.254579
603.425191	-90.711623
603.546673	-86.403084
603.668204	-85.956424
603.789785	-89.863066
603.911414	-93.626152
604.033092	-84.797992
604.154820	-80.329092
604.276596	-78.439621
604.398422	-78.415833
604.520297	-79.547131
604.642220	-80.972443
604.764193	-81.025471
604.886216	-80.116855
605.008287	-80.087063
605.130408	-81.719744
605.252578	-86.061502
605.374798	-91.616183
605.497066	-86.410031
605.619385	-83.351245
605.741752	-83.101788
605.864169	-83.425220
605.986636	-81.634012
606.109152	-78.534909
606.231718	-76.474178
606.354333	-75.945148
606.476998	-76.907095
606.599712	-79.654859
606.722476	-84.516677
606.845290	-87.178079
606.968154	-85.160198
607.091067	-85.871573
607.214030	-93.957882
607.337043	-90.148430
607.460106	-82.224241
607.583219	-79.302260
607.706381	-79.035424
607.829594	-81.148000
607.952856	-84.089459
608.076169	-82.206695
608.199531	-78.579907
608.322944	-77.255479
608.446407	-78.007603
608.569920	-80.934729
608.693483	-87.652114
608.817096	-89.468853
608.940759	-85.522035
609.064473	-86.755906
609.188237	-98.757070
609.312051	-85.503255
609.435916	-78.956321
609.559831	-76.135795
609.683796	-75.349828
609.807812	-75.924625
609.931878	-77.288538
610.055995	-77.571233
610.180162	-76.373179
610.304380	-75.675167
610.428648	-76.496745
610.552967	-79.518591
610.677337	-84.278546
610.801757	-83.062848
610.926228	-80.305697
611.050750	-79.971902
611.175323	-80.164610
611.299946	-77.888592
611.424620	-75.035475
611.549345	-73.392434
611.674121	-73.290488
611.798948	-74.963605
611.923826	-78.732112
612.048755	-86.149651
612.173734	-89.169854
612.298765	-88.823778
612.423847	-100.626717
612.548980	-83.429103
612.674165	-76.748113
612.799400	-73.876007
612.924687	-72.990788
613.050025	-73.752976
613.175414	-75.952094
613.300854	-77.258413
613.426346	-76.103011
613.551889	-74.690869
613.677484	-74.989132
613.803130	-77.073084
613.928827	-80.354507
614.054576	-82.300674
614.180377	-82.545833
614.306229	-82.320594
614.432132	-78.098708
614.558087	-73.344272
614.684094	-70.603606
614.810153	-69.392443
614.936263	-69.546614
615.062425	-70.943559
615.188639	-72.789118
615.314904	-73.842607
615.441222	-73.348425
615.567591	-73.098926
615.694012	-73.688022
615.820486	-74.061161
615.947011	-73.650611
616.073588	-73.349176
616.200217	-73.593175
616.326898	-73.404899
616.453632	-71.536140
616.580417	-69.473209
616.707255	-68.426669
616.834144	-68.682109
616.961086	-70.347053
617.088081	-73.562025
617.215127	-78.508369
617.342226	-82.957115
617.469378	-83.079748
617.596581	-79.695610
617.723837	-74.929254
617.851146	-71.717720
617.978507	-70.418584
618.105920	-70.872648
618.233386	-72.767849
618.360905	-74.386049
618.488476	-73.475529
618.616100	-72.419383
618.743777	-72.919190
618.871506	-75.563913
618.999288	-80.493040
619.127123	-81.588864
619.255011	-79.226744
619.382951	-80.012493
619.510945	-81.418160
619.638991	-76.281468
619.767090	-72.221560
619.895243	-70.672170
620.023448	-71.398465
620.151706	-74.503865
620.280017	-80.030175
620.408382	-80.319482
620.536799	-78.298095
620.665270	-80.228946
620.793794	-83.582356
620.922371	-77.952653
621.051002	-74.310907
621.179686	-73.561151
621.308423	-75.060625
621.437213	-77.286392
621.566057	-75.572570
621.694954	-72.790910
621.823905	-72.081563
621.952909	-73.806996
622.081967	-79.122786
622.211079	-102.096954
622.340244	-84.632548
622.469462	-85.287509
622.598735	-94.198765
622.728061	-77.346510
622.857441	-72.163857
622.986874	-70.335273
623.116361	-70.662493
623.245903	-72.478335
623.375498	-73.770367
623.505147	-72.800779
623.634850	-71.930900
623.764606	-72.703889
623.894417	-75.655696
624.024282	-80.575623
624.154201	-81.877634
624.284174	-80.630589
624.414202	-80.258761
624.544283	-76.434025
624.674419	-72.214274
624.804609	-69.851174
624.934853	-69.385654
625.065151	-70.718234
625.195504	-73.424350
625.325911	-75.184683
625.456373	-74.621248
625.586889	-75.003132
625.717460	-77.607121
625.848085	-79.502702
625.978764	-77.171898
626.109498	-75.773916
626.240287	-75.629411
626.371131	-74.427081
626.502029	-72.168444
626.632982	-70.576915
626.763989	-70.320537
626.895052	-71.433301
627.026169	-73.927001
627.157341	-77.492327
627.288568	-80.455975
627.419850	-83.171831
627.551187	-86.759688
627.682579	-80.324218
627.814026	-74.984940
627.945528	-72.641986
628.077085	-72.173236
628.208697	-72.572225
628.340364	-72.499801
628.472087	-71.726220
628.603865	-71.521323
628.735698	-73.023082
628.867586	-77.442698
628.999530	-86.926885
629.131529	-83.149337
629.263584	-80.199081
629.395694	-82.195299
629.527859	-85.131499
629.660080	-79.951380
629.792357	-76.843551
629.924689	-76.511352
630.057077	-77.742481
630.189520	-78.052095
630.322019	-75.984218
630.454574	-74.494265
630.587184	-75.243313
630.719851	-78.169547
630.852573	-79.907070
630.985351	-77.150507
631.118185	-75.585047
631.251075	-77.265258
631.384021	-83.711602
631.517023	-83.242412
631.650081	-78.342447
631.783195	-78.350892
631.916365	-83.006955
632.049592	-84.048285
632.182874	-77.684914
632.316213	-76.044760
632.449608	-77.356040
632.583059	-77.479604
632.716567	-74.078577
632.850131	-72.002303
632.983751	-72.129203
633.117428	-74.902823
633.251161	-81.207451
633.384951	-84.481109
633.518797	-83.369503
633.652700	-90.167466
633.786660	-82.499795
633.920676	-74.990836
634.054749	-71.994387
634.188879	-71.455121
634.323065	-72.520232
634.457308	-73.325206
634.591608	-73.001313
634.725965	-73.320294
634.860379	-75.811920
634.994850	-82.551936
635.129377	-82.004842
635.263962	-76.751585
635.398604	-76.076383
635.533303	-76.792968
635.668058	-74.607057
635.802872	-72.267274
635.937742	-71.811132
636.072669	-73.207740
636.207654	-76.297159
636.342696	-79.688346
636.477796	-81.131564
636.612953	-87.105695
636.748167	-83.174023
636.883439	-75.207314
637.018768	-72.141202
637.154155	-71.553801
637.289599	-72.509243
637.425101	-74.022263
637.560660	-74.906190
637.696277	-75.672931
637.831952	-78.645886
637.967685	-87.842147
638.103475	-82.661206
638.239324	-77.406292
638.375230	-75.802113
638.511194	-74.419113
638.647215	-72.304957
638.783295	-70.873383
638.919433	-70.819160
639.055629	-72.344818
639.191883	-75.984682
639.328195	-81.804477
639.464565	-85.373142
639.600994	-86.028293
639.737481	-83.831334
639.874025	-78.341951
640.010629	-76.085857
640.147290	-76.172314
640.284010	-77.772720
640.420789	-78.683516
640.557625	-77.761016
640.694521	-77.579006
640.831474	-78.751882
640.968487	-79.178535
641.105558	-76.629020
641.242687	-74.845735
641.379876	-75.322748
641.517123	-78.823530
641.654429	-89.133685
641.791793	-88.253809
641.929216	-80.276405
642.066699	-76.305758
642.204240	-73.750793
642.341840	-72.179853
642.479499	-71.851090
642.617217	-73.080855
642.754994	-75.595724
642.892830	-78.551776
643.030726	-80.312833
643.168680	-84.192048
643.306694	-101.127822
643.444767	-81.394647
643.582899	-76.206893
643.721091	-74.234292
643.859342	-73.098277
643.997652	-72.195423
644.136022	-71.734975
644.274451	-72.415525
644.412940	-75.089590
644.551488	-80.307565
644.690096	-85.025069
644.828763	-84.404258
644.967490	-89.339158
645.106277	-87.745605
645.245124	-79.706152
645.384030	-76.867466
645.522997	-76.056357
645.662023	-75.832329
645.801109	-75.552744
645.940255	-76.189251
646.079460	-78.655190
646.218726	-84.666414
646.358052	-88.476875
646.497438	-82.756465
646.636884	-81.124713
646.776391	-79.226319
646.915957	-76.201547
647.055584	-74.574986
647.195271	-74.842497
647.335019	-76.483102
647.474826	-79.270543
647.614695	-82.788613
647.754623	-91.083762
647.894612	-89.004772
648.034662	-80.193069
648.174772	-76.894651
648.314943	-76.012168
648.455174	-76.581557
648.595466	-77.184387
648.735819	-76.642567
648.876233	-76.136390
649.016707	-76.542189
649.157242	-78.159737
649.297838	-81.043915
649.438495	-87.453617
649.579213	-88.999565
649.719992	-80.531780
649.860832	-77.429206
650.001733	-77.128098
650.142695	-78.318238
650.283718	-80.016383
650.424803	-80.242550
650.565949	-79.627435
650.707156	-79.299764
650.848424	-80.248812
650.989754	-83.015419
651.131145	-87.231179
651.272597	-86.143833
651.414111	-84.679336
651.555687	-86.361847
651.697324	-91.843945
651.839022	-92.018335
651.980782	-84.084779
652.122604	-79.203461
652.264488	-75.736499
652.406433	-73.597652
652.548441	-72.532572
652.690510	-72.332725
652.832640	-72.952670
652.974833	-73.886654
653.117088	-75.216665
653.259405	-76.328231
653.401784	-76.531624
653.544224	-76.085054
653.686727	-75.280201
653.829293	-74.056660
653.971920	-72.331848
654.114609	-71.031268
654.257361	-70.835594
654.400175	-71.668061
654.543052	-73.281109
654.685991	-75.167281
654.828992	-76.687204
654.972056	-77.055779
655.115183	-76.529620
655.258372	-75.706187
655.401623	-74.778103
655.544937	-73.642703
655.688314	-72.321670
655.831754	-71.675362
655.975256	-72.011366
656.118822	-73.397585
656.262450	-75.634295
656.406141	-77.882221
656.549894	-80.155943
656.693711	-83.633526
656.837591	-87.563447
656.981534	-84.549220
657.125540	-80.105157
657.269610	-77.713414
657.413742	-76.471612
657.557938	-76.281655
657.702196	-77.003620
657.846519	-78.515389
657.990904	-80.401849
658.135353	-81.929670
658.279866	-84.065466
658.424441	-89.400133
658.569081	-93.378491
658.713784	-84.514871
658.858550	-80.618844
659.003381	-79.338032
659.148274	-79.080902
659.293232	-79.400782
659.438253	-80.005454
659.583339	-81.117484
659.728488	-83.089231
659.873701	-85.534742
660.018978	-88.155338
660.164318	-87.479656
660.309723	-83.097062
660.455192	-79.209129
660.600725	-77.014962
660.746323	-76.738855
660.891984	-78.461155
661.037710	-82.221122
661.183500	-87.140517
661.329354	-92.882753
661.475272	-92.935528
661.621255	-86.339629
661.767303	-84.433089
661.913415	-85.446855
662.059591	-85.653330
662.205833	-82.090091
662.352138	-80.309886
662.498509	-80.597649
662.644944	-83.430422
662.791443	-90.549224
662.938008	-92.376990
663.084638	-83.006812
663.231332	-77.679097
663.378091	-74.362247
663.524915	-73.014384
663.671804	-73.436055
663.818759	-75.474875
663.965778	-78.635448
664.112863	-80.931655
664.260012	-78.875374
664.407227	-75.702140
664.554507	-73.948398
664.701853	-73.237399
664.849264	-72.797806
664.996740	-72.642131
665.144282	-73.605346
665.291889	-76.099452
665.439561	-80.715609
665.587300	-87.834618
665.735103	-82.455740
665.882973	-77.817005
666.030908	-75.969223
666.178909	-75.612790
666.326976	-76.074075
666.475109	-77.814595
666.623307	-81.709874
666.771571	-84.547562
666.919902	-79.274198
667.068298	-75.005477
667.216761	-72.985100
667.365289	-73.103262
667.513884	-75.111495
667.662545	-78.170734
667.811272	-83.694435
667.960065	-87.906868
668.108925	-77.585397
668.257851	-74.923169
668.406843	-75.261531
668.555902	-74.397663
668.705027	-72.191832
668.854219	-71.949244
669.003478	-73.740759
669.152803	-75.811462
669.302195	-77.811647
669.451653	-86.494800
669.601179	-82.676503
669.750771	-74.509535
669.900430	-71.666492
670.050156	-70.570027
670.199949	-70.116680
670.349808	-70.263719
670.499735	-71.779382
670.649729	-76.157357
670.799790	-86.343134
670.949918	-80.549450
671.100114	-77.278966
671.250377	-73.893132
671.400707	-70.190270
671.551104	-68.616341
671.701569	-69.183909
671.852101	-70.556233
672.002700	-72.051775
672.153368	-76.477423
672.304102	-93.727104
672.454905	-74.492723
672.605775	-70.681479
672.756713	-69.238286
672.907718	-68.147527
673.058791	-67.809468
673.209933	-68.928404
673.361142	-71.563528
673.512419	-76.460856
673.663764	-87.414204
673.815177	-78.766631
673.966658	-73.272061
674.118207	-69.994217
674.269825	-68.001966
674.421510	-67.583619
674.573264	-68.341899
674.725086	-69.283944
674.876977	-71.267650
675.028936	-76.515611
675.180963	-76.363368
675.333059	-71.623876
675.485224	-70.304944
675.637457	-69.825094
675.789758	-69.592122
675.942129	-70.500355
676.094568	-71.869633
676.247075	-71.334051
676.399652	-70.757857
676.552298	-70.816708
676.705012	-70.724075
676.857795	-70.828779
677.010648	-71.025648
677.163569	-71.117481
677.316560	-71.867399
677.469619	-72.118451
677.622748	-71.559950
677.775946	-71.593472
677.929214	-70.511255
678.082551	-68.550958
678.235957	-68.205480
678.389432	-68.592582
678.542977	-68.587292
678.696592	-69.809326
678.850276	-72.127481
679.004030	-70.296840
679.157853	-68.560816
679.311746	-68.379076
679.465709	-67.583810
679.619742	-66.921522
679.773844	-68.017860
679.928017	-70.001471
680.082259	-71.101999
680.236571	-73.714493
680.390954	-74.540770
680.545406	-69.508981
680.699929	-67.125152
680.854522	-66.367361
681.009185	-65.937638
681.163918	-66.270931
681.318722	-68.342450
681.473596	-72.503159
681.628540	-74.052377
681.783555	-70.724203
681.938641	-68.006888
682.093797	-65.986848
682.249023	-64.755645
682.404321	-64.922949
682.559689	-66.493862
682.715128	-67.692398
682.870637	-68.200535
683.026218	-70.173709
683.181869	-70.157401
683.337591	-67.675432
683.493385	-67.572854
683.649249	-68.551692
683.805185	-68.012443
683.961191	-68.951288
684.117269	-72.008739
684.273418	-69.020893
684.429639	-66.314891
684.585930	-65.965229
684.742294	-65.404579
684.898728	-64.845647
685.055234	-66.358966
685.211812	-70.116361
685.368461	-70.949523
685.525182	-69.423461
685.681975	-67.610516
685.838839	-65.047378
685.995775	-63.626091
686.152783	-63.645618
686.309863	-64.495881
686.467014	-65.579453
686.624238	-67.427216
686.781534	-71.345248
686.938902	-73.784183
687.096342	-69.060048
687.253854	-66.450636
687.411438	-65.204146
687.569095	-64.262926
687.726824	-64.382876
687.884626	-66.569347
688.042499	-69.240842
688.200446	-68.643203
688.358465	-68.832498
688.516556	-67.704891
688.674720	-64.908244
688.832957	-64.208367
688.991266	-64.772959
689.149649	-64.175105
689.308104	-64.101387
689.466632	-66.258866
689.625233	-68.468638
689.783906	-68.223774
689.942653	-68.764713
690.101473	-67.730302
690.260367	-65.296330
690.419333	-64.844396
690.578372	-65.886699
690.737485	-65.988005
690.896672	-65.708116
691.055931	-66.699657
691.215264	-67.234188
691.374671	-66.517299
691.534151	-66.862425
691.693704	-67.547770
691.853332	-66.007717
692.013033	-64.970942
692.172807	-65.586873
692.332656	-64.919106
692.492578	-63.380491
692.652575	-63.812409
692.812645	-65.311730
692.972789	-65.701688
693.133007	-68.030082
693.293300	-72.183754
693.453666	-66.075969
693.614107	-63.630529
693.774622	-63.552166
693.935211	-62.900675
694.095875	-63.091420
694.256613	-66.927886
694.417426	-72.018124
694.578313	-67.811641
694.739274	-66.877294
694.900311	-64.691618
695.061421	-62.280620
695.222607	-62.656103
695.383868	-64.322279
695.545203	-64.094185
695.706613	-65.471476
695.868098	-70.831798
696.029658	-67.823534
696.191293	-64.821249
696.353003	-63.768141
696.514789	-62.034118
696.676649	-61.562872
696.838585	-63.668309
697.000596	-67.079716
697.162682	-68.553275
697.324844	-70.378624
697.487081	-67.767442
697.649394	-64.080383
697.811782	-63.000900
697.974246	-62.956938
698.136786	-62.825922
698.299401	-64.015227
698.462092	-67.489672
698.624859	-67.927539
698.787702	-65.021216
698.950621	-63.557370
699.113616	-62.615423
699.276686	-62.449645
699.439833	-64.327140
699.603056	-67.832237
699.766355	-66.876150
699.929731	-64.939652
700.093183	-64.150846
700.256711	-63.103805
700.420315	-63.301298
700.583996	-65.505644
700.747754	-66.058849
700.911588	-65.449363
701.075499	-66.867914
701.239486	-65.915797
701.403550	-63.730084
701.567691	-63.367976
701.731909	-62.925680
701.896203	-62.370636
702.060575	-64.100720
702.225024	-66.602877
702.389549	-64.690895
702.554152	-64.042853
702.718832	-64.018766
702.883589	-62.660667
703.048424	-62.934820
703.213335	-64.619326
703.378324	-64.225078
703.543391	-64.607802
703.708535	-67.234425
703.873757	-65.776412
704.039056	-63.869076
704.204433	-63.634731
704.369887	-62.430695
704.535420	-62.109337
704.701030	-64.350764
704.866718	-65.005724
705.032484	-63.097200
705.198328	-62.913717
705.364250	-62.440798
705.530250	-61.942132
705.696328	-63.671575
705.862485	-65.291848
706.028720	-63.616656
706.195033	-63.607386
706.361424	-64.127329
706.527894	-62.730144
706.694442	-62.723739
706.861069	-63.503586
707.027775	-62.740223
707.194559	-63.774717
707.361422	-66.705980
707.528363	-64.051111
707.695384	-62.203612
707.862483	-61.801530
708.029661	-60.761349
708.196918	-60.894163
708.364254	-62.632881
708.531670	-62.326080
708.699164	-61.692831
708.866738	-63.455931
709.034391	-63.985750
709.202123	-63.014028
709.369935	-63.339236
709.537826	-61.793913
709.705796	-60.900459
709.873847	-62.925049
710.041976	-64.414989
710.210186	-63.070328
710.378475	-62.834335
710.546844	-61.277496
710.715292	-59.915131
710.883821	-60.956089
711.052429	-61.842029
711.221118	-61.005081
711.389887	-62.044005
711.558735	-62.474111
711.727664	-60.895738
711.896673	-61.211401
712.065763	-61.365889
712.234932	-60.640343
712.404183	-62.434185
712.573513	-63.954868
712.742924	-61.241522
712.912416	-60.450352
713.081988	-60.295330
713.251641	-60.042299
713.421375	-62.430260
713.591190	-64.029295
713.761085	-60.527683
713.931061	-59.515719
714.101119	-59.135402
714.271257	-58.497101
714.441476	-59.734282
714.611777	-61.269066
714.782159	-60.492730
714.952622	-61.594204
715.123166	-62.630420
715.293792	-60.497500
715.464499	-59.999006
715.635288	-59.366468
715.806158	-58.442416
715.977110	-59.770049
716.148143	-61.804056
716.319259	-61.212698
716.490456	-61.453131
716.661735	-60.359427
716.833096	-58.313191
717.004538	-58.036250
717.176063	-57.827708
717.347670	-57.480859
717.519359	-59.320373
717.691130	-62.342861
717.862984	-61.601005
718.034920	-60.426064
718.206938	-58.398946
718.379039	-57.098011
718.551222	-58.247704
718.723488	-59.766193
718.895836	-59.640020
719.068267	-60.373473
719.240781	-59.577109
719.413377	-58.321977
719.586057	-58.757564
719.758819	-58.235869
719.931664	-57.578197
720.104593	-58.975039
720.277604	-59.343288
720.450699	-58.399114
720.623876	-58.489949
720.797137	-57.331055
720.970482	-57.167207
721.143910	-59.277234
721.317421	-59.427201
721.491016	-58.913267
721.664694	-59.094873
721.838456	-57.612705
722.012302	-57.449942
722.186231	-58.195340
722.360244	-57.262511
722.534342	-57.712619
722.708523	-59.092736
722.882788	-58.043942
723.057137	-57.828584
723.231570	-57.058809
723.406088	-55.755293
723.580689	-56.652132
723.755375	-58.001645
723.930146	-57.912670
724.105000	-58.856776
724.279940	-58.305670
724.454963	-57.223581
724.630072	-57.792773
724.805265	-56.982949
724.980543	-56.242364
725.155905	-57.265755
725.331353	-57.333715
725.506885	-57.404299
725.682503	-57.917054
725.858205	-56.314037
726.033993	-55.875753
726.209865	-56.723019
726.385823	-56.353252
726.561866	-56.682736
726.737995	-57.463310
726.914209	-56.704817
727.090508	-57.427621
727.266893	-57.687823
727.443364	-56.163617
727.619920	-56.604612
727.796562	-56.860519
727.973290	-56.359615
728.150103	-57.128471
728.327003	-55.990321
728.503988	-55.145674
728.681060	-56.420374
728.858218	-56.478031
729.035461	-56.501409
729.212791	-57.091432
729.390208	-55.533605
729.567710	-55.604058
729.745299	-56.422143
729.922975	-55.509415
730.100737	-56.461367
730.278586	-57.484924
730.456521	-56.737000
730.634543	-57.424379
730.812652	-55.792601
730.990848	-54.576822
731.169130	-55.556661
731.347500	-55.396661
731.525957	-55.595587
731.704500	-56.465613
731.883131	-55.204757
732.061850	-55.579741
732.240655	-56.638375
732.419548	-55.708600
732.598528	-56.261333
732.777596	-56.053436
732.956751	-55.214872
733.135994	-56.447757
733.315325	-56.052704
733.494744	-55.591104
733.674250	-56.536230
733.853844	-55.349848
734.033526	-55.072774
734.213296	-55.314957
734.393154	-54.396341
734.573101	-55.445905
734.753135	-56.465108
734.933258	-55.471140
735.113469	-55.957475
735.293769	-55.452496
735.474157	-55.438495
735.654633	-57.101477
735.835198	-55.728492
736.015852	-55.152419
736.196594	-55.430495
736.377426	-54.759310
736.558346	-55.843039
736.739355	-55.995014
736.920453	-54.960543
737.101640	-55.819900
737.282916	-55.301788
737.464282	-54.944938
737.645736	-55.624189
737.827280	-54.838497
738.008914	-55.599411
738.190637	-56.705698
738.372449	-55.816105
738.554351	-56.427483
738.736342	-55.686569
738.918424	-54.787951
739.100595	-55.225865
739.282855	-54.463984
739.465206	-55.098938
739.647647	-56.939834
739.830178	-56.308105
740.012799	-56.237325
740.195510	-54.995043
740.378311	-54.048808
740.561203	-55.210050
740.744185	-55.375991
740.927258	-55.844251
741.110421	-57.196074
741.293674	-56.298117
741.477018	-56.712124
741.660453	-55.817664
741.843979	-54.587774
742.027596	-55.525014
742.211303	-55.481590
742.395102	-55.854253
742.578991	-56.492269
742.762972	-55.133259
742.947044	-55.779990
743.131207	-56.062493
743.315461	-55.491966
743.499807	-56.609663
743.684244	-56.029770
743.868773	-56.575436
744.053394	-57.430844
744.238106	-55.808785
744.422910	-56.230419
744.607805	-55.916349
744.792793	-55.619169
744.977872	-56.711395
745.163044	-55.629182
745.348307	-56.048447
745.533663	-56.773581
745.719111	-55.752243
745.904651	-56.562741
746.090283	-56.306881
746.276008	-56.882563
746.461826	-58.987651
746.647735	-57.127233
746.833738	-56.844625
747.019833	-56.246900
747.206021	-55.737105
747.392302	-57.229078
747.578676	-56.449907
747.765143	-56.755632
747.951703	-57.876641
748.138356	-56.716450
748.325102	-57.383387
748.511941	-56.561253
748.698874	-56.624013
748.885900	-58.906774
749.073019	-58.127857
749.260232	-58.768972
749.447539	-58.329155
749.634939	-57.425519
749.822433	-58.324461
750.010021	-56.506672
750.197703	-56.664040
750.385479	-57.743075
750.573348	-57.493364
750.761312	-59.213351
750.949370	-58.281673
751.137523	-58.399737
751.325769	-59.996294
751.514110	-58.625337
751.702545	-59.377801
751.891075	-58.750325
752.079700	-58.622360
752.268419	-59.944673
752.457233	-57.839324
752.646142	-58.245143
752.835145	-58.821972
753.024244	-58.966196
753.213437	-60.795508
753.402726	-58.445278
753.592110	-58.712726
753.781589	-60.136104
753.971163	-60.725541
754.160833	-64.522483
754.350598	-60.964773
754.540459	-59.857297
754.730415	-58.172407
754.920467	-56.854431
755.110615	-59.146648
755.300858	-60.908686
755.491198	-64.036561
755.681633	-61.640278
755.872164	-58.551162
756.062792	-59.863973
756.253515	-60.778896
756.444335	-63.967901
756.635252	-63.348664
756.826264	-60.781529
757.017373	-61.536374
757.208579	-59.671940
757.399881	-59.834394
757.591280	-59.878319
757.782776	-60.314259
757.974368	-64.026487
758.166058	-62.185093
758.357844	-61.747853
758.549728	-60.936782
758.741708	-61.105393
758.933786	-63.836541
759.125961	-62.925640
759.318233	-63.156532
759.510603	-59.971830
759.703071	-58.237585
759.895635	-58.739406
760.088298	-59.761472
760.281058	-64.774052
760.473916	-63.062761
760.666872	-60.171968
760.859926	-59.850686
761.053078	-60.451266
761.246328	-63.866696
761.439676	-60.890786
761.633122	-59.731236
761.826667	-59.289104
762.020310	-59.007523
762.214052	-59.903779
762.407892	-58.606125
762.601831	-59.571319
762.795868	-59.788188
762.990004	-59.524363
763.184239	-60.173085
763.378573	-59.309946
763.573006	-60.440375
763.767538	-58.714653
763.962169	-58.182331
764.156900	-57.588984
764.351729	-56.517974
764.546658	-56.814562
764.741687	-56.564633
764.936815	-58.545434
765.132042	-59.529997
765.327370	-57.750413
765.522797	-56.773973
765.718324	-56.290010
765.913950	-58.159606
766.109677	-56.985690
766.305504	-55.154019
766.501431	-54.406536
766.697458	-54.608088
766.893586	-56.874248
767.089814	-56.610064
767.286142	-55.825658
767.482571	-54.932856
767.679100	-54.637724
767.875730	-55.696903
768.072461	-55.345198
768.269293	-55.724805
768.466225	-54.251208
768.663259	-53.348327
768.860393	-53.121221
769.057629	-53.022048
769.254966	-54.053739
769.452404	-53.767509
769.649944	-54.295485
769.847585	-54.443732
770.045328	-53.741089
770.243172	-52.796725
770.441118	-51.818385
770.639166	-52.824435
770.837315	-53.394175
771.035567	-52.828622
771.233920	-51.409470
771.432376	-50.757583
771.630934	-51.836509
771.829594	-52.706734
772.028356	-53.241800
772.227220	-52.359349
772.426188	-51.455965
772.625257	-50.966418
772.824430	-50.459509
773.023705	-51.062686
773.223083	-51.237365
773.422563	-51.157073
773.622147	-50.559430
773.821834	-50.247978
774.021624	-50.702680
774.221517	-50.403123
774.421513	-50.526903
774.621613	-50.521895
774.821816	-50.944146
775.022122	-50.300399
775.222532	-49.091005
775.423046	-48.800701
775.623664	-49.025376
775.824385	-49.897615
776.025211	-49.767230
776.226140	-49.476455
776.427173	-49.229980
776.628311	-49.044842
776.829553	-49.210105
777.030899	-49.219002
777.232350	-49.293160
777.433905	-48.367909
777.635564	-47.616219
777.837328	-47.539153
778.039197	-48.247872
778.241171	-49.090088
778.443250	-48.866608
778.645433	-48.437084
778.847722	-47.932394
779.050116	-47.623677
779.252615	-47.388948
779.455219	-47.588570
779.657929	-48.011221
779.860744	-47.593672
780.063665	-46.833612
780.266691	-46.473426
780.469823	-47.133109
780.673061	-47.946541
780.876405	-48.020851
781.079855	-47.307461
781.283410	-46.614003
781.487072	-46.211617
781.690840	-46.079524
781.894715	-46.489814
782.098695	-46.836722
782.302783	-46.760199
782.506976	-46.197254
782.711277	-46.082559
782.915684	-46.333243
783.120198	-46.475758
783.324818	-46.398415
783.529546	-46.174411
783.734381	-45.943886
783.939322	-45.213546
784.144372	-44.915845
784.349528	-45.254339
784.554792	-46.241174
784.760163	-46.338749
784.965642	-45.545755
785.171228	-45.042910
785.376922	-45.110505
785.582724	-45.485040
785.788634	-45.325271
785.994651	-45.146675
786.200777	-44.614707
786.407011	-44.357235
786.613353	-44.435340
786.819804	-45.156628
787.026363	-45.694116
787.233030	-45.108037
787.439806	-44.439586
787.646691	-44.117694
787.853684	-44.348041
788.060786	-44.213354
788.267997	-44.279280
788.475317	-44.331883
788.682746	-44.324685
788.890285	-44.044389
789.097932	-43.955513
789.305689	-44.398161
789.513555	-44.360746
789.721531	-44.062974
789.929617	-43.541433
790.137812	-43.636743
790.346117	-43.484489
790.554531	-43.457182
790.763056	-43.563104
790.971691	-43.853187
791.180436	-43.887127
791.389291	-43.515741
791.598256	-43.538513
791.807332	-43.338909
792.016518	-43.240119
792.225815	-42.917184
792.435222	-43.274897
792.644740	-43.306491
792.854369	-43.101239
793.064109	-42.782032
793.273960	-42.982077
793.483922	-43.307029
793.693995	-43.173348
793.904180	-43.065230
794.114475	-42.778114
794.324882	-42.595404
794.535401	-42.184717
794.746031	-42.492757
794.956774	-42.837139
795.167627	-42.995985
795.378593	-42.543420
795.589671	-42.464672
795.800861	-42.558337
796.012162	-42.502287
796.223577	-42.354675
796.435103	-42.221716
796.646742	-42.196873
796.858493	-41.863818
797.070357	-42.023257
797.282334	-42.313192
797.494423	-42.693272
797.706626	-42.263549
797.918941	-42.063264
798.131369	-41.852198
798.343911	-41.808210
798.556566	-41.562867
798.769334	-41.719802
798.982215	-41.954228
799.195210	-42.043831
799.408319	-41.931783
799.621541	-41.840468
799.834877	-41.711581
800.048327	-41.472079
800.261890	-41.639774
800.475568	-41.778619
800.689360	-41.558757
800.903266	-40.936720
801.117287	-41.120691
801.331422	-41.755425
801.545671	-42.253231
801.760036	-41.636433
801.974514	-41.182049
802.189108	-40.883846
802.403816	-40.997039
802.618640	-41.122992
802.833578	-41.539185
803.048632	-41.479735
803.263800	-41.164084
803.479085	-40.925315
803.694484	-41.182821
803.909999	-41.345004
804.125630	-41.219192
804.341376	-40.952279
804.557239	-40.693501
804.773217	-40.624890
804.989311	-40.908389
805.205521	-41.524943
805.421847	-41.326096
805.638290	-40.717187
805.854849	-40.416443
806.071524	-40.896308
806.288316	-40.933328
806.505225	-40.723693
806.722250	-40.522564
806.939393	-40.877068
807.156652	-40.839690
807.374028	-40.833049
807.591521	-40.699196
807.809132	-40.719998
808.026859	-40.428064
808.244705	-40.541470
808.462667	-40.620244
808.680748	-40.642959
808.898946	-40.484529
809.117261	-40.753814
809.335695	-40.762897
809.554246	-40.470984
809.772916	-40.291060
809.991704	-40.557071
810.210610	-40.524834
810.429634	-40.237174
810.648777	-40.368444
810.868039	-40.794819
811.087419	-40.710003
811.306918	-40.238272
811.526535	-40.196245
811.746272	-40.320175
811.966127	-40.320585
812.186102	-40.240935
812.406196	-40.473252
812.626409	-40.465650
812.846742	-40.400186
813.067194	-40.230797
813.287766	-40.192710
813.508457	-40.029795
813.729269	-40.319609
813.950200	-40.407993
814.171251	-40.171383
814.392422	-39.863097
814.613714	-40.417515
814.835126	-40.659248
815.056658	-40.213811
815.278311	-39.694197
815.500084	-40.097497
815.721978	-40.241029
815.943993	-40.115255
816.166128	-40.089627
816.388385	-40.598144
816.610762	-40.344826
816.833261	-39.922314
817.055881	-39.833406
817.278623	-40.225588
817.501486	-40.199845
817.724471	-40.122639
817.947577	-40.020062
818.170805	-40.134740
818.394155	-40.292553
818.617627	-40.457025
818.841221	-40.016230
819.064937	-39.656426
819.288775	-39.869333
819.512736	-40.363253
819.736819	-40.144510
819.961025	-39.925832
820.185354	-40.145306
820.409805	-40.362240
820.634379	-40.055378
820.859076	-39.965930
821.083897	-39.911058
821.308840	-39.717737
821.533907	-39.769108
821.759097	-40.492746
821.984411	-40.675272
822.209848	-40.013412
822.435409	-39.661507
822.661093	-39.922813
822.886902	-40.088348
823.112834	-40.039706
823.338891	-40.120818
823.565072	-40.024773
823.791377	-40.040017
824.017807	-40.417969
824.244361	-40.676230
824.471039	-39.899954
824.697843	-39.495050
824.924771	-39.814037
825.151824	-40.418317
825.379002	-40.344804
825.606306	-40.385333
825.833734	-40.305162
826.061288	-40.185589
826.288967	-40.020517
826.516772	-40.118584
826.744703	-39.811182
826.972759	-39.891232
827.200941	-40.378231
827.429249	-40.815288
827.657683	-40.316435
827.886243	-40.098346
828.114930	-39.942248
828.343743	-39.823729
828.572682	-39.932341
828.801748	-40.527345
829.030941	-40.383507
829.260260	-39.986515
829.489706	-40.356107
829.719280	-40.753717
829.948980	-40.091294
830.178808	-39.460694
830.408763	-39.946741
830.638845	-40.481959
830.869055	-40.646265
831.099393	-40.441720
831.329858	-40.382321
831.560451	-40.058857
831.791173	-40.245335
832.022022	-40.187892
832.252999	-40.031358
832.484105	-40.101950
832.715339	-40.877842
832.946702	-40.841287
833.178193	-40.317098
833.409813	-40.109485
833.641561	-40.103571
833.873439	-40.059137
834.105445	-40.456149
834.337581	-40.885124
834.569846	-40.378967
834.802241	-40.211969
835.034764	-40.603077
835.267418	-40.687947
835.500201	-39.978045
835.733114	-40.053637
835.966157	-40.431109
836.199329	-40.691564
836.432632	-40.692048
836.666065	-40.615286
836.899629	-40.223348
837.133323	-40.218042
837.367147	-40.577788
837.601102	-40.308269
837.835188	-40.132442
838.069405	-40.630796
838.303752	-41.060977
838.538231	-40.492427
838.772841	-40.318488
839.007582	-40.342131
839.242455	-40.163639
839.477459	-40.320866
839.712595	-40.970910
839.947863	-40.841042
840.183263	-40.301041
840.418794	-40.503776
840.654458	-40.625776
840.890254	-40.328625
841.126182	-40.217897
841.362242	-40.549916
841.598435	-40.681858
841.834761	-40.878648
842.071220	-40.717366
842.307811	-40.120782
842.544536	-40.122023
842.781393	-40.630574
843.018384	-40.611372
843.255508	-40.277192
843.492765	-40.736759
843.730156	-40.846521
843.967681	-40.351869
844.205339	-40.183112
844.443132	-40.281118
844.681058	-40.263594
844.919118	-40.603766
845.157313	-41.004374
845.395642	-40.430679
845.634105	-40.139162
845.872703	-40.367004
846.111436	-40.348734
846.350303	-40.222433
846.589306	-40.662561
846.828443	-40.631426
847.067716	-40.202332
847.307124	-40.516396
847.546667	-40.564418
847.786345	-39.928752
848.026160	-39.935474
848.266110	-40.822741
848.506195	-40.762432
848.746417	-40.123955
848.986775	-40.016688
849.227269	-40.216367
849.467899	-40.449060
849.708666	-40.304164
849.949569	-39.959593
850.190609	-40.064341
850.431785	-40.612999
850.673099	-40.227558
850.914549	-39.757505
851.156137	-40.119930
851.397861	-40.153295
851.639723	-39.811934
851.881723	-40.107515
852.123860	-40.315793
852.366135	-39.676748
852.608547	-39.756404
852.851098	-40.226736
853.093786	-39.679156
853.336613	-39.372284
853.579578	-39.947702
853.822681	-40.139398
854.065923	-39.627863
854.309304	-39.514236
854.552823	-39.522423
854.796481	-39.506732
855.040278	-39.620873
855.284215	-39.478290
855.528290	-39.466299
855.772505	-39.700215
856.016859	-39.403875
856.261353	-38.936968
856.505987	-39.167373
856.750760	-39.417939
856.995673	-39.233419
857.240727	-39.384525
857.485920	-39.237364
857.731254	-38.640969
857.976729	-38.781274
858.222343	-39.327152
858.468099	-39.060742
858.713995	-38.704698
858.960032	-38.891085
859.206211	-38.906298
859.452530	-38.703047
859.698991	-38.567371
859.945593	-38.467356
860.192336	-38.772694
860.439222	-38.937464
860.686248	-38.328356
860.933417	-38.129516
861.180728	-38.606352
861.428181	-38.483165
861.675776	-38.078838
861.923514	-38.386893
862.171394	-38.438728
862.419417	-37.992507
862.667582	-38.079186
862.915890	-38.187407
863.164342	-37.877808
863.412936	-37.868804
863.661674	-38.074323
863.910555	-37.936904
864.159579	-37.736588
864.408747	-37.646729
864.658059	-37.604433
864.907515	-37.722627
865.157114	-37.598321
865.406858	-37.410122
865.656746	-37.620462
865.906778	-37.520294
866.156955	-37.118874
866.407277	-37.205271
866.657743	-37.324902
866.908354	-37.111137
867.159110	-37.261737
867.410011	-37.290462
867.661057	-36.697815
867.912249	-36.679279
868.163586	-37.128600
868.415069	-36.944829
868.666697	-36.733927
868.918472	-36.798210
869.170392	-36.603606
869.422458	-36.494298
869.674671	-36.591116
869.927030	-36.491868
870.179536	-36.492376
870.432188	-36.571605
870.684987	-36.261133
870.937933	-36.085026
871.191026	-36.237539
871.444266	-36.221070
871.697653	-36.199646
871.951188	-36.165795
872.204870	-35.917196
872.458700	-35.898880
872.712677	-35.941570
872.966803	-35.749887
873.221076	-35.844712
873.475498	-35.943999
873.730068	-35.604246
873.984787	-35.525720
874.239654	-35.633096
874.494669	-35.430033
874.749834	-35.475332
875.005147	-35.650972
875.260610	-35.332801
875.516222	-35.204896
875.771983	-35.340778
876.027894	-35.127438
876.283954	-35.107395
876.540164	-35.312935
876.796524	-35.110281
877.053033	-34.929821
877.309693	-34.895979
877.566503	-34.798993
877.823464	-34.916389
878.080575	-34.956515
878.337837	-34.710779
878.595249	-34.671250
878.852813	-34.638728
879.110528	-34.433718
879.368393	-34.556282
879.626410	-34.673358
879.884579	-34.410445
880.142899	-34.353981
880.401371	-34.301307
880.659994	-34.101514
880.918770	-34.287446
881.177698	-34.362872
881.436778	-34.105025
881.696010	-34.084494
881.955395	-33.952597
882.214933	-33.818930
882.474623	-34.074947
882.734467	-34.047097
882.994463	-33.772181
883.254613	-33.775038
883.514916	-33.691028
883.775372	-33.603179
884.035982	-33.742939
884.296746	-33.681168
884.557664	-33.565509
884.818735	-33.533913
885.079961	-33.310136
885.341341	-33.359659
885.602876	-33.562486
885.864565	-33.292310
886.126409	-33.250693
886.388407	-33.359254
886.650561	-32.977935
886.912870	-33.012142
887.175334	-33.356815
887.437953	-33.058474
887.700728	-32.884577
887.963658	-32.988889
888.226745	-32.815808
888.489987	-32.789059
888.753385	-32.899988
889.016940	-32.836419
889.280651	-32.692149
889.544518	-32.480253
889.808543	-32.542272
890.072723	-32.697727
890.337061	-32.443859
890.601556	-32.443635
890.866208	-32.544119
891.131017	-32.120592
891.395984	-32.138909
891.661109	-32.496220
891.926391	-32.207361
892.191831	-32.062741
892.457429	-32.129435
892.723186	-31.869243
892.989100	-31.959270
893.255173	-32.139810
893.521405	-31.871858
893.787796	-31.794731
894.054345	-31.759469
894.321053	-31.648921
894.587921	-31.778656
894.854948	-31.718408
895.122134	-31.585237
895.389480	-31.568246
895.656986	-31.351350
895.924651	-31.422156
896.192477	-31.620605
896.460463	-31.339816
896.728609	-31.246588
896.996915	-31.298212
897.265382	-31.147785
897.534010	-31.231847
897.802799	-31.239408
898.071749	-31.092817
898.340860	-31.082530
898.610132	-30.885289
898.879566	-30.949221
899.149162	-31.188695
899.418919	-30.839631
899.688838	-30.784995
899.958919	-30.975505
900.229162	-30.634626
900.499568	-30.731614
900.770136	-31.018429
901.040867	-30.594637
901.311761	-30.489806
901.582817	-30.709665
901.854037	-30.596871
902.125420	-30.542932
902.396966	-30.562799
902.668676	-30.510213
902.940550	-30.375699
903.212587	-30.301506
903.484788	-30.543037
903.757153	-30.437367
904.029683	-30.142808
904.302377	-30.359922
904.575236	-30.234809
904.848259	-30.048683
905.121447	-30.464592
905.394800	-30.224376
905.668319	-29.821361
905.942002	-30.170774
906.215852	-30.211345
906.489866	-29.992075
906.764047	-30.044735
907.038393	-29.947120
907.312906	-29.893184
907.587584	-29.920605
907.862429	-29.951827
908.137441	-29.948277
908.412619	-29.697703
908.687964	-29.752066
908.963476	-29.888623
909.239155	-29.640461
909.515002	-29.757394
909.791015	-29.763740
910.067197	-29.412773
910.343546	-29.606505
910.620063	-29.690420
910.896748	-29.464085
911.173601	-29.520957
911.450623	-29.388692
911.727813	-29.347892
912.005171	-29.484349
912.282699	-29.352407
912.560395	-29.336781
912.838261	-29.210854
913.116296	-29.112815
913.394500	-29.372171
913.672874	-29.210023
913.951418	-29.028882
914.230131	-29.152282
914.509015	-29.012137
914.788068	-29.061610
915.067292	-29.138732
915.346687	-28.933367
915.626252	-28.903973
915.905988	-28.857964
916.185895	-28.952980
916.465973	-28.990230
916.746223	-28.676288
917.026644	-28.790305
917.307236	-28.828847
917.588000	-28.624062
917.868937	-28.866294
918.150045	-28.676205
918.431325	-28.420198
918.712778	-28.712247
918.994404	-28.617774
919.276202	-28.489507
919.558173	-28.530570
919.840317	-28.387317
920.122634	-28.442454
920.405125	-28.438032
920.687789	-28.404144
920.970627	-28.353918
921.253639	-28.155748
921.536824	-28.337608
921.820184	-28.320492
922.103718	-28.097879
922.387427	-28.258894
922.671310	-28.073701
922.955368	-28.010575
923.239601	-28.256713
923.524009	-28.024465
923.808592	-27.929726
924.093351	-27.955928
924.378285	-27.946496
924.663396	-28.015627
924.948682	-27.772077
925.234144	-27.813837
925.519782	-27.866920
925.805597	-27.640090
926.091589	-27.867532
926.377757	-27.754699
926.664102	-27.478745
926.950624	-27.708494
927.237323	-27.656690
927.524200	-27.562185
927.811255	-27.548990
928.098487	-27.460806
928.385897	-27.528895
928.673485	-27.463023
928.961251	-27.536195
929.249196	-27.442323
929.537319	-27.227801
929.825621	-27.546124
930.114102	-27.433655
930.402762	-27.239463
930.691601	-27.441435
930.980620	-27.224672
931.269818	-27.322500
931.559196	-27.462650
931.848753	-27.171328
932.138491	-27.235250
932.428409	-27.266260
932.718508	-27.278515
933.008787	-27.244531
933.299246	-27.076476
933.589887	-27.204657
933.880709	-27.126931
934.171712	-27.128604
934.462896	-27.174064
934.754262	-26.913240
935.045810	-27.058248
935.337539	-27.064086
935.629451	-26.923944
935.921545	-26.970824
936.213822	-26.788366
936.506281	-26.903091
936.798922	-26.900241
937.091747	-26.736905
937.384755	-26.816976
937.677946	-26.634883
937.971321	-26.752899
938.264879	-26.783979
938.558621	-26.506344
938.852547	-26.650831
939.146657	-26.582646
939.440952	-26.578559
939.735431	-26.629415
940.030095	-26.400729
940.324943	-26.535504
940.619977	-26.527086
940.915196	-26.451751
941.210600	-26.479688
941.506189	-26.341154
941.801965	-26.446691
942.097926	-26.431795
942.394074	-26.383380
942.690407	-26.348980
942.986927	-26.272462
943.283634	-26.446108
943.580527	-26.286258
943.877608	-26.255093
944.174875	-26.299275
944.472330	-26.142609
944.769972	-26.386952
945.067802	-26.167076
945.365820	-26.038899
945.664026	-26.310203
945.962420	-26.058398
946.261002	-26.124697
946.559773	-26.116926
946.858733	-25.894268
947.157881	-26.098741
947.457219	-26.051598
947.756746	-25.878538
948.056462	-25.876959
948.356368	-25.977076
948.656464	-25.893737
948.956749	-25.771740
949.257225	-25.874149
949.557891	-25.699279
949.858748	-25.799168
950.159796	-25.832039
950.461034	-25.550112
950.762463	-25.771483
951.064084	-25.688383
951.365896	-25.609286
951.667900	-25.700883
951.970095	-25.494274
952.272483	-25.633657
952.575063	-25.612750
952.877835	-25.520400
953.180799	-25.536231
953.483956	-25.482544
953.787307	-25.620891
954.090850	-25.454324
954.394586	-25.422601
954.698516	-25.514539
955.002640	-25.428132
955.306957	-25.476122
955.611469	-25.380373
955.916174	-25.405761
956.221074	-25.416099
956.526169	-25.405717
956.831458	-25.370687
957.136942	-25.242529
957.442622	-25.433782
957.748496	-25.295267
958.054567	-25.253004
958.360833	-25.343692
958.667294	-25.165406
958.973952	-25.371898
959.280806	-25.213197
959.587857	-25.094979
959.895104	-25.301465
960.202548	-25.148421
960.510189	-25.148155
960.818027	-25.141243
961.126062	-25.119598
961.434295	-25.135470
961.742726	-25.123772
962.051355	-25.038306
962.360182	-25.008552
962.669207	-25.183009
962.978431	-24.948156
963.287854	-25.001385
963.597475	-25.092904
963.907296	-24.910402
964.217315	-25.099760
964.527535	-24.897426
964.837954	-24.924897
965.148573	-25.057971
965.459392	-24.853510
965.770411	-24.963182
966.081630	-24.898771
966.393051	-24.918252
966.704672	-24.939223
967.016494	-24.830280
967.328517	-24.859839
967.640742	-24.890758
967.953169	-24.864486
968.265797	-24.755779
968.578627	-24.875010
968.891660	-24.801670
969.204895	-24.778179
969.518332	-24.797590
969.831972	-24.670751
970.145816	-24.832109
970.459862	-24.670070
970.774112	-24.675747
971.088565	-24.721708
971.403223	-24.619889
971.718084	-24.706500
972.033149	-24.539085
972.348419	-24.619151
972.663893	-24.586255
972.979572	-24.525927
973.295456	-24.553538
973.611546	-24.452127
973.927840	-24.560332
974.244340	-24.438434
974.561046	-24.413360
974.877958	-24.430129
975.195076	-24.412362
975.512401	-24.380873
975.829932	-24.308596
976.147670	-24.397048
976.465615	-24.296290
976.783767	-24.317056
977.102126	-24.254599
977.420693	-24.250254
977.739468	-24.294725
978.058451	-24.164873
978.377642	-24.225706
978.697041	-24.190391
979.016649	-24.195601
979.336466	-24.114751
979.656492	-24.135909
979.976727	-24.128274
980.297171	-24.072202
980.617825	-24.118672
980.938689	-23.979488
981.259763	-24.135459
981.581048	-23.994933
981.902542	-23.956270
982.224248	-24.055945
982.546164	-23.908109
982.868291	-24.014649
983.190630	-23.874157
983.513180	-23.949413
983.835942	-23.950847
984.158916	-23.814186
984.482101	-23.918670
984.805500	-23.850207
985.129110	-23.836360
985.452934	-23.848816
985.776970	-23.799522
986.101220	-23.813243
986.425683	-23.845068
986.750359	-23.689309
987.075250	-23.826141
987.400354	-23.774796
987.725673	-23.668468
988.051206	-23.838214
988.376954	-23.640365
988.702916	-23.778491
989.029094	-23.696114
989.355487	-23.636930
989.682095	-23.759038
990.008919	-23.632363
990.335959	-23.680555
990.663216	-23.642765
990.990688	-23.693866
991.318377	-23.589993
991.646283	-23.639618
991.974406	-23.627601
992.302746	-23.580600
992.631304	-23.645572
992.960079	-23.526122
993.289072	-23.633127
993.618283	-23.556389
993.947713	-23.512180
994.277361	-23.568833
994.607227	-23.538641
994.937313	-23.481149
995.267618	-23.538210
995.598142	-23.478931
995.928886	-23.468057
996.259849	-23.490027
996.591033	-23.368514
996.922437	-23.522484
997.254061	-23.352528
997.585906	-23.406405
997.917972	-23.414128
998.250260	-23.325347
998.582768	-23.372346
998.915498	-23.280542
999.248450	-23.358982
999.581624	-23.249772
999.915020	-23.284821
1000.248639	-23.243738
1000.582480	-23.235903
1000.916545	-23.184014
1001.250832	-23.176164
1001.585343	-23.182783
1001.920077	-23.109820
1002.255035	-23.137911
1002.590218	-23.060551
1002.925624	-23.106148
1003.261255	-22.992266
1003.597111	-23.035441
1003.933192	-22.998300
1004.269497	-22.963165
1004.606029	-22.939774
1004.942785	-22.932849
1005.279768	-22.902142
1005.616977	-22.837431
1005.954412	-22.904483
1006.292074	-22.782323
1006.629962	-22.862572
1006.968077	-22.756393
1007.306420	-22.779327
1007.644990	-22.777134
1007.983787	-22.690297
1008.322813	-22.740102
1008.662067	-22.728692
1009.001549	-22.642303
1009.341259	-22.696295
1009.681199	-22.677728
1010.021367	-22.573841
1010.361765	-22.713005
1010.702392	-22.536593
1011.043250	-22.677180
1011.384337	-22.557354
1011.725654	-22.567495
1012.067202	-22.625697
1012.408980	-22.488875
1012.750989	-22.604564
1013.093230	-22.520331
1013.435702	-22.558492
1013.778405	-22.495739
1014.121341	-22.545226
1014.464508	-22.495313
1014.807908	-22.495268
1015.151540	-22.504567
1015.495405	-22.498552
1015.839503	-22.467038
1016.183835	-22.480382
1016.528400	-22.459299
1016.873198	-22.461457
1017.218231	-22.437573
1017.563498	-22.447988
1017.908999	-22.450957
1018.254735	-22.375829
1018.600707	-22.456046
1018.946913	-22.346153
1019.293354	-22.429635
1019.640032	-22.318467
1019.986945	-22.415871
1020.334094	-22.295603
1020.681480	-22.333216
1021.029102	-22.317509
1021.376961	-22.259664
1021.725058	-22.304213
1022.073391	-22.207947
1022.421962	-22.295069
1022.770772	-22.128785
1023.119819	-22.248385
1023.469104	-22.120874
1023.818628	-22.155192
1024.168391	-22.117963
1024.518393	-22.078984
1024.868634	-22.084110
1025.219115	-22.003097
1025.569836	-22.030329
1025.920796	-21.992177
1026.271997	-21.920723
1026.623438	-21.992066
1026.975121	-21.846856
1027.327044	-21.907661
1027.679208	-21.837468
1028.031614	-21.812225
1028.384262	-21.837802
1028.737152	-21.711951
1029.090284	-21.830725
1029.443659	-21.630495
1029.797276	-21.774178
1030.151137	-21.619423
1030.505240	-21.697176
1030.859587	-21.605483
1031.214178	-21.628352
1031.569013	-21.583092
1031.924093	-21.560160
1032.279417	-21.567642
1032.634985	-21.531934
1032.990799	-21.520287
1033.346858	-21.504610
1033.703162	-21.492897
1034.059712	-21.448473
1034.416509	-21.491920
1034.773551	-21.418219
1035.130841	-21.466759
1035.488377	-21.390352
1035.846160	-21.440404
1036.204190	-21.365609
1036.562468	-21.411587
1036.920994	-21.371802
1037.279768	-21.377118
1037.638790	-21.340278
1037.998061	-21.378227
1038.357581	-21.283838
1038.717350	-21.391729
1039.077368	-21.255201
1039.437636	-21.374739
1039.798154	-21.230447
1040.158922	-21.333162
1040.519940	-21.234772
1040.881209	-21.270557
1041.242729	-21.263475
1041.604501	-21.206731
1041.966524	-21.240335
1042.328798	-21.177179
1042.691325	-21.196136
1043.054103	-21.161759
1043.417135	-21.158142
1043.780419	-21.127777
1044.143956	-21.106461
1044.507746	-21.078490
1044.871791	-21.081507
1045.236088	-21.015905
1045.600641	-21.066428
1045.965447	-20.942846
1046.330508	-21.015081
1046.695824	-20.889171
1047.061395	-20.963811
1047.427222	-20.844346
1047.793304	-20.904952
1048.159642	-20.791655
1048.526237	-20.820061
1048.893088	-20.751694
1049.260196	-20.757262
1049.627561	-20.697094
1049.995183	-20.704623
1050.363063	-20.619746
1050.731201	-20.646666
1051.099597	-20.554697
1051.468251	-20.614967
1051.837164	-20.474399
1052.206336	-20.582664
1052.575767	-20.389060
1052.945458	-20.535278
1053.315409	-20.349328
1053.685619	-20.480516
1054.056090	-20.312390
1054.426821	-20.410715
1054.797814	-20.278976
1055.169067	-20.344218
1055.540582	-20.278384
1055.912359	-20.278741
1056.284398	-20.255631
1056.656698	-20.224880
1057.029262	-20.222516
1057.402088	-20.202981
1057.775177	-20.198204
1058.148530	-20.180405
1058.522146	-20.149058
1058.896027	-20.175459
1059.270171	-20.103419
1059.644580	-20.194141
1060.019254	-20.066266
1060.394193	-20.185655
1060.769397	-20.031904
1061.144867	-20.182759
1061.520602	-20.021368
1061.896604	-20.177691
1062.272872	-20.012539
1062.649407	-20.139464
1063.026210	-20.018743
1063.403279	-20.115010
1063.780616	-20.029217
1064.158221	-20.087657
1064.536094	-20.013444
1064.914235	-20.055386
1065.292645	-20.010284
1065.671325	-20.037048
1066.050273	-19.991814
1066.429491	-20.005643
1066.808979	-19.953381
1067.188738	-19.984376
1067.568766	-19.929322
1067.949066	-19.955793
1068.329636	-19.883784
1068.710478	-19.914109
1069.091592	-19.836321
1069.472977	-19.889139
1069.854635	-19.788313
1070.236565	-19.839878
1070.618768	-19.724838
1071.001243	-19.788344
1071.383993	-19.673583
1071.767016	-19.740180
1072.150313	-19.604902
1072.533884	-19.667503
1072.917730	-19.541298
1073.301850	-19.601688
1073.686246	-19.485687
1074.070917	-19.521765
1074.455864	-19.410896
1074.841087	-19.442664
1075.226586	-19.353702
1075.612362	-19.367707
1075.998415	-19.291073
1076.384745	-19.278444
1076.771353	-19.229793
1077.158238	-19.212033
1077.545401	-19.176416
1077.932843	-19.138211
1078.320564	-19.117018
1078.708564	-19.066470
1079.096842	-19.080412
1079.485401	-19.005983
1079.874240	-19.032061
1080.263358	-18.941696
1080.652757	-18.988860
1081.042438	-18.897073
1081.432399	-18.955129
1081.822641	-18.840751
1082.213166	-18.913186
1082.603972	-18.796664
1082.995061	-18.885171
1083.386433	-18.762175
1083.778087	-18.840057
1084.170025	-18.725480
1084.562246	-18.805774
1084.954751	-18.707979
1085.347541	-18.769644
1085.740615	-18.681470
1086.133973	-18.727144
1086.527617	-18.676517
1086.921546	-18.696533
1087.315761	-18.667478
1087.710262	-18.652773
1088.105050	-18.659133
1088.500124	-18.629248
1088.895485	-18.658467
1089.291134	-18.592272
1089.687070	-18.641515
1090.083294	-18.562427
1090.479806	-18.637447
1090.876607	-18.536369
1091.273696	-18.603652
1091.671075	-18.500182
1092.068744	-18.574116
1092.466702	-18.480058
1092.864950	-18.529879
1093.263489	-18.434057
1093.662319	-18.471016
1094.061440	-18.407703
1094.460852	-18.417412
1094.860555	-18.364955
1095.260551	-18.335619
1095.660840	-18.323625
1096.061421	-18.279669
1096.462295	-18.283094
1096.863462	-18.204763
1097.264923	-18.221407
1097.666678	-18.150816
1098.068727	-18.182267
1098.471071	-18.098187
1098.873710	-18.112805
1099.276644	-18.048274
1099.679874	-18.064933
1100.083400	-18.025008
1100.487222	-17.996946
1100.891340	-17.981625
1101.295756	-17.938216
1101.700468	-17.967146
1102.105478	-17.887212
1102.510787	-17.922472
1102.916393	-17.825051
1103.322298	-17.895113
1103.728502	-17.789380
1104.135005	-17.847953
1104.541807	-17.731963
1104.948909	-17.792984
1105.356312	-17.709690
1105.764015	-17.737524
1106.172019	-17.667566
1106.580324	-17.661206
1106.988931	-17.646146
1107.397840	-17.610448
1107.807051	-17.612433
1108.216564	-17.540128
1108.626380	-17.579004
1109.036500	-17.506638
1109.446923	-17.549505
1109.857649	-17.460873
1110.268680	-17.503262
1110.680016	-17.449454
1111.091657	-17.473634
1111.503602	-17.435444
1111.915854	-17.420819
1112.328411	-17.435333
1112.741275	-17.398476
1113.154445	-17.432107
1113.567922	-17.358902
1113.981706	-17.414447
1114.395798	-17.352690
1114.810198	-17.395645
1115.224906	-17.330381
1115.639923	-17.347029
1116.055249	-17.324518
1116.470884	-17.309466
1116.886829	-17.298215
1117.303084	-17.239638
1117.719650	-17.265088
1118.136526	-17.193097
1118.553713	-17.212307
1118.971212	-17.119634
1119.389022	-17.134752
1119.807145	-17.073245
1120.225580	-17.052956
1120.644328	-17.002867
1121.063389	-16.947157
1121.482763	-16.948534
1121.902452	-16.864592
1122.322454	-16.870609
1122.742771	-16.770224
1123.163404	-16.795043
1123.584351	-16.716980
1124.005614	-16.709359
1124.427193	-16.652876
1124.849089	-16.628827
1125.271301	-16.624197
1125.693830	-16.563801
1126.116677	-16.575858
1126.539842	-16.511989
1126.963324	-16.549876
1127.387126	-16.491854
1127.811246	-16.503145
1128.235685	-16.478978
1128.660444	-16.477844
1129.085522	-16.490161
1129.510922	-16.445986
1129.936641	-16.486966
1130.362682	-16.442280
1130.789044	-16.491217
1131.215728	-16.441528
1131.642734	-16.469044
1132.070063	-16.460904
1132.497714	-16.454869
1132.925689	-16.470070
1133.353987	-16.426082
1133.782610	-16.472595
1134.211556	-16.419313
1134.640827	-16.446576
1135.070424	-16.405157
1135.500345	-16.407384
1135.930593	-16.403627
1136.361166	-16.353902
1136.792067	-16.375864
1137.223294	-16.309404
1137.654848	-16.339468
1138.086730	-16.268900
1138.518940	-16.271186
1138.951479	-16.240032
1139.384346	-16.204571
1139.817543	-16.201687
1140.251069	-16.132050
1140.684925	-16.155273
1141.119111	-16.084481
1141.553628	-16.086287
1141.988475	-16.042924
1142.423655	-16.017149
1142.859166	-16.014741
1143.295009	-15.949190
1143.731185	-15.971680
1144.167694	-15.909301
1144.604536	-15.921722
1145.041711	-15.881739
1145.479221	-15.860703
1145.917065	-15.871064
1146.355245	-15.813342
1146.793759	-15.842872
1147.232609	-15.785161
1147.671795	-15.809694
1148.111317	-15.778153
1148.551177	-15.758968
1148.991373	-15.776546
1149.431907	-15.728051
1149.872779	-15.760830
1150.313989	-15.706317
1150.755538	-15.729370
1151.197426	-15.711203
1151.639653	-15.683758
1152.082220	-15.703183
1152.525128	-15.653055
1152.968376	-15.684908
1153.411966	-15.631628
1153.855897	-15.635146
1154.300169	-15.628597
1154.744784	-15.586003
1155.189742	-15.602089
1155.635042	-15.542087
1156.080687	-15.563567
1156.526674	-15.516858
1156.973007	-15.491848
1157.419683	-15.490922
1157.866705	-15.435086
1158.314072	-15.445655
1158.761786	-15.378935
1159.209845	-15.380692
1159.658251	-15.349054
1160.107004	-15.298669
1160.556104	-15.300708
1161.005553	-15.236869
1161.455349	-15.242988
1161.905494	-15.181623
1162.355989	-15.159227
1162.806832	-15.149833
1163.258026	-15.082399
1163.709570	-15.088696
1164.161464	-15.026993
1164.613710	-15.022933
1165.066307	-14.986140
1165.519256	-14.936246
1165.972558	-14.949378
1166.426212	-14.882626
1166.880219	-14.880583
1167.334580	-14.838699
1167.789295	-14.818765
1168.244364	-14.806530
1168.699788	-14.744851
1169.155567	-14.763383
1169.611702	-14.710214
1170.068193	-14.697594
1170.525041	-14.674629
1170.982245	-14.636842
1171.439807	-14.651875
1171.897726	-14.579089
1172.356004	-14.592385
1172.814640	-14.569541
1173.273635	-14.523176
1173.732989	-14.536506
1174.192703	-14.476893
1174.652778	-14.497186
1175.113213	-14.450486
1175.574009	-14.419916
1176.035167	-14.445597
1176.496687	-14.372487
1176.958569	-14.388739
1177.420814	-14.354836
1177.883422	-14.333762
1178.346394	-14.338068
1178.809730	-14.273340
1179.273430	-14.306954
1179.737496	-14.261456
1180.201927	-14.235727
1180.666723	-14.248258
1181.131886	-14.198842
1181.597416	-14.215210
1182.063312	-14.164627
1182.529576	-14.170644
1182.996209	-14.167142
1183.463209	-14.104507
1183.930579	-14.147173
1184.398317	-14.093738
1184.866426	-14.088604
1185.334904	-14.092088
1185.803754	-14.035701
1186.272974	-14.083932
1186.742566	-14.014418
1187.212529	-14.014089
1187.682865	-14.046885
1188.153574	-13.955782
1188.624656	-14.004514
1189.096112	-13.977565
1189.567942	-13.934151
1190.040147	-13.974802
1190.512726	-13.908973
1190.985681	-13.927424
1191.459012	-13.923099
1191.932720	-13.862563
1192.406804	-13.906263
1192.881265	-13.869349
1193.356104	-13.832798
1193.831322	-13.862743
1194.306918	-13.828193
1194.782893	-13.800507
1195.259248	-13.813868
1195.735982	-13.790482
1196.213097	-13.761790
1196.690593	-13.771835
1197.168471	-13.743324
1197.646730	-13.724824
1198.125371	-13.732843
1198.604395	-13.686850
1199.083803	-13.694254
1199.563594	-13.687102
1200.043769	-13.633285
1200.524329	-13.662274
1201.005273	-13.634750
1201.486604	-13.589054
1201.968320	-13.621512
1202.450422	-13.581753
1202.932912	-13.552348
1203.415789	-13.570686
1203.899054	-13.533412
1204.382707	-13.516760
1204.866748	-13.515158
1205.351179	-13.490181
1205.836000	-13.478025
1206.321211	-13.461281
1206.806812	-13.449651
1207.292805	-13.435680
1207.779189	-13.412834
1208.265965	-13.410017
1208.753134	-13.390599
1209.240696	-13.371847
1209.728651	-13.369346
1210.217000	-13.345298
1210.705744	-13.337961
1211.194883	-13.326869
1211.684417	-13.303222
1212.174347	-13.308881
1212.664673	-13.283773
1213.155396	-13.267296
1213.646516	-13.280971
1214.138034	-13.243467
1214.629951	-13.237097
1215.122266	-13.252803
1215.614980	-13.208318
1216.108095	-13.211341
1216.601609	-13.224552
1217.095524	-13.179000
1217.589841	-13.188738
1218.084559	-13.197080
1218.579679	-13.154655
1219.075202	-13.168599
1219.571128	-13.170838
1220.067458	-13.133756
1220.564191	-13.150930
1221.061330	-13.145361
1221.558874	-13.115575
1222.056823	-13.135291
1222.555178	-13.119798
1223.053940	-13.100143
1223.553109	-13.119991
1224.052686	-13.093796
1224.552671	-13.087254
1225.053065	-13.102740
1225.553867	-13.068106
1226.055079	-13.075730
1226.556702	-13.081895
1227.058735	-13.044037
1227.561179	-13.063457
1228.064035	-13.057123
1228.567303	-13.022007
1229.070983	-13.048217
1229.575077	-13.029044
1230.079585	-13.001877
1230.584506	-13.027974
1231.089842	-12.999538
1231.595594	-12.982159
1232.101761	-13.002547
1232.608345	-12.969537
1233.115345	-12.961147
1233.622762	-12.971983
1234.130597	-12.939669
1234.638851	-12.936998
1235.147523	-12.937588
1235.656615	-12.909618
1236.166126	-12.908812
1236.676058	-12.900450
1237.186411	-12.878502
1237.697185	-12.876022
1238.208381	-12.861151
1238.719999	-12.845169
1239.232040	-12.838599
1239.744505	-12.819867
1240.257394	-12.808762
1240.770708	-12.796871
1241.284446	-12.776543
1241.798610	-12.768690
1242.313201	-12.751159
1242.828218	-12.730883
1243.343662	-12.724493
1243.859534	-12.701933
1244.375834	-12.682574
1244.892563	-12.676591
1245.409721	-12.649717
1245.927309	-12.631680
1246.445327	-12.625333
1246.963777	-12.594852
1247.482657	-12.578344
1248.001970	-12.571349
1248.521716	-12.537924
1249.041894	-12.523430
1249.562506	-12.515574
1250.083553	-12.480051
1250.605034	-12.467904
1251.126950	-12.459246
1251.649302	-12.422329
1252.172091	-12.413058
1252.695316	-12.403555
1253.218979	-12.366092
1253.743079	-12.359987
1254.267619	-12.349729
1254.792597	-12.312540
1255.318015	-12.309515
1255.843874	-12.298963
1256.370173	-12.262885
1256.896913	-12.262756
1257.424095	-12.252445
1257.951720	-12.218496
1258.479787	-12.220444
1259.008298	-12.210925
1259.537254	-12.180096
1260.066654	-12.182908
1260.596499	-12.174906
1261.126790	-12.148099
1261.657527	-12.150509
1262.188711	-12.144874
1262.720342	-12.122558
1263.252422	-12.123427
1263.784950	-12.120923
1264.317928	-12.103262
1264.851355	-12.101403
1265.385232	-12.103057
1265.919560	-12.089762
1266.454340	-12.084247
1266.989572	-12.091418
1267.525256	-12.081611
1268.061394	-12.071861
1268.597985	-12.085359
1269.135031	-12.078128
1269.672531	-12.063978
1270.210487	-12.084015
1270.748899	-12.078833
1271.287768	-12.061017
1271.827094	-12.086664
1272.366877	-12.083297
1272.907119	-12.063571
1273.447820	-12.092439
1273.988981	-12.091011
1274.530601	-12.071849
1275.072683	-12.100402
1275.615226	-12.101599
1276.158230	-12.085779
1276.701697	-12.109897
1277.245627	-12.115130
1277.790021	-12.104850
1278.334879	-12.120497
1278.880202	-12.131651
1279.425991	-12.128015
1279.972245	-12.132305
1280.518966	-12.150732
1281.066155	-12.153511
1281.613811	-12.146109
1282.161936	-12.171418
1282.710529	-12.179152
1283.259593	-12.163209
1283.809126	-12.192261
1284.359131	-12.202760
1284.909607	-12.184592
1285.460555	-12.211953
1286.011976	-12.223203
1286.563870	-12.209834
1287.116237	-12.229046
1287.669080	-12.240594
1288.222397	-12.236957
1288.776191	-12.242912
1289.330460	-12.255884
1289.885207	-12.262675
1290.440431	-12.253980
1290.996133	-12.269513
1291.552314	-12.283505
1292.108975	-12.264344
1292.666115	-12.281093
1293.223737	-12.296769
1293.781839	-12.276325
1294.340424	-12.289356
1294.899491	-12.301692
1295.459041	-12.290120
1296.019075	-12.293387
1296.579593	-12.300048
1297.140597	-12.302812
1297.702086	-12.293281
1298.264061	-12.295364
1298.826524	-12.309508
1299.389474	-12.290361
1299.952912	-12.290259
1300.516839	-12.306231
1301.081255	-12.286397
1301.646162	-12.284528
1302.211559	-12.292324
1302.777448	-12.281911
1303.343829	-12.275662
1303.910702	-12.271117
1304.478069	-12.274592
1305.045930	-12.261321
1305.614285	-12.248124
1306.183136	-12.259682
1306.752483	-12.241210
1307.322326	-12.226744
1307.892666	-12.233437
1308.463504	-12.217325
1309.034841	-12.205808
1309.606677	-12.197386
1310.179012	-12.191486
1310.751849	-12.180484
1311.325186	-12.158213
1311.899025	-12.161799
1312.473366	-12.147524
1313.048211	-12.123051
1313.623559	-12.124427
1314.199412	-12.108716
1314.775770	-12.092903
1315.352634	-12.079171
1315.930004	-12.068642
1316.507881	-12.061007
1317.086266	-12.032826
1317.665159	-12.029096
1318.244562	-12.020402
1318.824474	-11.993474
1319.404897	-11.987325
1319.985831	-11.972764
1320.567276	-11.960732
1321.149234	-11.941549
1321.731706	-11.926571
1322.314691	-11.924838
1322.898190	-11.896544
1323.482205	-11.886133
1324.066736	-11.878803
1324.651783	-11.858636
1325.237347	-11.847202
1325.823430	-11.828767
1326.410031	-11.825266
1326.997151	-11.805787
1327.584791	-11.786689
1328.172952	-11.786592
1328.761634	-11.765740
1329.350839	-11.754504
1329.940566	-11.740913
1330.530817	-11.732110
1331.121592	-11.723007
1331.712891	-11.700038
1332.304716	-11.700875
1332.897068	-11.687144
1333.489946	-11.672830
1334.083352	-11.665495
1334.677287	-11.653688
1335.271750	-11.651309
1335.866744	-11.630845
1336.462268	-11.627862
1337.058323	-11.623083
1337.654910	-11.607628
1338.252029	-11.604043
1338.849682	-11.592227
1339.447869	-11.593016
1340.046591	-11.578633
1340.645848	-11.571064
1341.245641	-11.572782
1341.845972	-11.559439
1342.446840	-11.557668
1343.048246	-11.546924
1343.650191	-11.549069
1344.252677	-11.541674
1344.855702	-11.531152
1345.459269	-11.535515
1346.063379	-11.526197
1346.668030	-11.526651
1347.273226	-11.516367
1347.878965	-11.518573
1348.485250	-11.517712
1349.092080	-11.507303
1349.699456	-11.511107
1350.307380	-11.504631
1350.915851	-11.508905
1351.524871	-11.499355
1352.134441	-11.499928
1352.744560	-11.502915
1353.355231	-11.495894
1353.966453	-11.498393
1354.578227	-11.491569
1355.190555	-11.499351
1355.803436	-11.492213
1356.416872	-11.491152
1357.030863	-11.493355
1357.645411	-11.490837
1358.260515	-11.494114
1358.876177	-11.485397
1359.492397	-11.493510
1360.109176	-11.489398
1360.726516	-11.490027
1361.344416	-11.488249
1361.962877	-11.487745
1362.581901	-11.493031
1363.201487	-11.484742
1363.821637	-11.490256
1364.442352	-11.485953
1365.063632	-11.490987
1365.685478	-11.486330
1366.307891	-11.485487
1366.930871	-11.489528
1367.554420	-11.485041
1368.178538	-11.489083
1368.803226	-11.481616
1369.428485	-11.489411
1370.054315	-11.484186
1370.680717	-11.485610
1371.307693	-11.483883
1371.935242	-11.483638
1372.563366	-11.487281
1373.192065	-11.479726
1373.821341	-11.485892
1374.451193	-11.479438
1375.081623	-11.486163
1375.712632	-11.478362
1376.344221	-11.481423
1376.976389	-11.480100
1377.609139	-11.479053
1378.242470	-11.479994
1378.876384	-11.473469
1379.510881	-11.480297
1380.145963	-11.471717
1380.781629	-11.477646
1381.417881	-11.467999
1382.054720	-11.474296
1382.692147	-11.468334
1383.330161	-11.469051
1383.968765	-11.466462
1384.607959	-11.464120
1385.247743	-11.467442
1385.888119	-11.459442
1386.529087	-11.465189
1387.170648	-11.456013
1387.812804	-11.464539
1388.455554	-11.454273
1389.098899	-11.460350
1389.742842	-11.453331
1390.387381	-11.457809
1391.032519	-11.454353
1391.678256	-11.453155
1392.324592	-11.454774
1392.971529	-11.450862
1393.619068	-11.456621
1394.267208	-11.448063
1394.915952	-11.456354
1395.565300	-11.447540
1396.215253	-11.456963
1396.865812	-11.447361
1397.516977	-11.455097
1398.168749	-11.448598
1398.821130	-11.454484
1399.474120	-11.450620
1400.127719	-11.452292
1400.781930	-11.452973
1401.436752	-11.452025
1402.092186	-11.456277
1402.748234	-11.451227
1403.404897	-11.458708
1404.062174	-11.452134
1404.720067	-11.461852
1405.378577	-11.453155
1406.037705	-11.463598
1406.697451	-11.455574
1407.357817	-11.466619
1408.018803	-11.459147
1408.680410	-11.468911
1409.342639	-11.463925
1410.005492	-11.473003
1410.668968	-11.470435
1411.333068	-11.476918
1411.997795	-11.477222
1412.663147	-11.482204
1413.329127	-11.485524
1413.995736	-11.487714
1414.662973	-11.493522
1415.330840	-11.494429
1415.999339	-11.503480
1416.668469	-11.502826
1417.338232	-11.513874
1418.008628	-11.512715
1418.679659	-11.526656
1419.351325	-11.525286
1420.023628	-11.540240
1420.696568	-11.538363
1421.370145	-11.554762
1422.044362	-11.553309
1422.719219	-11.569811
1423.394717	-11.567848
1424.070856	-11.584544
1424.747638	-11.583839
1425.425064	-11.601227
1426.103134	-11.601326
1426.781850	-11.619011
1427.461212	-11.621166
1428.141221	-11.640349
1428.821878	-11.644323
1429.503185	-11.663518
1430.185141	-11.668502
1430.867749	-11.687971
1431.551008	-11.693818
1432.234920	-11.712195
1432.919486	-11.717326
1433.604707	-11.734602
1434.290583	-11.740000
1434.977116	-11.756876
1435.664307	-11.762367
1436.352156	-11.779349
1437.040664	-11.786415
1437.729833	-11.805310
1438.419663	-11.814492
1439.110156	-11.834933
1439.801312	-11.845635
1440.493132	-11.867597
1441.185617	-11.879089
1441.878768	-11.900740
1442.572586	-11.910515
1443.267072	-11.930171
1443.962228	-11.937238
1444.658053	-11.954090
1445.354549	-11.957430
1446.051717	-11.971265
1446.749558	-11.972102
1447.448073	-11.985257
1448.147263	-11.985689
1448.847128	-11.999911
1449.547671	-12.001953
1450.248891	-12.019669
1450.950789	-12.025214
1451.653368	-12.046667
1452.356627	-12.054548
1453.060568	-12.077880
1453.765192	-12.086358
1454.470500	-12.108892
1455.176492	-12.114258
1455.883170	-12.131436
1456.590534	-12.130350
1457.298586	-12.139937
1458.007327	-12.131680
1458.716758	-12.132980
1459.426880	-12.118278
1460.137693	-12.113309
1460.849199	-12.096767
1461.561398	-12.090512
1462.274293	-12.077407
1462.987883	-12.074179
1463.702170	-12.069309
1464.417155	-12.073407
1465.132838	-12.080356
1465.849222	-12.092927
1466.566306	-12.110782
1467.284093	-12.129391
1468.002582	-12.154660
1468.721775	-12.174674
1469.441674	-12.200570
1470.162278	-12.214550
1470.883590	-12.233130
1471.605609	-12.235127
1472.328338	-12.241059
1473.051777	-12.228264
1473.775928	-12.219495
1474.500790	-12.193779
1475.226367	-12.174067
1475.952657	-12.142971
1476.679663	-12.120171
1477.407386	-12.093585
1478.135826	-12.077106
1478.864985	-12.065473
1479.594863	-12.064479
1480.325463	-12.075880
1481.056784	-12.096171
1481.788828	-12.133960
1482.521597	-12.177187
1483.255090	-12.239572
1483.989309	-12.302047
1484.724256	-12.380475
1485.459931	-12.452251
1486.196336	-12.532108
1486.933471	-12.598168
1487.671337	-12.660610
1488.409937	-12.702861
1489.149270	-12.728897
1489.889337	-12.732018
1490.630141	-12.709985
1491.371682	-12.667724
1492.113961	-12.597909
1492.856979	-12.515808
1493.600738	-12.411274
1494.345238	-12.305434
1495.090481	-12.187388
1495.836467	-12.077828
1496.583198	-11.967891
1497.330675	-11.872846
1498.078899	-11.788946
1498.827872	-11.722740
1499.577593	-11.676825
1500.328065	-11.648155
1501.079289	-11.645247
1501.831265	-11.657490
1502.583995	-11.696660
1503.337480	-11.747690
1504.091721	-11.820674
1504.846719	-11.899995
1505.602475	-11.989264
1506.358991	-12.076070
1507.116268	-12.154068
1507.874306	-12.216549
1508.633108	-12.247257
1509.392673	-12.246978
1510.153004	-12.195529
1510.914101	-12.102113
1511.675965	-11.951671
1512.438599	-11.759470
1513.202002	-11.522444
1513.966176	-11.255908
1514.731122	-10.969482
1515.496842	-10.672200
1516.263336	-10.381742
1517.030607	-10.098892
1517.798654	-9.842878
1518.567479	-9.610248
1519.337083	-9.415272
1520.107468	-9.256551
1520.878634	-9.139052
1521.650584	-9.067146
1522.423317	-9.036730
1523.196836	-9.056889
1523.971141	-9.119274
1524.746233	-9.232069
1525.522115	-9.389569
1526.298786	-9.592409
1527.076249	-9.841642
1527.854504	-10.127463
1528.633553	-10.453780
1529.413397	-10.803098
1530.194037	-11.170111
1530.975474	-11.535725
1531.757709	-11.874517
1532.540745	-12.169682
1533.324581	-12.384469
1534.109220	-12.507979
1534.894662	-12.526593
1535.680909	-12.442912
1536.467961	-12.284122
1537.255821	-12.066443
1538.044489	-11.828949
1538.833967	-11.595708
1539.624256	-11.387768
1540.415357	-11.230935
1541.207271	-11.129476
1542.000000	-11.101589
1542.793545	-11.151108
1543.587907	-11.282333
1544.383087	-11.506679
1545.179088	-11.819377
1545.975909	-12.232749
1546.773552	-12.745998
1547.572019	-13.360616
1548.371311	-14.085172
1549.171428	-14.905140
1549.972373	-15.817643
1550.774147	-16.785398
1551.576751	-17.736077
1552.380185	-18.565200
1553.184453	-19.096963
1553.989554	-19.204405
1554.795490	-18.876285
1555.602263	-18.213610
1556.409873	-17.391316
1557.218322	-16.526390
1558.027612	-15.688526
1558.837743	-14.922870
1559.648717	-14.230696
1560.460536	-13.621923
1561.273200	-13.092366
1562.086710	-12.632375
1562.901069	-12.244922
1563.716278	-11.916767
1564.532337	-11.648169
1565.349249	-11.434933
1566.167014	-11.268797
1566.985634	-11.153507
1567.805111	-11.079269
1568.625444	-11.047073
1569.446637	-11.054819
1570.268690	-11.095278
1571.091605	-11.172838
1571.915382	-11.278585
1572.740024	-11.413298
1573.565532	-11.575717
1574.391907	-11.757842
1575.219150	-11.964554
1576.047262	-12.186717
1576.876246	-12.424325
1577.706103	-12.676847
1578.536833	-12.934613
1579.368439	-13.203009
1580.200922	-13.472063
1581.034282	-13.740164
1581.868522	-14.007703
1582.703643	-14.262444
1583.539646	-14.510254
1584.376532	-14.740876
1585.214304	-14.951153
1586.052962	-15.144106
1586.892508	-15.306833
1587.732943	-15.447151
1588.574269	-15.558463
1589.416487	-15.638181
1590.259599	-15.694605
1591.103605	-15.717386
1591.948508	-15.716078
1592.794309	-15.690039
1593.641009	-15.635959
1594.488609	-15.565341
1595.337112	-15.470790
1596.186518	-15.358825
1597.036829	-15.234050
1597.888047	-15.090791
1598.740172	-14.940172
1599.593207	-14.779251
1600.447153	-14.609219
1601.302010	-14.438553
1602.157782	-14.261518
1603.014469	-14.085002
1603.872072	-13.911463
1604.730593	-13.737287
1605.590034	-13.570760
1606.450397	-13.409284
1607.311681	-13.253325
1608.173890	-13.108760
1609.037024	-12.970878
1609.901085	-12.843370
1610.766075	-12.727967
1611.631995	-12.620594
1612.498846	-12.525885
1613.366630	-12.441807
1614.235349	-12.366320
1615.105004	-12.302971
1615.975596	-12.247502
1616.847128	-12.199934
1617.719600	-12.161559
1618.593014	-12.127621
1619.467372	-12.099585
1620.342675	-12.076345
1621.218924	-12.054127
1622.096122	-12.035017
1622.974270	-12.016436
1623.853369	-11.996473
1624.733420	-11.977206
1625.614427	-11.955591
1626.496389	-11.931786
1627.379308	-11.907519
1628.263187	-11.880142
1629.148026	-11.851552
1630.033828	-11.822784
1630.920593	-11.792149
1631.808324	-11.762511
1632.697022	-11.734096
1633.586688	-11.706022
1634.477324	-11.681304
1635.368932	-11.659154
1636.261514	-11.639314
1637.155070	-11.624028
1638.049602	-11.611552
1638.945113	-11.601904
1639.841603	-11.596340
1640.739075	-11.592411
1641.637529	-11.590433
1642.536968	-11.590723
1643.437393	-11.590694
1644.338806	-11.591146
1645.241209	-11.591856
1646.144602	-11.590669
1647.048988	-11.588879
1647.954368	-11.586108
1648.860744	-11.580822
1649.768118	-11.574986
1650.676491	-11.568159
1651.585865	-11.559508
1652.496241	-11.551333
1653.407621	-11.543091
1654.320008	-11.534334
1655.233401	-11.527254
1656.147804	-11.521023
1657.063218	-11.515260
1657.979645	-11.511898
1658.897085	-11.509624
1659.815542	-11.508011
1660.735016	-11.508584
1661.655509	-11.509693
1662.577023	-11.510878
1663.499560	-11.513548
1664.423121	-11.516042
1665.347709	-11.518003
1666.273324	-11.520923
1667.199969	-11.523276
1668.127645	-11.524953
1669.056353	-11.527661
1669.986097	-11.530122
1670.916877	-11.532350
1671.848695	-11.536206
1672.781553	-11.540535
1673.715452	-11.545085
1674.650395	-11.551607
1675.586383	-11.558934
1676.523418	-11.566529
1677.461501	-11.575966
1678.400635	-11.586178
1679.340821	-11.596306
1680.282061	-11.607835
1681.224357	-11.620034
1682.167710	-11.631940
1683.112122	-11.644944
1684.057595	-11.658617
1685.004132	-11.671962
1685.951732	-11.686258
1686.900400	-11.701424
1687.850135	-11.716440
1688.800940	-11.732343
1689.752818	-11.749292
1690.705768	-11.766234
1691.659795	-11.783900
1692.614898	-11.802568
1693.571081	-11.821161
1694.528345	-11.840146
1695.486691	-11.859918
1696.446122	-11.879406
1697.406640	-11.898914
1698.368245	-11.918989
1699.330941	-11.938823
1700.294729	-11.958657
1701.259611	-11.979323
1702.225588	-12.000182
1703.192664	-12.021244
1704.160838	-12.043335
1705.130114	-12.065808
1706.100493	-12.088368
1707.071977	-12.111798
1708.044568	-12.135583
1709.018268	-12.159142
1709.993079	-12.183328
1710.969003	-12.208043
1711.946041	-12.232502
1712.924196	-12.257577
1713.903469	-12.283609
1714.883862	-12.309669
1715.865378	-12.336200
1716.848017	-12.363927
1717.831783	-12.391931
1718.816677	-12.420093
1719.802701	-12.449378
1720.789857	-12.479120
1721.778147	-12.508631
1722.767573	-12.538733
1723.758136	-12.569319
1724.749840	-12.599349
1725.742685	-12.629481
1726.736673	-12.660348
1727.731808	-12.691041
1728.728090	-12.721775
1729.725521	-12.753596
1730.724105	-12.785856
1731.723842	-12.817792
1732.724735	-12.850278
1733.726785	-12.883246
1734.729995	-12.915544
1735.734366	-12.947719
1736.739902	-12.980702
1737.746603	-13.013732
1738.754472	-13.046582
1739.763510	-13.080420
1740.773721	-13.115099
1741.785105	-13.149571
1742.797665	-13.184317
1743.811403	-13.219889
1744.826321	-13.255317
1745.842422	-13.290279
1746.859706	-13.325727
1747.878177	-13.361553
1748.897835	-13.396948
1749.918685	-13.432399
1750.940726	-13.468436
1751.963963	-13.504359
1752.988395	-13.539953
1754.014027	-13.575977
1755.040860	-13.612346
1756.068895	-13.648374
1757.098135	-13.684277
1758.128583	-13.720312
1759.160240	-13.755785
1760.193109	-13.790418
1761.227191	-13.824779
1762.262488	-13.858982
1763.299004	-13.892744
1764.336740	-13.926411
1765.375697	-13.960340
1766.415880	-13.994109
1767.457288	-14.027463
1768.499926	-14.060693
1769.543794	-14.093698
1770.588895	-14.126063
1771.635231	-14.157952
1772.682805	-14.189743
1773.731619	-14.221252
1774.781674	-14.252435
1775.832973	-14.283709
1776.885519	-14.315136
1777.939312	-14.346364
1778.994357	-14.377440
1780.050654	-14.408717
1781.108207	-14.440001
1782.167017	-14.470978
1783.227087	-14.501829
1784.288418	-14.532671
1785.351013	-14.563215
1786.414875	-14.593517
1787.480006	-14.624022
1788.546407	-14.654802
1789.614082	-14.685634
1790.683032	-14.716619
1791.753259	-14.747813
1792.824767	-14.778712
1793.897557	-14.808890
1794.971632	-14.838522
1796.046994	-14.867699
1797.123645	-14.896051
1798.201588	-14.923639
1799.280824	-14.951028
1800.361357	-14.978262
1801.443188	-15.004734
1802.526320	-15.030250
1803.610756	-15.055062
1804.696497	-15.078933
1805.783546	-15.101358
1806.871906	-15.122489
1807.961578	-15.142882
1809.052565	-15.162554
1810.144870	-15.181192
1811.238494	-15.198968
1812.333441	-15.216163
1813.429713	-15.232431
1814.527311	-15.247377
1815.626239	-15.261240
1816.726499	-15.274391
1817.828094	-15.286660
1818.931025	-15.297702
1820.035295	-15.307630
1821.140906	-15.316706
1822.247862	-15.324930
1823.356165	-15.332482
1824.465816	-15.339916
1825.576819	-15.347454
1826.689175	-15.354677
1827.802888	-15.361067
1828.917960	-15.366450
1830.034394	-15.370777
1831.152191	-15.373979
1832.271354	-15.376367
1833.391887	-15.378599
1834.513790	-15.380989
1835.637068	-15.383249
1836.761722	-15.384848
1837.887755	-15.385377
1839.015169	-15.384573
1840.143968	-15.382346
1841.274153	-15.378968
1842.405727	-15.374965
1843.538693	-15.370697
1844.673053	-15.366201
1845.808810	-15.361338
1846.945966	-15.355923
1848.084525	-15.349835
1849.224488	-15.343029
1850.365858	-15.335560
1851.508638	-15.327535
1852.652831	-15.318932
1853.798438	-15.309691
1854.945463	-15.299865
1856.093909	-15.289597
1857.243777	-15.278867
1858.395071	-15.267626
1859.547794	-15.255964
1860.701947	-15.243813
1861.857533	-15.230802
1863.014556	-15.216576
1864.173018	-15.201167
1865.332922	-15.184935
1866.494270	-15.168303
1867.657065	-15.151531
1868.821309	-15.134675
1869.987006	-15.117660
1871.154158	-15.100255
1872.322768	-15.082100
1873.492839	-15.062993
1874.664373	-15.043146
1875.837373	-15.022940
1877.011841	-15.002566
1878.187782	-14.982029
1879.365197	-14.961305
1880.544089	-14.940245
1881.724460	-14.918621
1882.906315	-14.896223
1884.089655	-14.873010
1885.274483	-14.849195
1886.460803	-14.825038
1887.648616	-14.800673
1888.837927	-14.776212
1890.028736	-14.751741
1891.221049	-14.727111
1892.414866	-14.702046
1893.610192	-14.676334
1894.807028	-14.650006
1896.005379	-14.623310
1897.205246	-14.596514
1898.406633	-14.569707
1899.609542	-14.542936
1900.813977	-14.516183
1902.019940	-14.489426
1903.227434	-14.462621
1904.436462	-14.435750
1905.647028	-14.408920
1906.859133	-14.382339
1908.072781	-14.356123
1909.287976	-14.330264
1910.504719	-14.304792
1911.723013	-14.279760
1912.942863	-14.255194
1914.164270	-14.230973
1915.387238	-14.206781
1916.611770	-14.182420
1917.837868	-14.158075
1919.065536	-14.134126
1920.294777	-14.110821
1921.525594	-14.088070
1922.757989	-14.065557
1923.991967	-14.042999
1925.227529	-14.020229
1926.464679	-13.997221
1927.703420	-13.974190
1928.943755	-13.951377
1930.185688	-13.928907
1931.429221	-13.906669
1932.674356	-13.884360
1933.921099	-13.861697
1935.169451	-13.838607
1936.419415	-13.815203
1937.670996	-13.791801
1938.924195	-13.768634
1940.179017	-13.745769
1941.435463	-13.723086
1942.693538	-13.700312
1943.953245	-13.677277
1945.214586	-13.654056
1946.477566	-13.630926
1947.742186	-13.608178
1949.008451	-13.585880
1950.276363	-13.563912
1951.545926	-13.542100
1952.817143	-13.520329
1954.090017	-13.498582
1955.364551	-13.476844
1956.640749	-13.455135
1957.918615	-13.433594
1959.198150	-13.412348
1960.479359	-13.391465
1961.762244	-13.370883
1963.046810	-13.350465
1964.333059	-13.330075
1965.620995	-13.309667
1966.910621	-13.289462
1968.201940	-13.269926
1969.494956	-13.251614
1970.789672	-13.234755
1972.086091	-13.219001
1973.384217	-13.203630
1974.684053	-13.188033
1975.985602	-13.172181
1977.288869	-13.156582
1978.593855	-13.141770
1979.900566	-13.127901
1981.209003	-13.114601
1982.519171	-13.101238
1983.831073	-13.087330
1985.144712	-13.072917
1986.460093	-13.058451
1987.777217	-13.044333
1989.096089	-13.030673
1990.416713	-13.017313
1991.739092	-13.003970
1993.063228	-12.990360
1994.389127	-12.976212
1995.716791	-12.961402
1997.046223	-12.946182
1998.377428	-12.931165
1999.710409	-12.916967
2001.045169	-12.903676
2002.381713	-12.890696
2003.720043	-12.877141
2005.060163	-12.862598
2006.402077	-12.847421
2007.745788	-12.832506
2009.091301	-12.818564
2010.438618	-12.805521
2011.787743	-12.792568
2013.138680	-12.778906
2014.491433	-12.764487
2015.846005	-12.749944
2017.202399	-12.736020
2018.560621	-12.723084
2019.920673	-12.711043
2021.282558	-12.699592
2022.646281	-12.688531
2024.011846	-12.677923
2025.379256	-12.667911
2026.748515	-12.658534
2028.119626	-12.649883
2029.492594	-12.642315
2030.867422	-12.636128
2032.244114	-12.631010
2033.622673	-12.626158
2035.003104	-12.621166
2036.385411	-12.616494
2037.769597	-12.612955
2039.155665	-12.610936
2040.543621	-12.610058
2041.933467	-12.609640
2043.325208	-12.609174
2044.718847	-12.608588
2046.114389	-12.608262
2047.511837	-12.608686
2048.911195	-12.609850
2050.312467	-12.611160
2051.715657	-12.612053
2053.120769	-12.612441
2054.527807	-12.612459
2055.936775	-12.612048
2057.347677	-12.611112
2058.760516	-12.609796
2060.175297	-12.608390
2061.592025	-12.606990
2063.010701	-12.605434
2064.431332	-12.603568
2065.853921	-12.601588
2067.278472	-12.599991
2068.704988	-12.599179
2070.133475	-12.598959
2071.563936	-12.598589
2072.996375	-12.597636
2074.430796	-12.596550
2075.867204	-12.596231
2077.305603	-12.596749
2078.745996	-12.597491
2080.188389	-12.598194
2081.632784	-12.599211
2083.079187	-12.600997
2084.527601	-12.603500
2085.978030	-12.606675
2087.430480	-12.610824
2088.884954	-12.616378
2090.341455	-12.623600
2091.799990	-12.632293
2093.260561	-12.641952
2094.723173	-12.652396
2096.187831	-12.663949
2097.654538	-12.676743
2099.123300	-12.690303
2100.594119	-12.703781
2102.067001	-12.716522
2103.541950	-12.728501
2105.018971	-12.740094
2106.498067	-12.751486
2107.979243	-12.762482
2109.462503	-12.772813
2110.947853	-12.782610
2112.435295	-12.792447
2113.924836	-12.802805
2115.416478	-12.813908
2116.910227	-12.826102
2118.406087	-12.839959
2119.904063	-12.855690
2121.404158	-12.872757
2122.906378	-12.890617
2124.410727	-12.909617
2125.917210	-12.930422
2127.425831	-12.952681
2128.936594	-12.974788
2130.449505	-12.995491
2131.964567	-13.015198
2133.481786	-13.035142
2135.001166	-13.055501
2136.522711	-13.074939
2138.046427	-13.092272
2139.572317	-13.107852
2141.100388	-13.122884
2142.630642	-13.137979
2144.163085	-13.153033
2145.697722	-13.168074
2147.234558	-13.183482
2148.773596	-13.199482
2150.314842	-13.215984
2151.858301	-13.233171
2153.403977	-13.251671
2154.951875	-13.271776
2156.502000	-13.293072
2158.054357	-13.315219
2159.608950	-13.338621
2161.165785	-13.364091
2162.724866	-13.391969
2164.286198	-13.421834
2165.849786	-13.453306
2167.415635	-13.486630
2168.983749	-13.522356
2170.554134	-13.560608
2172.126795	-13.601163
2173.701737	-13.644061
2175.278964	-13.689271
2176.858481	-13.735815
2178.440294	-13.782360
2180.024408	-13.828775
2181.610827	-13.875805
2183.199557	-13.922997
2184.790602	-13.968255
2186.383968	-14.010029
2187.979660	-14.049086
2189.577683	-14.087192
2191.178041	-14.124229
2192.780741	-14.158428
2194.385787	-14.189315
2195.993185	-14.218575
2197.602939	-14.247736
2199.215054	-14.276721
2200.829537	-14.305272
2202.446392	-14.334162
2204.065624	-14.364042
2205.687239	-14.394761
2207.311242	-14.426921
2208.937638	-14.462177
2210.566433	-14.500821
2212.197631	-14.541191
2213.831239	-14.582224
2215.467261	-14.625446
2217.105703	-14.672783
2218.746570	-14.723093
2220.389867	-14.773189
2222.035601	-14.822559
2223.683776	-14.874161
2225.334398	-14.930039
2226.987472	-14.988612
2228.643004	-15.047882
2230.300999	-15.108294
2231.961463	-15.171080
2233.624402	-15.236267
2235.289820	-15.302965
2236.957723	-15.370293
2238.628118	-15.437963
2240.301009	-15.506405
2241.976402	-15.576091
2243.654303	-15.646354
2245.334717	-15.715155
2247.017650	-15.781253
2248.703108	-15.846463
2250.391096	-15.912972
2252.081620	-15.979260
2253.774686	-16.042554
2255.470300	-16.103904
2257.168467	-16.165936
2258.869193	-16.228155
2260.572484	-16.289357
2262.278345	-16.350971
2263.986783	-16.413947
2265.697804	-16.476850
2267.411412	-16.539344
2269.127615	-16.602859
2270.846417	-16.668319
2272.567826	-16.735693
2274.291846	-16.804698
2276.018484	-16.875406
2277.747745	-16.947640
2279.479637	-17.020012
2281.214164	-17.092677
2282.951333	-17.168373
2284.691149	-17.247396
2286.433619	-17.327228
2288.178750	-17.408280
2289.926546	-17.492707
2291.677014	-17.579236
2293.430161	-17.666272
2295.185992	-17.756161
2296.944513	-17.850119
2298.705732	-17.944700
2300.469653	-18.038957
2302.236283	-18.136994
2304.005629	-18.239459
2305.777696	-18.341581
2307.552492	-18.442325
2309.330022	-18.545381
2311.110292	-18.649743
2312.893310	-18.750469
2314.679080	-18.848157
2316.467611	-18.946433
2318.258907	-19.044952
2320.052976	-19.141674
2321.849824	-19.236165
2323.649457	-19.328238
2325.451883	-19.418145
2327.257106	-19.508275
2329.065135	-19.599872
2330.875975	-19.690009
2332.689633	-19.778400
2334.506116	-19.869858
2336.325430	-19.965415
2338.147581	-20.059948
2339.972578	-20.152665
2341.800425	-20.248979
2343.631130	-20.349331
2345.464700	-20.450496
2347.301141	-20.554468
2349.140461	-20.662769
2350.982665	-20.773440
2352.827760	-20.887339
2354.675754	-21.004876
2356.526653	-21.121205
2358.380464	-21.238209
2360.237195	-21.364073
2362.096851	-21.495737
2363.959440	-21.624132
2365.824968	-21.751203
2367.693444	-21.884181
2369.564873	-22.021850
2371.439263	-22.156807
2373.316620	-22.290075
2375.196953	-22.430013
2377.080267	-22.575823
2378.966570	-22.717425
2380.855869	-22.851880
2382.748171	-22.986005
2384.643484	-23.122417
2386.541815	-23.254796
2388.443170	-23.379334
2390.347557	-23.501128
2392.254984	-23.624181
2394.165457	-23.742883
2396.078984	-23.852601
2397.995572	-23.959428
2399.915229	-24.070601
2401.837961	-24.182468
2403.763777	-24.289062
2405.692684	-24.393398
2407.624689	-24.502322
2409.559800	-24.619665
2411.498023	-24.739050
2413.439368	-24.856780
2415.383840	-24.986115
2417.331449	-25.127303
2419.282201	-25.266856
2421.236104	-25.408445
2423.193165	-25.561613
2425.153393	-25.720970
2427.116795	-25.875589
2429.083378	-26.029055
2431.053151	-26.193558
2433.026121	-26.363179
2435.002297	-26.526049
2436.981685	-26.689465
2438.964293	-26.861793
2440.950131	-27.036479
2442.939204	-27.212436
2444.931522	-27.397346
2446.927092	-27.582669
2448.925923	-27.761035
2450.928022	-27.940736
2452.933397	-28.114184
2454.942056	-28.277803
2456.954008	-28.443325
2458.969260	-28.594485
2460.987821	-28.719104
2463.009699	-28.842159
2465.034902	-28.966737
2467.063437	-29.070927
2469.095315	-29.174062
2471.130542	-29.288234
2473.169127	-29.384265
2475.211078	-29.482487
2477.256404	-29.600239
2479.305112	-29.707504
2481.357212	-29.825083
2483.412713	-29.967729
2485.471621	-30.103226
2487.533946	-30.249400
2489.599696	-30.419548
2491.668880	-30.584163
2493.741507	-30.759852
2495.817585	-30.957139
2497.897122	-31.141577
2499.980127	-31.330470
2502.066609	-31.542531
2504.156578	-31.749261
2506.250040	-31.956897
2508.347006	-32.177347
2510.447483	-32.391103
2512.551482	-32.615815
2514.659010	-32.855887
2516.770076	-33.082649
2518.884690	-33.320080
2521.002861	-33.561060
2523.124597	-33.778122
2525.249907	-34.004144
2527.378801	-34.223761
2529.511287	-34.404927
2531.647375	-34.566325
2533.787074	-34.697803
2535.930393	-34.801568
2538.077340	-34.900546
2540.227927	-34.964600
2542.382160	-35.014848
2544.540051	-35.067932
2546.701608	-35.110003
2548.866840	-35.169183
2551.035757	-35.244924
2553.208369	-35.326761
2555.384684	-35.434227
2557.564713	-35.561179
2559.748465	-35.692326
2561.935948	-35.847401
2564.127174	-36.019620
2566.322152	-36.194345
2568.520890	-36.389817
2570.723399	-36.595606
2572.929689	-36.811610
2575.139769	-37.036741
2577.353649	-37.283221
2579.571340	-37.564479
2581.792849	-37.852956
2584.018189	-38.147409
2586.247368	-38.449573
2588.480396	-38.775754
2590.717284	-39.128000
2592.958041	-39.478313
2595.202678	-39.825287
2597.451204	-40.163420
2599.703630	-40.525460
2601.959966	-40.913194
2604.220222	-41.225986
2606.484408	-41.469941
2608.752535	-41.624847
2611.024612	-41.699834
2613.300651	-41.765918
2615.580661	-41.767032
2617.864653	-41.643879
2620.152638	-41.531414
2622.444625	-41.515187
2624.740626	-41.493531
2627.040651	-41.450215
2629.344710	-41.395926
2631.652814	-41.407363
2633.964974	-41.489888
2636.281200	-41.569891
2638.601504	-41.600363
2640.925896	-41.624132
2643.254386	-41.745314
2645.586987	-41.924579
2647.923707	-42.083922
2650.264559	-42.217386
2652.609554	-42.364103
2654.958702	-42.662969
2657.312015	-43.024610
2659.669503	-43.233586
2662.031178	-43.501609
2664.397051	-43.949280
2666.767132	-44.394320
2669.141434	-44.808539
2671.519968	-45.372977
2673.902745	-45.935671
2676.289776	-46.559608
2678.681072	-47.456345
2681.076646	-48.071786
2683.476508	-48.698448
2685.880671	-49.711319
2688.289145	-50.086770
2690.701942	-50.227242
2693.119075	-50.496877
2695.540554	-50.359376
2697.966391	-50.062392
2700.396599	-49.831450
2702.831189	-49.483002
2705.270172	-49.311921
2707.713561	-49.232635
2710.161368	-48.814822
2712.613605	-48.732199
2715.070283	-48.821866
2717.531416	-48.368477
2719.997014	-48.294753
2722.467090	-48.148810
2724.941657	-48.034233
2727.420726	-48.072111
2729.904310	-47.926387
2732.392421	-47.969492
2734.885072	-48.122379
2737.382275	-48.095998
2739.884042	-48.054513
2742.390387	-48.375586
2744.901321	-48.570569
2747.416857	-48.698150
2749.937008	-49.201618
2752.461787	-49.534016
2754.991206	-50.194365
2757.525279	-50.822927
2760.064017	-51.467066
2762.607434	-52.813286
2765.155544	-53.641496
2767.708358	-54.738740
2770.265890	-56.314143
2772.828153	-57.917727
2775.395160	-58.417332
2777.966924	-59.513521
2780.543459	-59.746312
2783.124778	-59.903433
2785.710894	-60.061401
2788.301821	-60.368309
2790.897572	-60.785569
2793.498160	-60.032513
2796.103599	-60.355584
2798.713903	-59.999166
2801.329085	-58.985476
2803.949159	-58.171408
2806.574139	-58.169784
2809.204038	-56.920657
2811.838871	-56.563507
2814.478650	-56.408614
2817.123391	-55.498970
2819.773107	-55.057614
2822.427812	-54.717935
2825.087521	-54.472461
2827.752247	-54.196173
2830.422005	-53.942987
2833.096808	-54.040120
2835.776672	-54.332745
2838.461611	-54.371869
2841.151638	-55.026032
2843.846769	-55.718701
2846.547019	-56.103983
2849.252401	-57.306868
2851.962930	-58.209460
2854.678621	-59.208385
2857.399489	-60.517694
2860.125549	-61.640641
2862.856815	-62.104816
2865.593302	-62.597614
2868.335026	-63.083888
2871.082002	-63.415095
2873.834244	-63.575866
2876.591767	-64.582530
2879.354588	-66.224007
2882.122721	-67.515753
2884.896181	-69.911651
2887.674984	-71.372565
2890.459146	-74.988582
2893.248681	-82.728763
2896.043606	-87.557699
2898.843937	-80.584650
2901.649687	-72.220738
2904.460875	-69.042909
2907.277515	-66.733458
2910.099623	-64.872711
2912.927215	-63.098880
2915.760308	-62.864294
2918.598916	-61.743142
2921.443057	-61.475154
2924.292747	-61.444307
2927.148002	-61.146393
2930.008837	-61.614424
2932.875270	-62.425221
2935.747318	-63.080926
2938.624995	-63.274043
2941.508320	-65.300126
2944.397308	-66.951647
2947.291977	-67.664142
2950.192343	-69.774761
2953.098423	-69.020716
2956.010234	-68.568314
2958.927792	-69.266919
2961.851116	-67.824214
2964.780221	-68.300439
2967.715126	-68.466126
2970.655847	-68.043755
2973.602402	-69.857190
2976.554808	-68.810463
2979.513083	-68.094445
2982.477243	-69.199556
2985.447308	-69.443177
2988.423293	-68.971570
2991.405218	-70.699163
2994.393099	-70.497086
2997.386955	-70.916286
