# 2022-03-21_13.59.56
# shape = sech2
# FWHM_ps = 0.1
# carrier_nm = 1542
# frep_MHz = 12126
# pow_mW = 8000
# GDD = 0.0
# propa_len = 0.10555555555555557
# untap_len = 0.01
# taper_len = 0.04555555555555556
# waist_len = 0.02
# uptap_len = 0.02
# untap_scale = 1.0
# waist_scale = 0.2666666666666667
# workingDir = NL_20110305_12 (Spirou)
# axis = slow
# window_ps = 10.0
# steps = 200
# points = 13000
# 
# wavelength [nm]	 power spectral density [dB]
1000.248639	-23.637517
1000.582480	-23.595718
1000.916545	-23.551135
1001.250832	-23.508741
1001.585343	-23.474817
1001.920077	-23.451364
1002.255035	-23.435365
1002.590218	-23.420687
1002.925624	-23.401155
1003.261255	-23.373284
1003.597111	-23.337375
1003.933192	-23.297603
1004.269497	-23.259667
1004.606029	-23.228242
1004.942785	-23.204588
1005.279768	-23.186307
1005.616977	-23.168985
1005.954412	-23.148371
1006.292074	-23.122189
1006.629962	-23.090916
1006.968077	-23.057406
1007.306420	-23.025352
1007.644990	-22.997613
1007.983787	-22.974990
1008.322813	-22.956258
1008.662067	-22.938690
1009.001549	-22.919449
1009.341259	-22.897014
1009.681199	-22.871485
1010.021367	-22.844289
1010.361765	-22.817472
1010.702392	-22.792907
1011.043250	-22.771593
1011.384337	-22.753290
1011.725654	-22.736834
1012.067202	-22.720385
1012.408980	-22.702294
1012.750989	-22.681919
1013.093230	-22.659510
1013.435702	-22.636193
1013.778405	-22.613568
1014.121341	-22.593345
1014.464508	-22.576475
1014.807908	-22.562348
1015.151540	-22.549039
1015.495405	-22.534176
1015.839503	-22.516088
1016.183835	-22.494696
1016.528400	-22.471533
1016.873198	-22.449294
1017.218231	-22.430463
1017.563498	-22.415815
1017.908999	-22.404203
1018.254735	-22.392634
1018.600707	-22.377721
1018.946913	-22.357551
1019.293354	-22.332909
1019.640032	-22.307073
1019.986945	-22.283921
1020.334094	-22.265992
1020.681480	-22.253122
1021.029102	-22.242114
1021.376961	-22.228481
1021.725058	-22.208789
1022.073391	-22.182656
1022.421962	-22.153196
1022.770772	-22.125291
1023.119819	-22.102844
1023.469104	-22.086564
1023.818628	-22.073592
1024.168391	-22.058896
1024.518393	-22.038101
1024.868634	-22.010017
1025.219115	-21.977441
1025.569836	-21.945636
1025.920796	-21.919087
1026.271997	-21.899234
1026.623438	-21.883518
1026.975121	-21.866877
1027.327044	-21.844525
1027.679208	-21.814852
1028.031614	-21.780461
1028.384262	-21.746591
1028.737152	-21.718035
1029.090284	-21.696149
1029.443659	-21.678500
1029.797276	-21.660088
1030.151137	-21.636304
1030.505240	-21.605803
1030.859587	-21.571363
1031.214178	-21.538234
1031.569013	-21.510572
1031.924093	-21.489207
1032.279417	-21.471434
1032.634985	-21.452377
1032.990799	-21.428131
1033.346858	-21.398005
1033.703162	-21.365341
1034.059712	-21.334967
1034.416509	-21.310319
1034.773551	-21.291503
1035.130841	-21.275127
1035.488377	-21.256477
1035.846160	-21.232425
1036.204190	-21.203403
1036.562468	-21.173291
1036.920994	-21.146781
1037.279768	-21.126496
1037.638790	-21.111284
1037.998061	-21.097212
1038.357581	-21.079615
1038.717350	-21.056147
1039.077368	-21.028438
1039.437636	-21.001016
1039.798154	-20.978445
1040.158922	-20.962246
1040.519940	-20.950310
1040.881209	-20.938007
1041.242729	-20.920933
1041.604501	-20.897775
1041.966524	-20.871262
1042.328798	-20.846395
1042.691325	-20.827070
1043.054103	-20.813882
1043.417135	-20.803487
1043.780419	-20.790724
1044.143956	-20.771939
1044.507746	-20.747238
1044.871791	-20.720470
1045.236088	-20.696783
1045.600641	-20.679263
1045.965447	-20.667027
1046.330508	-20.655500
1046.695824	-20.639475
1047.061395	-20.616477
1047.427222	-20.588374
1047.793304	-20.560361
1048.159642	-20.537300
1048.526237	-20.520610
1048.893088	-20.507188
1049.260196	-20.491530
1049.627561	-20.469254
1049.995183	-20.440440
1050.363063	-20.409499
1050.731201	-20.382012
1051.099597	-20.361000
1051.468251	-20.344771
1051.837164	-20.327982
1052.206336	-20.305486
1052.575767	-20.276027
1052.945458	-20.243220
1053.315409	-20.212849
1053.685619	-20.188869
1054.056090	-20.170503
1054.426821	-20.152478
1054.797814	-20.129261
1055.169067	-20.099028
1055.540582	-20.064867
1055.912359	-20.033001
1056.284398	-20.007979
1056.656698	-19.989209
1057.029262	-19.971206
1057.402088	-19.947943
1057.775177	-19.917317
1058.148530	-19.882931
1058.522146	-19.851652
1058.896027	-19.828266
1059.270171	-19.811901
1059.644580	-19.796362
1060.019254	-19.774867
1060.394193	-19.745369
1060.769397	-19.712333
1061.144867	-19.683389
1061.520602	-19.663663
1061.896604	-19.651581
1062.272872	-19.639793
1062.649407	-19.620893
1063.026210	-19.593169
1063.403279	-19.561909
1063.780616	-19.535750
1064.158221	-19.519787
1064.536094	-19.511544
1064.914235	-19.502797
1065.292645	-19.485959
1065.671325	-19.459769
1066.050273	-19.430444
1066.429491	-19.406945
1066.808979	-19.394014
1067.188738	-19.388372
1067.568766	-19.381389
1067.949066	-19.365806
1068.329636	-19.341213
1068.710478	-19.314562
1069.091592	-19.294524
1069.472977	-19.284754
1069.854635	-19.281033
1070.236565	-19.274693
1070.618768	-19.259480
1071.001243	-19.236365
1071.383993	-19.212643
1071.767016	-19.196130
1072.150313	-19.188814
1072.533884	-19.185224
1072.917730	-19.177158
1073.301850	-19.160146
1073.686246	-19.136757
1074.070917	-19.114592
1074.455864	-19.099911
1074.841087	-19.092316
1075.226586	-19.085324
1075.612362	-19.071892
1075.998415	-19.050191
1076.384745	-19.024854
1076.771353	-19.003001
1077.158238	-18.988223
1077.545401	-18.977497
1077.932843	-18.964135
1078.320564	-18.943863
1078.708564	-18.918009
1079.096842	-18.892292
1079.485401	-18.871760
1079.874240	-18.856368
1080.263358	-18.841407
1080.652757	-18.822257
1081.042438	-18.798141
1081.432399	-18.772627
1081.822641	-18.750396
1082.213166	-18.732618
1082.603972	-18.716554
1082.995061	-18.698444
1083.386433	-18.676963
1083.778087	-18.654118
1084.170025	-18.633015
1084.562246	-18.614801
1084.954751	-18.597930
1085.347541	-18.580035
1085.740615	-18.560591
1086.133973	-18.540751
1086.527617	-18.521814
1086.921546	-18.503617
1087.315761	-18.485278
1087.710262	-18.466284
1088.105050	-18.447514
1088.500124	-18.429750
1088.895485	-18.412303
1089.291134	-18.393667
1089.687070	-18.373409
1090.083294	-18.353065
1090.479806	-18.334817
1090.876607	-18.318790
1091.273696	-18.302390
1091.671075	-18.283032
1092.068744	-18.261195
1092.466702	-18.240441
1092.864950	-18.223879
1093.263489	-18.210392
1093.662319	-18.195456
1094.061440	-18.175930
1094.460852	-18.153659
1094.860555	-18.134119
1095.260551	-18.120405
1095.660840	-18.109644
1096.061421	-18.095538
1096.462295	-18.075249
1096.863462	-18.052758
1097.264923	-18.034931
1097.666678	-18.024028
1098.068727	-18.014819
1098.471071	-17.999785
1098.873710	-17.977254
1099.276644	-17.953502
1099.679874	-17.935996
1100.083400	-17.925263
1100.487222	-17.914316
1100.891340	-17.895892
1101.295756	-17.870326
1101.700468	-17.844975
1102.105478	-17.826101
1102.510787	-17.812455
1102.916393	-17.796726
1103.322298	-17.773538
1103.728502	-17.744906
1104.135005	-17.717714
1104.541807	-17.696473
1104.948909	-17.679122
1105.356312	-17.659288
1105.764015	-17.633084
1106.172019	-17.602556
1106.580324	-17.573657
1106.988931	-17.550621
1107.397840	-17.532066
1107.807051	-17.512241
1108.216564	-17.486388
1108.626380	-17.455842
1109.036500	-17.427201
1109.446923	-17.406169
1109.857649	-17.391320
1110.268680	-17.374736
1110.680016	-17.350162
1111.091657	-17.320485
1111.503602	-17.295400
1111.915854	-17.281172
1112.328411	-17.272445
1112.741275	-17.257479
1113.154445	-17.231562
1113.567922	-17.203238
1113.981706	-17.185350
1114.395798	-17.179898
1114.810198	-17.174219
1115.224906	-17.155368
1115.639923	-17.125715
1116.055249	-17.101208
1116.470884	-17.092940
1116.886829	-17.092838
1117.303084	-17.082256
1117.719650	-17.054148
1118.136526	-17.022486
1118.553713	-17.006181
1118.971212	-17.005708
1119.389022	-17.001581
1119.807145	-16.977469
1120.225580	-16.940879
1120.644328	-16.914846
1121.063389	-16.909445
1121.482763	-16.908796
1121.902452	-16.889829
1122.322454	-16.851480
1122.742771	-16.816804
1123.163404	-16.804643
1123.584351	-16.805986
1124.005614	-16.794159
1124.427193	-16.758411
1124.849089	-16.717805
1125.271301	-16.698089
1125.693830	-16.699744
1126.116677	-16.696850
1126.539842	-16.669008
1126.963324	-16.627040
1127.387126	-16.599956
1127.811246	-16.599263
1128.235685	-16.604534
1128.660444	-16.588245
1129.085522	-16.549817
1129.510922	-16.516992
1129.936641	-16.511528
1130.362682	-16.522023
1130.789044	-16.517523
1131.215728	-16.485470
1131.642734	-16.448460
1132.070063	-16.436224
1132.497714	-16.448144
1132.925689	-16.453296
1133.353987	-16.428406
1133.782610	-16.388431
1134.211556	-16.367878
1134.640827	-16.376725
1135.070424	-16.387350
1135.500345	-16.368817
1135.930593	-16.327346
1136.361166	-16.298211
1136.792067	-16.299843
1137.223294	-16.310284
1137.654848	-16.295728
1138.086730	-16.254553
1138.518940	-16.218825
1138.951479	-16.211081
1139.384346	-16.216320
1139.817543	-16.202590
1140.251069	-16.163226
1140.684925	-16.123935
1141.119111	-16.107222
1141.553628	-16.104496
1141.988475	-16.089495
1142.423655	-16.053213
1142.859166	-16.013592
1143.295009	-15.990013
1143.731185	-15.979333
1144.167694	-15.962699
1144.604536	-15.930535
1145.041711	-15.893035
1145.479221	-15.865300
1145.917065	-15.848781
1146.355245	-15.831720
1146.793759	-15.804488
1147.232609	-15.770557
1147.671795	-15.741313
1148.111317	-15.721957
1148.551177	-15.706272
1148.991373	-15.684189
1149.431907	-15.654316
1149.872779	-15.625646
1150.313989	-15.606263
1150.755538	-15.593178
1151.197426	-15.575561
1151.639653	-15.549257
1152.082220	-15.522533
1152.525128	-15.505177
1152.968376	-15.494958
1153.411966	-15.480276
1153.855897	-15.456420
1154.300169	-15.432179
1154.744784	-15.417490
1155.189742	-15.409236
1155.635042	-15.395545
1156.080687	-15.372932
1156.526674	-15.351044
1156.973007	-15.338475
1157.419683	-15.330357
1157.866705	-15.315710
1158.314072	-15.293441
1158.761786	-15.273482
1159.209845	-15.261714
1159.658251	-15.251824
1160.107004	-15.234830
1160.556104	-15.212418
1161.005553	-15.193614
1161.455349	-15.181265
1161.905494	-15.168280
1162.355989	-15.148591
1162.806832	-15.125902
1163.258026	-15.107341
1163.709570	-15.093159
1164.161464	-15.076854
1164.613710	-15.055334
1165.066307	-15.032715
1165.519256	-15.013742
1165.972558	-14.996967
1166.426212	-14.978034
1166.880219	-14.955997
1167.334580	-14.934122
1167.789295	-14.914419
1168.244364	-14.895375
1168.699788	-14.875070
1169.155567	-14.853817
1169.611702	-14.833021
1170.068193	-14.812850
1170.525041	-14.792737
1170.982245	-14.772638
1171.439807	-14.752710
1171.897726	-14.732804
1172.356004	-14.712727
1172.814640	-14.693221
1173.273635	-14.674665
1173.732989	-14.656023
1174.192703	-14.636467
1174.652778	-14.616973
1175.113213	-14.599369
1175.574009	-14.582852
1176.035167	-14.564990
1176.496687	-14.545391
1176.958569	-14.527015
1177.420814	-14.511701
1177.883422	-14.496829
1178.346394	-14.479064
1178.809730	-14.459645
1179.273430	-14.442899
1179.737496	-14.429512
1180.201927	-14.415231
1180.666723	-14.397268
1181.131886	-14.378775
1181.597416	-14.364110
1182.063312	-14.351809
1182.529576	-14.337107
1182.996209	-14.319194
1183.463209	-14.302731
1183.930579	-14.290192
1184.398317	-14.278180
1184.866426	-14.262725
1185.334904	-14.245866
1185.803754	-14.232196
1186.272974	-14.221484
1186.742566	-14.209070
1187.212529	-14.193423
1187.682865	-14.178692
1188.153574	-14.167968
1188.624656	-14.158260
1189.096112	-14.145243
1189.567942	-14.130345
1190.040147	-14.118405
1190.512726	-14.109857
1190.985681	-14.099948
1191.459012	-14.086390
1191.932720	-14.073017
1192.406804	-14.063606
1192.881265	-14.055591
1193.356104	-14.044279
1193.831322	-14.030385
1194.306918	-14.018891
1194.782893	-14.010715
1195.259248	-14.001242
1195.735982	-13.987792
1196.213097	-13.974186
1196.690593	-13.964280
1197.168471	-13.955559
1197.646730	-13.943161
1198.125371	-13.928160
1198.604395	-13.915787
1199.083803	-13.906718
1199.563594	-13.895749
1200.043769	-13.880641
1200.524329	-13.866084
1201.005273	-13.855848
1201.486604	-13.846402
1201.968320	-13.832818
1202.450422	-13.817426
1202.932912	-13.805874
1203.415789	-13.797632
1203.899054	-13.786681
1204.382707	-13.772195
1204.866748	-13.759949
1205.351179	-13.752558
1205.836000	-13.744599
1206.321211	-13.732231
1206.806812	-13.719920
1207.292805	-13.712864
1207.779189	-13.707566
1208.265965	-13.697889
1208.753134	-13.685852
1209.240696	-13.678245
1209.728651	-13.674502
1210.217000	-13.667449
1210.705744	-13.655904
1211.194883	-13.646829
1211.684417	-13.642881
1212.174347	-13.637625
1212.664673	-13.626766
1213.155396	-13.615954
1213.646516	-13.610501
1214.138034	-13.605820
1214.629951	-13.595669
1215.122266	-13.583507
1215.614980	-13.576206
1216.108095	-13.571519
1216.601609	-13.562214
1217.095524	-13.549457
1217.589841	-13.540725
1218.084559	-13.536130
1218.579679	-13.528193
1219.075202	-13.515756
1219.571128	-13.506221
1220.067458	-13.501846
1220.564191	-13.495634
1221.061330	-13.484316
1221.558874	-13.474454
1222.056823	-13.470103
1222.555178	-13.465261
1223.053940	-13.455106
1223.553109	-13.444911
1224.052686	-13.439936
1224.552671	-13.435391
1225.053065	-13.425495
1225.553867	-13.414309
1226.055079	-13.407825
1226.556702	-13.402431
1227.058735	-13.391709
1227.561179	-13.378720
1228.064035	-13.370005
1228.567303	-13.363016
1229.070983	-13.351020
1229.575077	-13.336092
1230.079585	-13.325152
1230.584506	-13.316633
1231.089842	-13.303696
1231.595594	-13.287551
1232.101761	-13.275143
1232.608345	-13.265808
1233.115345	-13.252703
1233.622762	-13.236331
1234.130597	-13.223493
1234.638851	-13.214040
1235.147523	-13.201264
1235.656615	-13.185121
1236.166126	-13.172258
1236.676058	-13.162749
1237.186411	-13.150083
1237.697185	-13.133857
1238.208381	-13.120466
1238.719999	-13.110204
1239.232040	-13.096780
1239.744505	-13.079709
1240.257394	-13.065124
1240.770708	-13.053405
1241.284446	-13.038591
1241.798610	-13.020292
1242.313201	-13.004474
1242.828218	-12.991432
1243.343662	-12.975468
1243.859534	-12.956580
1244.375834	-12.940390
1244.892563	-12.926996
1245.409721	-12.910863
1245.927309	-12.892346
1246.445327	-12.876906
1246.963777	-12.864068
1247.482657	-12.848458
1248.001970	-12.830904
1248.521716	-12.816496
1249.041894	-12.804164
1249.562506	-12.788821
1250.083553	-12.771704
1250.605034	-12.757555
1251.126950	-12.744726
1251.649302	-12.728638
1252.172091	-12.711035
1252.695316	-12.696146
1253.218979	-12.681991
1253.743079	-12.664641
1254.267619	-12.646347
1254.792597	-12.630851
1255.318015	-12.615729
1255.843874	-12.597864
1256.370173	-12.580026
1256.896913	-12.565043
1257.424095	-12.550264
1257.951720	-12.533296
1258.479787	-12.517166
1259.008298	-12.503786
1259.537254	-12.490078
1260.066654	-12.474593
1260.596499	-12.460279
1261.126790	-12.448049
1261.657527	-12.434787
1262.188711	-12.419939
1262.720342	-12.406268
1263.252422	-12.393751
1263.784950	-12.379632
1264.317928	-12.364325
1264.851355	-12.350265
1265.385232	-12.336692
1265.919560	-12.321494
1266.454340	-12.305865
1266.989572	-12.291789
1267.525256	-12.277959
1268.061394	-12.262914
1268.597985	-12.248288
1269.135031	-12.235360
1269.672531	-12.222507
1270.210487	-12.208715
1270.748899	-12.195722
1271.287768	-12.184128
1271.827094	-12.172025
1272.366877	-12.158955
1272.907119	-12.146555
1273.447820	-12.134853
1273.988981	-12.122098
1274.530601	-12.108368
1275.072683	-12.095217
1275.615226	-12.082343
1276.158230	-12.068335
1276.701697	-12.053828
1277.245627	-12.040269
1277.790021	-12.026998
1278.334879	-12.012977
1278.880202	-11.999233
1279.425991	-11.986820
1279.972245	-11.974696
1280.518966	-11.962004
1281.066155	-11.950079
1281.613811	-11.939453
1282.161936	-11.928450
1282.710529	-11.916812
1283.259593	-11.906143
1283.809126	-11.896144
1284.359131	-11.885047
1284.909607	-11.873572
1285.460555	-11.863386
1286.011976	-11.853296
1286.563870	-11.842033
1287.116237	-11.831444
1287.669080	-11.822540
1288.222397	-11.813313
1288.776191	-11.803555
1289.330460	-11.795671
1289.885207	-11.789143
1290.440431	-11.781600
1290.996133	-11.774374
1291.552314	-11.769257
1292.108975	-11.763999
1292.666115	-11.757253
1293.223737	-11.751579
1293.781839	-11.747192
1294.340424	-11.741164
1294.899491	-11.734339
1295.459041	-11.729442
1296.019075	-11.724603
1296.579593	-11.717986
1297.140597	-11.712489
1297.702086	-11.709009
1298.264061	-11.704422
1298.826524	-11.699309
1299.389474	-11.696588
1299.952912	-11.694249
1300.516839	-11.690062
1301.081255	-11.686829
1301.646162	-11.685097
1302.211559	-11.681490
1302.777448	-11.676752
1303.343829	-11.673690
1303.910702	-11.670077
1304.478069	-11.664241
1305.045930	-11.659422
1305.614285	-11.655893
1306.183136	-11.650592
1306.752483	-11.645172
1307.322326	-11.641972
1307.892666	-11.638275
1308.463504	-11.633242
1309.034841	-11.629831
1309.606677	-11.626961
1310.179012	-11.622036
1310.751849	-11.617133
1311.325186	-11.613199
1311.899025	-11.607514
1312.473366	-11.600653
1313.048211	-11.594826
1313.623559	-11.588548
1314.199412	-11.581016
1314.775770	-11.574473
1315.352634	-11.568778
1315.930004	-11.562372
1316.507881	-11.556591
1317.086266	-11.552058
1317.665159	-11.547057
1318.244562	-11.541906
1318.824474	-11.537475
1319.404897	-11.532482
1319.985831	-11.526694
1320.567276	-11.521073
1321.149234	-11.515094
1321.731706	-11.508477
1322.314691	-11.502184
1322.898190	-11.496073
1323.482205	-11.490019
1324.066736	-11.484673
1324.651783	-11.479751
1325.237347	-11.475026
1325.823430	-11.470897
1326.410031	-11.466629
1326.997151	-11.461807
1327.584791	-11.457091
1328.172952	-11.451654
1328.761634	-11.444902
1329.350839	-11.438246
1329.940566	-11.431274
1330.530817	-11.423056
1331.121592	-11.415464
1331.712891	-11.408722
1332.304716	-11.401081
1332.897068	-11.394144
1333.489946	-11.388740
1334.083352	-11.382246
1334.677287	-11.375471
1335.271750	-11.370087
1335.866744	-11.363302
1336.462268	-11.355092
1337.058323	-11.348323
1337.654910	-11.340781
1338.252029	-11.331651
1338.849682	-11.324573
1339.447869	-11.318147
1340.046591	-11.310381
1340.645848	-11.304852
1341.245641	-11.300841
1341.845972	-11.295032
1342.446840	-11.290497
1343.048246	-11.287434
1343.650191	-11.281802
1344.252677	-11.276287
1344.855702	-11.272506
1345.459269	-11.266357
1346.063379	-11.260032
1346.668030	-11.256394
1347.273226	-11.251367
1347.878965	-11.246023
1348.485250	-11.243779
1349.092080	-11.240514
1349.699456	-11.235922
1350.307380	-11.233775
1350.915851	-11.230363
1351.524871	-11.224586
1352.134441	-11.220802
1352.744560	-11.216287
1353.355231	-11.209554
1353.966453	-11.205278
1354.578227	-11.201459
1355.190555	-11.195886
1355.803436	-11.192928
1356.416872	-11.190806
1357.030863	-11.186489
1357.645411	-11.184012
1358.260515	-11.182112
1358.876177	-11.177510
1359.492397	-11.174361
1360.109176	-11.172333
1360.726516	-11.168112
1361.344416	-11.165793
1361.962877	-11.165497
1362.581901	-11.163433
1363.201487	-11.163021
1363.821637	-11.164449
1364.442352	-11.163438
1365.063632	-11.163018
1365.685478	-11.163837
1366.307891	-11.161828
1366.930871	-11.160172
1367.554420	-11.160208
1368.178538	-11.158029
1368.803226	-11.156750
1369.428485	-11.157672
1370.054315	-11.156518
1370.680717	-11.155973
1371.307693	-11.157128
1371.935242	-11.155597
1372.563366	-11.154212
1373.192065	-11.154376
1373.821341	-11.152122
1374.451193	-11.150658
1375.081623	-11.151498
1375.712632	-11.150604
1376.344221	-11.151041
1376.976389	-11.153716
1377.609139	-11.154303
1378.242470	-11.155773
1378.876384	-11.158676
1379.510881	-11.159143
1380.145963	-11.160629
1380.781629	-11.163562
1381.417881	-11.164681
1382.054720	-11.167483
1382.692147	-11.171660
1383.330161	-11.174057
1383.968765	-11.177771
1384.607959	-11.181809
1385.247743	-11.183563
1385.888119	-11.186357
1386.529087	-11.189174
1387.170648	-11.190385
1387.812804	-11.193460
1388.455554	-11.196944
1389.098899	-11.199574
1389.742842	-11.204099
1390.387381	-11.208470
1391.032519	-11.211707
1391.678256	-11.216327
1392.324592	-11.220411
1392.971529	-11.223902
1393.619068	-11.229315
1394.267208	-11.234732
1394.915952	-11.240353
1395.565300	-11.247854
1396.215253	-11.254805
1396.865812	-11.261351
1397.516977	-11.268792
1398.168749	-11.274876
1398.821130	-11.280647
1399.474120	-11.287588
1400.127719	-11.293648
1400.781930	-11.300404
1401.436752	-11.308489
1402.092186	-11.315409
1402.748234	-11.322874
1403.404897	-11.330737
1404.062174	-11.336922
1404.720067	-11.344233
1405.378577	-11.352113
1406.037705	-11.359431
1406.697451	-11.369203
1407.357817	-11.379352
1408.018803	-11.389151
1408.680410	-11.400682
1409.342639	-11.410880
1410.005492	-11.420503
1410.668968	-11.431299
1411.333068	-11.440666
1411.997795	-11.451015
1412.663147	-11.462689
1413.329127	-11.473267
1413.995736	-11.485148
1414.662973	-11.496765
1415.330840	-11.506853
1415.999339	-11.517989
1416.668469	-11.528452
1417.338232	-11.538955
1418.008628	-11.551556
1418.679659	-11.564042
1419.351325	-11.577462
1420.023628	-11.591953
1420.696568	-11.605147
1421.370145	-11.618621
1422.044362	-11.632056
1422.719219	-11.644552
1423.394717	-11.658364
1424.070856	-11.672504
1424.747638	-11.686482
1425.425064	-11.701601
1426.103134	-11.715775
1426.781850	-11.729420
1427.461212	-11.743644
1428.141221	-11.757039
1428.821878	-11.771521
1429.503185	-11.787340
1430.185141	-11.802989
1430.867749	-11.820058
1431.551008	-11.836832
1432.234920	-11.852517
1432.919486	-11.868867
1433.604707	-11.883970
1434.290583	-11.899094
1434.977116	-11.915195
1435.664307	-11.929895
1436.352156	-11.945116
1437.040664	-11.959681
1437.729833	-11.972378
1438.419663	-11.986154
1439.110156	-11.999125
1439.801312	-12.012778
1440.493132	-12.028805
1441.185617	-12.044303
1441.878768	-12.061794
1442.572586	-12.079916
1443.267072	-12.097259
1443.962228	-12.117067
1444.658053	-12.136235
1445.354549	-12.156250
1446.051717	-12.177538
1446.749558	-12.196231
1447.448073	-12.215136
1448.147263	-12.231539
1448.847128	-12.245212
1449.547671	-12.259244
1450.248891	-12.270236
1450.950789	-12.281402
1451.653368	-12.291951
1452.356627	-12.300054
1453.060568	-12.309586
1453.765192	-12.317967
1454.470500	-12.328097
1455.176492	-12.341742
1455.883170	-12.356578
1456.590534	-12.376031
1457.298586	-12.397157
1458.007327	-12.420186
1458.716758	-12.447111
1459.426880	-12.475271
1460.137693	-12.507993
1460.849199	-12.543429
1461.561398	-12.579945
1462.274293	-12.618595
1462.987883	-12.655124
1463.702170	-12.691388
1464.417155	-12.726663
1465.132838	-12.759484
1465.849222	-12.792008
1466.566306	-12.820183
1467.284093	-12.844824
1468.002582	-12.865355
1468.721775	-12.880693
1469.441674	-12.895031
1470.162278	-12.907137
1470.883590	-12.919854
1471.605609	-12.933897
1472.328338	-12.948408
1473.051777	-12.967359
1473.775928	-12.990321
1474.500790	-13.021130
1475.226367	-13.061338
1475.952657	-13.110278
1476.679663	-13.169916
1477.407386	-13.238036
1478.135826	-13.316239
1478.864985	-13.404945
1479.594863	-13.503161
1480.325463	-13.611229
1481.056784	-13.725263
1481.788828	-13.843557
1482.521597	-13.964267
1483.255090	-14.085454
1483.989309	-14.207432
1484.724256	-14.327056
1485.459931	-14.441846
1486.196336	-14.548824
1486.933471	-14.645185
1487.671337	-14.732607
1488.409937	-14.811730
1489.149270	-14.885102
1489.889337	-14.953842
1490.630141	-15.017533
1491.371682	-15.079009
1492.113961	-15.140516
1492.856979	-15.207650
1493.600738	-15.284705
1494.345238	-15.372836
1495.090481	-15.473642
1495.836467	-15.586065
1496.583198	-15.713456
1497.330675	-15.859778
1498.078899	-16.027770
1498.827872	-16.220192
1499.577593	-16.434137
1500.328065	-16.670583
1501.079289	-16.930772
1501.831265	-17.217621
1502.583995	-17.534916
1503.337480	-17.877779
1504.091721	-18.243216
1504.846719	-18.624333
1505.602475	-19.018863
1506.358991	-19.426747
1507.116268	-19.839198
1507.874306	-20.248391
1508.633108	-20.636681
1509.392673	-20.994551
1510.153004	-21.314674
1510.914101	-21.585620
1511.675965	-21.797317
1512.438599	-21.927461
1513.202002	-21.967695
1513.966176	-21.913077
1514.731122	-21.767191
1515.496842	-21.536490
1516.263336	-21.218889
1517.030607	-20.823953
1517.798654	-20.358031
1518.567479	-19.839342
1519.337083	-19.279812
1520.107468	-18.686865
1520.878634	-18.066524
1521.650584	-17.419887
1522.423317	-16.756225
1523.196836	-16.078132
1523.971141	-15.391212
1524.746233	-14.694732
1525.522115	-13.989970
1526.298786	-13.280395
1527.076249	-12.569495
1527.854504	-11.863416
1528.633553	-11.164066
1529.413397	-10.476515
1530.194037	-9.804401
1530.975474	-9.154247
1531.757709	-8.531155
1532.540745	-7.938709
1533.324581	-7.380090
1534.109220	-6.857505
1534.894662	-6.375096
1535.680909	-5.935340
1536.467961	-5.540453
1537.255821	-5.190904
1538.044489	-4.887473
1538.833967	-4.631912
1539.624256	-4.425469
1540.415357	-4.269224
1541.207271	-4.162233
1542.000000	-4.104289
1542.793545	-4.095170
1543.587907	-4.135274
1544.383087	-4.224282
1545.179088	-4.360662
1545.975909	-4.543620
1546.773552	-4.772217
1547.572019	-5.046958
1548.371311	-5.366645
1549.171428	-5.730391
1549.972373	-6.136886
1550.774147	-6.586294
1551.576751	-7.079256
1552.380185	-7.615737
1553.184453	-8.196456
1553.989554	-8.822201
1554.795490	-9.496474
1555.602263	-10.221733
1556.409873	-11.001340
1557.218322	-11.838246
1558.027612	-12.738281
1558.837743	-13.709057
1559.648717	-14.757848
1560.460536	-15.892058
1561.273200	-17.116454
1562.086710	-18.435027
1562.901069	-19.835272
1563.716278	-21.273728
1564.532337	-22.634625
1565.349249	-23.708354
1566.167014	-24.229551
1566.985634	-24.077321
1567.805111	-23.391917
1568.625444	-22.438217
1569.446637	-21.415354
1570.268690	-20.428097
1571.091605	-19.514433
1571.915382	-18.682651
1572.740024	-17.929605
1573.565532	-17.249789
1574.391907	-16.636357
1575.219150	-16.079607
1576.047262	-15.572364
1576.876246	-15.109894
1577.706103	-14.690427
1578.536833	-14.308555
1579.368439	-13.958774
1580.200922	-13.637334
1581.034282	-13.344905
1581.868522	-13.080890
1582.703643	-12.841911
1583.539646	-12.624152
1584.376532	-12.426499
1585.214304	-12.249408
1586.052962	-12.090806
1586.892508	-11.947950
1587.732943	-11.819182
1588.574269	-11.705580
1589.416487	-11.606279
1590.259599	-11.519351
1591.103605	-11.442613
1591.948508	-11.376481
1592.794309	-11.320853
1593.641009	-11.275116
1594.488609	-11.238394
1595.337112	-11.211135
1596.186518	-11.193443
1597.036829	-11.184553
1597.888047	-11.183992
1598.740172	-11.191964
1599.593207	-11.208759
1600.447153	-11.233480
1601.302010	-11.265961
1602.157782	-11.305782
1603.014469	-11.352363
1603.872072	-11.403506
1604.730593	-11.458619
1605.590034	-11.517018
1606.450397	-11.578183
1607.311681	-11.639769
1608.173890	-11.701279
1609.037024	-11.761633
1609.901085	-11.819747
1610.766075	-11.873244
1611.631995	-11.922764
1612.498846	-11.968718
1613.366630	-12.010900
1614.235349	-12.047516
1615.105004	-12.079590
1615.975596	-12.107969
1616.847128	-12.133009
1617.719600	-12.154395
1618.593014	-12.174397
1619.467372	-12.194110
1620.342675	-12.213323
1621.218924	-12.231805
1622.096122	-12.252123
1622.974270	-12.275355
1623.853369	-12.301220
1624.733420	-12.329798
1625.614427	-12.363295
1626.496389	-12.401362
1627.379308	-12.442330
1628.263187	-12.485779
1629.148026	-12.533960
1630.033828	-12.586704
1630.920593	-12.642286
1631.808324	-12.699346
1632.697022	-12.758870
1633.586688	-12.820795
1634.477324	-12.884216
1635.368932	-12.947296
1636.261514	-13.010016
1637.155070	-13.073097
1638.049602	-13.136724
1638.945113	-13.198335
1639.841603	-13.257816
1640.739075	-13.318676
1641.637529	-13.383790
1642.536968	-13.450295
1643.437393	-13.515270
1644.338806	-13.577844
1645.241209	-13.637564
1646.144602	-13.695299
1647.048988	-13.756778
1647.954368	-13.823817
1648.860744	-13.889636
1649.768118	-13.949926
1650.676491	-14.010480
1651.585865	-14.074747
1652.496241	-14.138721
1653.407621	-14.201364
1654.320008	-14.266084
1655.233401	-14.332031
1656.147804	-14.397647
1657.063218	-14.465350
1657.979645	-14.534731
1658.897085	-14.602912
1659.815542	-14.672160
1660.735016	-14.743907
1661.655509	-14.813761
1662.577023	-14.882561
1663.499560	-14.954413
1664.423121	-15.024479
1665.347709	-15.088196
1666.273324	-15.152434
1667.199969	-15.218615
1668.127645	-15.279587
1669.056353	-15.337352
1669.986097	-15.397301
1670.916877	-15.453633
1671.848695	-15.504860
1672.781553	-15.557810
1673.715452	-15.609987
1674.650395	-15.656568
1675.586383	-15.703206
1676.523418	-15.750394
1677.461501	-15.793029
1678.400635	-15.835640
1679.340821	-15.879197
1680.282061	-15.916669
1681.224357	-15.951484
1682.167710	-15.988212
1683.112122	-16.019492
1684.057595	-16.047196
1685.004132	-16.077116
1685.951732	-16.100976
1686.900400	-16.118585
1687.850135	-16.139864
1688.800940	-16.157139
1689.752818	-16.164696
1690.705768	-16.174127
1691.659795	-16.182590
1692.614898	-16.182766
1693.571081	-16.184294
1694.528345	-16.185903
1695.486691	-16.178447
1696.446122	-16.171096
1697.406640	-16.165485
1698.368245	-16.152177
1699.330941	-16.137314
1700.294729	-16.122943
1701.259611	-16.102293
1702.225588	-16.081380
1703.192664	-16.060747
1704.160838	-16.033326
1705.130114	-16.005628
1706.100493	-15.978217
1707.071977	-15.945883
1708.044568	-15.914391
1709.018268	-15.881063
1709.993079	-15.842849
1710.969003	-15.807876
1711.946041	-15.771135
1712.924196	-15.729223
1713.903469	-15.691300
1714.883862	-15.651318
1715.865378	-15.607151
1716.848017	-15.567266
1717.831783	-15.523765
1718.816677	-15.476565
1719.802701	-15.433574
1720.789857	-15.387531
1721.778147	-15.340227
1722.767573	-15.295389
1723.758136	-15.246637
1724.749840	-15.199621
1725.742685	-15.153561
1726.736673	-15.102627
1727.731808	-15.055305
1728.728090	-15.007869
1729.725521	-14.957346
1730.724105	-14.911316
1731.723842	-14.862531
1732.724735	-14.812371
1733.726785	-14.766526
1734.729995	-14.717389
1735.734366	-14.669566
1736.739902	-14.623763
1737.746603	-14.575418
1738.754472	-14.531129
1739.763510	-14.485714
1740.773721	-14.438821
1741.785105	-14.396457
1742.797665	-14.352100
1743.811403	-14.309105
1744.826321	-14.267452
1745.842422	-14.223797
1746.859706	-14.183945
1747.878177	-14.142141
1748.897835	-14.100372
1749.918685	-14.061652
1750.940726	-14.019646
1751.963963	-13.980902
1752.988395	-13.941749
1754.014027	-13.900439
1755.040860	-13.863637
1756.068895	-13.824052
1757.098135	-13.784687
1758.128583	-13.745937
1759.160240	-13.704908
1760.193109	-13.666696
1761.227191	-13.626158
1762.262488	-13.587316
1763.299004	-13.550911
1764.336740	-13.511561
1765.375697	-13.473401
1766.415880	-13.433656
1767.457288	-13.394259
1768.499926	-13.355512
1769.543794	-13.317773
1770.588895	-13.283048
1771.635231	-13.247062
1772.682805	-13.213676
1773.731619	-13.177725
1774.781674	-13.141191
1775.832973	-13.108560
1776.885519	-13.073335
1777.939312	-13.041127
1778.994357	-13.009497
1780.050654	-12.978651
1781.108207	-12.948020
1782.167017	-12.916916
1783.227087	-12.889368
1784.288418	-12.859301
1785.351013	-12.831981
1786.414875	-12.803996
1787.480006	-12.775955
1788.546407	-12.749611
1789.614082	-12.721706
1790.683032	-12.697466
1791.753259	-12.671067
1792.824767	-12.646942
1793.897557	-12.621573
1794.971632	-12.596724
1796.046994	-12.573671
1797.123645	-12.548411
1798.201588	-12.526310
1799.280824	-12.502285
1800.361357	-12.480328
1801.443188	-12.456158
1802.526320	-12.435184
1803.610756	-12.413284
1804.696497	-12.390491
1805.783546	-12.370693
1806.871906	-12.347520
1807.961578	-12.328013
1809.052565	-12.305661
1810.144870	-12.287051
1811.238494	-12.265841
1812.333441	-12.246612
1813.429713	-12.227078
1814.527311	-12.207514
1815.626239	-12.189689
1816.726499	-12.170136
1817.828094	-12.154155
1818.931025	-12.134729
1820.035295	-12.119564
1821.140906	-12.100929
1822.247862	-12.086458
1823.356165	-12.068656
1824.465816	-12.054229
1825.576819	-12.038682
1826.689175	-12.024540
1827.802888	-12.010284
1828.917960	-11.996098
1830.034394	-11.982952
1831.152191	-11.967215
1832.271354	-11.956292
1833.391887	-11.940940
1834.513790	-11.930422
1835.637068	-11.916546
1836.761722	-11.905850
1837.887755	-11.891838
1839.015169	-11.881848
1840.143968	-11.867124
1841.274153	-11.856293
1842.405727	-11.841487
1843.538693	-11.830575
1844.673053	-11.816631
1845.808810	-11.806511
1846.945966	-11.793607
1848.084525	-11.782992
1849.224488	-11.770678
1850.365858	-11.759895
1851.508638	-11.747707
1852.652831	-11.737156
1853.798438	-11.725318
1854.945463	-11.715679
1856.093909	-11.705540
1857.243777	-11.697321
1858.395071	-11.688188
1859.547794	-11.680072
1860.701947	-11.671205
1861.857533	-11.663364
1863.014556	-11.654397
1864.173018	-11.647591
1865.332922	-11.639454
1866.494270	-11.634131
1867.657065	-11.628164
1868.821309	-11.622908
1869.987006	-11.615862
1871.154158	-11.610467
1872.322768	-11.603172
1873.492839	-11.599867
1874.664373	-11.594203
1875.837373	-11.590601
1877.011841	-11.585816
1878.187782	-11.582887
1879.365197	-11.580088
1880.544089	-11.576691
1881.724460	-11.573110
1882.906315	-11.568363
1884.089655	-11.568000
1885.274483	-11.566095
1886.460803	-11.563149
1887.648616	-11.557962
1888.837927	-11.559713
1890.028736	-11.555436
1891.221049	-11.554618
1892.414866	-11.552094
1893.610192	-11.551667
1894.807028	-11.549187
1896.005379	-11.547640
1897.205246	-11.547450
1898.406633	-11.545900
1899.609542	-11.547066
1900.813977	-11.544191
1902.019940	-11.545652
1903.227434	-11.543329
1904.436462	-11.544450
1905.647028	-11.542194
1906.859133	-11.542097
1908.072781	-11.541464
1909.287976	-11.541065
1910.504719	-11.541704
1911.723013	-11.539366
1912.942863	-11.540600
1914.164270	-11.538665
1915.387238	-11.540192
1916.611770	-11.539377
1917.837868	-11.539221
1919.065536	-11.541428
1920.294777	-11.541390
1921.525594	-11.545636
1922.757989	-11.546180
1923.991967	-11.549570
1925.227529	-11.552544
1926.464679	-11.554821
1927.703420	-11.560832
1928.943755	-11.563765
1930.185688	-11.570575
1931.429221	-11.575120
1932.674356	-11.579728
1933.921099	-11.586493
1935.169451	-11.590108
1936.419415	-11.597692
1937.670996	-11.602816
1938.924195	-11.609273
1940.179017	-11.617660
1941.435463	-11.623109
1942.693538	-11.631621
1943.953245	-11.638196
1945.214586	-11.644701
1946.477566	-11.654661
1947.742186	-11.659919
1949.008451	-11.670384
1950.276363	-11.678551
1951.545926	-11.686892
1952.817143	-11.698276
1954.090017	-11.704572
1955.364551	-11.714989
1956.640749	-11.723476
1957.918615	-11.731214
1959.198150	-11.741880
1960.479359	-11.750140
1961.762244	-11.759697
1963.046810	-11.770451
1964.333059	-11.778729
1965.620995	-11.788103
1966.910621	-11.797849
1968.201940	-11.804996
1969.494956	-11.815880
1970.789672	-11.826451
1972.086091	-11.834363
1973.384217	-11.846179
1974.684053	-11.854491
1975.985602	-11.864426
1977.288869	-11.877110
1978.593855	-11.885476
1979.900566	-11.895915
1981.209003	-11.909838
1982.519171	-11.919870
1983.831073	-11.934242
1985.144712	-11.946909
1986.460093	-11.957857
1987.777217	-11.971710
1989.096089	-11.985501
1990.416713	-11.997267
1991.739092	-12.011718
1993.063228	-12.027310
1994.389127	-12.039526
1995.716791	-12.055489
1997.046223	-12.072433
1998.377428	-12.086307
1999.710409	-12.103910
2001.045169	-12.122877
2002.381713	-12.138281
2003.720043	-12.157576
2005.060163	-12.177764
2006.402077	-12.194701
2007.745788	-12.214501
2009.091301	-12.236042
2010.438618	-12.254884
2011.787743	-12.273523
2013.138680	-12.297524
2014.491433	-12.317029
2015.846005	-12.335587
2017.202399	-12.358604
2018.560621	-12.379225
2019.920673	-12.398238
2021.282558	-12.420333
2022.646281	-12.442429
2024.011846	-12.461617
2025.379256	-12.481954
2026.748515	-12.505158
2028.119626	-12.526005
2029.492594	-12.545221
2030.867422	-12.568165
2032.244114	-12.592455
2033.622673	-12.611653
2035.003104	-12.633199
2036.385411	-12.657729
2037.769597	-12.679732
2039.155665	-12.700829
2040.543621	-12.724427
2041.933467	-12.750958
2043.325208	-12.772980
2044.718847	-12.794239
2046.114389	-12.820118
2047.511837	-12.845729
2048.911195	-12.868465
2050.312467	-12.893676
2051.715657	-12.923220
2053.120769	-12.952500
2054.527807	-12.977505
2055.936775	-13.005259
2057.347677	-13.037419
2058.760516	-13.068062
2060.175297	-13.096502
2061.592025	-13.127996
2063.010701	-13.163133
2064.431332	-13.197945
2065.853921	-13.228932
2067.278472	-13.260608
2068.704988	-13.299148
2070.133475	-13.337895
2071.563936	-13.373500
2072.996375	-13.409478
2074.430796	-13.448708
2075.867204	-13.489955
2077.305603	-13.528391
2078.745996	-13.563611
2080.188389	-13.602776
2081.632784	-13.646363
2083.079187	-13.688020
2084.527601	-13.726342
2085.978030	-13.762751
2087.430480	-13.803762
2088.884954	-13.847345
2090.341455	-13.887780
2091.799990	-13.925456
2093.260561	-13.963448
2094.723173	-14.006040
2096.187831	-14.050522
2097.654538	-14.091493
2099.123300	-14.129435
2100.594119	-14.169432
2102.067001	-14.213253
2103.541950	-14.259868
2105.018971	-14.303707
2106.498067	-14.343041
2107.979243	-14.383637
2109.462503	-14.429031
2110.947853	-14.477062
2112.435295	-14.525714
2113.924836	-14.570934
2115.416478	-14.614049
2116.910227	-14.660390
2118.406087	-14.710605
2119.904063	-14.764415
2121.404158	-14.817362
2122.906378	-14.865941
2124.410727	-14.913564
2125.917210	-14.963716
2127.425831	-15.018294
2128.936594	-15.076933
2130.449505	-15.135287
2131.964567	-15.190358
2133.481786	-15.243993
2135.001166	-15.298893
2136.522711	-15.357386
2138.046427	-15.420424
2139.572317	-15.484822
2141.100388	-15.547701
2142.630642	-15.607622
2144.163085	-15.665303
2145.697722	-15.723152
2147.234558	-15.784684
2148.773596	-15.849388
2150.314842	-15.915210
2151.858301	-15.980606
2153.403977	-16.042554
2154.951875	-16.101176
2156.502000	-16.158711
2158.054357	-16.215106
2159.608950	-16.272830
2161.165785	-16.335068
2162.724866	-16.400194
2164.286198	-16.464052
2165.849786	-16.526490
2167.415635	-16.586004
2168.983749	-16.641746
2170.554134	-16.696848
2172.126795	-16.753226
2173.701737	-16.811449
2175.278964	-16.874201
2176.858481	-16.941852
2178.440294	-17.011744
2180.024408	-17.082865
2181.610827	-17.155348
2183.199557	-17.226820
2184.790602	-17.297589
2186.383968	-17.367167
2187.979660	-17.434650
2189.577683	-17.503272
2191.178041	-17.575302
2192.780741	-17.649249
2194.385787	-17.726780
2195.993185	-17.810668
2197.602939	-17.898877
2199.215054	-17.981802
