# 2022-03-22_10.59.12
# shape = sech2
# FWHM_ps = 0.11
# carrier_nm = 1542
# frep_MHz = 12126
# pow_mW = 8000
# GDD = 0.0
# propa_len = 0.13244444444444445
# untap_len = 0.01
# taper_len = 0.07244444444444445
# waist_len = 0.02
# uptap_len = 0.02
# untap_scale = 1.0
# waist_scale = 0.21052631578947373
# workingDir = NL_20110305_12 (Spirou)
# axis = slow
# window_ps = 10.0
# steps = 200
# points = 21700
# 
# wavelength [nm]	 power spectral density [dB]
600.043425	-87.788108
600.163550	-87.016284
600.283723	-86.382963
600.403943	-85.867027
600.524212	-85.445764
600.644529	-85.064635
600.764895	-84.670395
600.885308	-84.270313
601.005770	-83.989857
601.126280	-83.919383
601.246839	-84.084388
601.367446	-84.447761
601.488101	-84.939580
601.608804	-85.461852
601.729557	-85.880317
601.850357	-86.049619
601.971206	-85.899815
602.092104	-85.538615
602.213050	-85.125787
602.334045	-84.824522
602.455089	-84.759084
602.576181	-85.046581
602.697322	-85.713246
602.818511	-86.787053
602.939749	-88.253927
603.061036	-90.050712
603.182372	-91.983004
603.303757	-93.461797
603.425191	-93.693227
603.546673	-92.749472
603.668204	-91.464037
603.789785	-90.262757
603.911414	-89.257928
604.033092	-88.469307
604.154820	-87.928094
604.276596	-87.655200
604.398422	-87.693159
604.520297	-88.108308
604.642220	-89.021516
604.764193	-90.597601
604.886216	-92.940662
605.008287	-95.095138
605.130408	-94.113336
605.252578	-91.018452
605.374798	-88.347587
605.497066	-86.518644
605.619385	-85.439022
605.741752	-85.002935
605.864169	-85.186969
605.986636	-85.989186
606.109152	-87.325399
606.231718	-88.656349
606.354333	-88.567708
606.476998	-86.668761
606.599712	-84.382866
606.722476	-82.476619
606.845290	-81.096359
606.968154	-80.216825
607.091067	-79.807856
607.214030	-79.845168
607.337043	-80.347534
607.460106	-81.363852
607.583219	-83.023204
607.706381	-85.582822
607.829594	-89.719180
607.952856	-97.862306
608.076169	-100.398132
608.199531	-91.633150
608.322944	-87.770107
608.446407	-85.621164
608.569920	-84.380792
608.693483	-83.701858
608.817096	-83.395012
608.940759	-83.313082
609.064473	-83.343192
609.188237	-83.393597
609.312051	-83.413499
609.435916	-83.410561
609.559831	-83.427332
609.683796	-83.534043
609.807812	-83.802684
609.931878	-84.287489
610.055995	-85.045698
610.180162	-86.086377
610.304380	-87.481762
610.428648	-89.287670
610.552967	-91.664266
610.677337	-94.995683
610.801757	-100.506233
610.926228	-109.714855
611.050750	-100.299444
611.175323	-94.696623
611.299946	-91.395117
611.424620	-89.212077
611.549345	-87.738037
611.674121	-86.835991
611.798948	-86.471266
611.923826	-86.632388
612.048755	-87.318463
612.173734	-88.588875
612.298765	-90.633890
612.423847	-93.903243
612.548980	-99.658333
612.674165	-111.774548
612.799400	-100.400951
612.924687	-95.143526
613.050025	-92.387089
613.175414	-90.670176
613.300854	-89.532600
613.426346	-88.833959
613.551889	-88.555270
613.677484	-88.716375
613.803130	-89.363295
613.928827	-90.521764
614.054576	-92.276445
614.180377	-94.998259
614.306229	-99.381119
614.432132	-104.493854
614.558087	-99.459882
614.684094	-94.324762
614.810153	-90.982809
614.936263	-88.617178
615.062425	-86.876390
615.188639	-85.575597
615.314904	-84.702310
615.441222	-84.183682
615.567591	-84.023816
615.694012	-84.217068
615.820486	-84.774330
615.947011	-85.701135
616.073588	-87.053103
616.200217	-88.925796
616.326898	-91.418130
616.453632	-94.524468
616.580417	-97.837641
616.707255	-99.891822
616.834144	-99.918537
616.961086	-99.646222
617.088081	-100.189576
617.215127	-102.148120
617.342226	-105.611493
617.469378	-104.244164
617.596581	-98.675265
617.723837	-94.495874
617.851146	-91.431906
617.978507	-89.075655
618.105920	-87.143597
618.233386	-85.558815
618.360905	-84.329599
618.488476	-83.461829
618.616100	-82.929527
618.743777	-82.715112
618.871506	-82.839367
618.999288	-83.347599
619.127123	-84.276927
619.255011	-85.740329
619.382951	-87.952652
619.510945	-91.245408
619.638991	-96.403460
619.767090	-102.434868
619.895243	-97.233154
620.023448	-92.681029
620.151706	-90.053286
620.280017	-88.482692
620.408382	-87.637328
620.536799	-87.358713
620.665270	-87.485316
620.793794	-87.909587
620.922371	-88.568085
621.051002	-89.419903
621.179686	-90.418663
621.308423	-91.414324
621.437213	-92.316259
621.566057	-92.941021
621.694954	-93.353447
621.823905	-93.815396
621.952909	-94.734108
622.081967	-96.642300
622.211079	-100.088962
622.340244	-103.084310
622.469462	-98.527615
622.598735	-93.745066
622.728061	-90.410481
622.857441	-87.953426
622.986874	-86.057826
623.116361	-84.597746
623.245903	-83.510605
623.375498	-82.756950
623.505147	-82.279474
623.634850	-82.039963
623.764606	-82.040548
623.894417	-82.324236
624.024282	-82.906080
624.154201	-83.828989
624.284174	-85.167464
624.414202	-87.000138
624.544283	-89.592635
624.674419	-93.467173
624.804609	-100.606863
624.934853	-111.952456
625.065151	-98.602690
625.195504	-94.346435
625.325911	-92.319903
625.456373	-91.426751
625.586889	-91.257008
625.717460	-91.738039
625.848085	-92.759299
625.978764	-94.136089
626.109498	-95.410401
626.240287	-95.965997
626.371131	-95.675843
626.502029	-95.025680
626.632982	-94.543890
626.763989	-94.562392
626.895052	-95.175930
627.026169	-96.295515
627.157341	-97.834206
627.288568	-99.531796
627.419850	-99.970835
627.551187	-97.286305
627.682579	-93.640254
627.814026	-90.585378
627.945528	-88.228806
628.077085	-86.366174
628.208697	-84.885097
628.340364	-83.748357
628.472087	-82.930744
628.603865	-82.437267
628.735698	-82.314744
628.867586	-82.573868
628.999530	-83.265838
629.131529	-84.483979
629.263584	-86.358999
629.395694	-89.018214
629.527859	-92.509565
629.660080	-95.349134
629.792357	-94.251077
629.924689	-91.758964
630.057077	-90.047761
630.189520	-89.324909
630.322019	-89.570507
630.454574	-90.908480
630.587184	-93.600574
630.719851	-97.303796
630.852573	-96.499558
630.985351	-91.946575
631.118185	-88.423480
631.251075	-85.982067
631.384021	-84.331809
631.517023	-83.271534
631.650081	-82.694906
631.783195	-82.541764
631.916365	-82.802038
632.049592	-83.501959
632.182874	-84.733073
632.316213	-86.609467
632.449608	-89.432045
632.583059	-94.001694
632.716567	-104.157188
632.850131	-102.877607
632.983751	-94.572179
633.117428	-91.087671
633.251161	-89.315448
633.384951	-88.575678
633.518797	-88.613134
633.652700	-89.385803
633.786660	-90.916175
633.920676	-93.173675
634.054749	-94.784095
634.188879	-92.894692
634.323065	-89.626540
634.457308	-86.974207
634.591608	-85.053136
634.725965	-83.720346
634.860379	-82.906632
634.994850	-82.543947
635.129377	-82.573850
635.263962	-82.879426
635.398604	-83.260862
635.533303	-83.460881
635.668058	-83.213385
635.802872	-82.457640
635.937742	-81.408302
636.072669	-80.384918
636.207654	-79.587318
636.342696	-79.087387
636.477796	-78.904383
636.612953	-79.033161
636.748167	-79.459656
636.883439	-80.215027
637.018768	-81.311430
637.154155	-82.763873
637.289599	-84.509691
637.425101	-86.295874
637.560660	-87.668943
637.696277	-88.170562
637.831952	-87.893405
637.967685	-87.374530
638.103475	-86.844238
638.239324	-86.308335
638.375230	-85.571427
638.511194	-84.588058
638.647215	-83.408189
638.783295	-82.158201
638.919433	-80.945405
639.055629	-79.872068
639.191883	-79.005552
639.328195	-78.354769
639.464565	-77.931862
639.600994	-77.720515
639.737481	-77.710226
639.874025	-77.907140
640.010629	-78.261148
640.147290	-78.735423
640.284010	-79.222503
640.420789	-79.645442
640.557625	-79.956896
640.694521	-80.172927
640.831474	-80.283601
640.968487	-80.338309
641.105558	-80.439763
641.242687	-80.676105
641.379876	-81.125102
641.517123	-81.731487
641.654429	-82.385840
641.791793	-82.848023
641.929216	-82.899622
642.066699	-82.425964
642.204240	-81.573927
642.341840	-80.567388
642.479499	-79.591821
642.617217	-78.777840
642.754994	-78.153635
642.892830	-77.720028
643.030726	-77.399096
643.168680	-77.132287
643.306694	-76.872469
643.444767	-76.624193
643.582899	-76.369474
643.721091	-76.069086
643.859342	-75.773950
643.997652	-75.559628
644.136022	-75.504923
644.274451	-75.653359
644.412940	-76.010727
644.551488	-76.626930
644.690096	-77.557291
644.828763	-78.858122
644.967490	-80.566569
645.106277	-82.684054
645.245124	-85.215302
645.384030	-87.965883
645.522997	-90.131576
645.662023	-90.686568
645.801109	-90.507190
645.940255	-91.028834
646.079460	-93.135176
646.218726	-98.208742
646.358052	-100.147778
646.497438	-91.525865
646.636884	-86.460811
646.776391	-83.261843
646.915957	-81.140483
647.055584	-79.736488
647.195271	-78.841949
647.335019	-78.374127
647.474826	-78.300184
647.614695	-78.544878
647.754623	-78.963207
647.894612	-79.337917
648.034662	-79.449591
648.174772	-79.207674
648.314943	-78.704671
648.455174	-78.188470
648.595466	-77.881355
648.735819	-77.921371
648.876233	-78.372197
649.016707	-79.304286
649.157242	-80.869196
649.297838	-83.367823
649.438495	-87.388794
649.579213	-92.783427
649.719992	-90.182270
649.860832	-85.478890
650.001733	-82.651763
650.142695	-81.021473
650.283718	-80.224169
650.424803	-80.085400
650.565949	-80.500743
650.707156	-81.315266
650.848424	-82.127035
650.989754	-82.279058
651.131145	-81.461724
651.272597	-80.179491
651.414111	-78.999481
651.555687	-78.209906
651.697324	-77.887496
651.839022	-78.092601
651.980782	-78.872474
652.122604	-80.286861
652.264488	-82.419316
652.406433	-85.294481
652.548441	-88.032914
652.690510	-87.674390
652.832640	-85.129179
652.974833	-83.059133
653.117088	-81.897269
653.259405	-81.619800
653.401784	-82.263073
653.544224	-84.091435
653.686727	-87.889762
653.829293	-97.595943
653.971920	-94.010429
654.114609	-85.844499
654.257361	-81.885392
654.400175	-79.544213
654.543052	-78.151715
654.685991	-77.457392
654.828992	-77.314870
654.972056	-77.624052
655.115183	-78.286941
655.258372	-79.099002
655.401623	-79.669864
655.544937	-79.648125
655.688314	-79.107101
655.831754	-78.407563
655.975256	-77.840749
656.118822	-77.568064
656.262450	-77.698558
656.406141	-78.374290
656.549894	-79.761803
656.693711	-82.149777
656.837591	-86.198677
656.981534	-94.211632
657.125540	-95.620859
657.269610	-87.677153
657.413742	-84.146368
657.557938	-82.479698
657.702196	-82.017922
657.846519	-82.621524
657.990904	-84.399797
658.135353	-87.880902
658.279866	-93.924316
658.424441	-91.690089
658.569081	-85.727005
658.713784	-82.223032
658.858550	-80.154792
659.003381	-79.020467
659.148274	-78.569747
659.293232	-78.683132
659.438253	-79.291555
659.583339	-80.338603
659.728488	-81.537649
659.873701	-82.156387
660.018978	-81.560906
660.164318	-80.286028
660.309723	-79.113615
660.455192	-78.369428
660.600725	-78.143888
660.746323	-78.515303
660.891984	-79.566257
661.037710	-81.507956
661.183500	-84.868448
661.329354	-91.444863
661.475272	-100.755359
661.621255	-88.769000
661.767303	-84.266661
661.913415	-82.009281
662.059591	-80.966521
662.205833	-80.834177
662.352138	-81.539877
662.498509	-83.162598
662.644944	-85.947421
662.791443	-90.266971
662.938008	-93.216409
663.084638	-89.300988
663.231332	-85.869778
663.378091	-84.050892
663.524915	-83.497148
663.671804	-84.012506
663.818759	-85.623143
663.965778	-88.662836
664.112863	-92.827625
664.260012	-90.649634
664.407227	-85.821689
664.554507	-82.676027
664.701853	-80.735314
664.849264	-79.642265
664.996740	-79.245027
665.144282	-79.545457
665.291889	-80.637119
665.439561	-82.701545
665.587300	-86.135531
665.735103	-91.582469
665.882973	-93.073202
666.030908	-87.634543
666.178909	-84.165790
666.326976	-82.264732
666.475109	-81.416009
666.623307	-81.385137
666.771571	-82.070021
666.919902	-83.522289
667.068298	-85.940106
667.216761	-89.794917
667.365289	-96.796124
667.513884	-112.045228
667.662545	-97.240234
667.811272	-93.546094
667.960065	-93.025743
668.108925	-95.207602
668.257851	-102.679097
668.406843	-98.324989
668.555902	-90.205295
668.705027	-85.765382
668.854219	-82.968190
669.003478	-81.207200
669.152803	-80.184775
669.302195	-79.785120
669.451653	-79.922886
669.601179	-80.599716
669.750771	-81.865604
669.900430	-83.818007
670.050156	-86.472556
670.199949	-89.266147
670.349808	-90.094436
670.499735	-88.516706
670.649729	-86.679021
670.799790	-85.505950
670.949918	-85.015946
671.100114	-85.123250
671.250377	-85.753619
671.400707	-86.983269
671.551104	-89.082481
671.701569	-92.468421
671.852101	-97.542552
672.002700	-100.139847
672.153368	-96.334239
672.304102	-93.290657
672.454905	-91.306052
672.605775	-89.891612
672.756713	-88.818206
672.907718	-87.957115
673.058791	-87.188082
673.209933	-86.480848
673.361142	-85.902197
673.512419	-85.605271
673.663764	-85.746989
673.815177	-86.404255
673.966658	-87.493970
674.118207	-88.757936
674.269825	-89.686576
674.421510	-89.672664
674.573264	-88.608679
674.725086	-87.242764
674.876977	-86.231482
675.028936	-85.774676
675.180963	-85.826324
675.333059	-86.172224
675.485224	-86.505263
675.637457	-86.258186
675.789758	-85.191799
675.942129	-83.816300
676.094568	-82.621749
676.247075	-81.820193
676.399652	-81.355381
676.552298	-81.213525
676.705012	-81.426259
676.857795	-82.055616
677.010648	-83.161055
677.163569	-84.731685
677.316560	-86.743243
677.469619	-89.055442
677.622748	-91.579747
677.775946	-94.441675
677.929214	-97.813573
678.082551	-99.371932
678.235957	-94.862709
678.389432	-89.962103
678.542977	-86.390702
678.696592	-83.948887
678.850276	-82.378168
679.004030	-81.551810
679.157853	-81.448032
679.311746	-82.088928
679.465709	-83.338936
679.619742	-84.432033
679.773844	-84.018936
679.928017	-82.250568
680.082259	-80.334455
680.236571	-78.850579
680.390954	-77.974894
680.545406	-77.740990
680.699929	-78.145710
680.854522	-79.190450
681.009185	-80.852271
681.163918	-82.954550
681.318722	-84.850723
681.473596	-85.588560
681.628540	-85.347726
681.783555	-85.310858
681.938641	-86.299301
682.093797	-89.054062
682.249023	-94.645889
682.404321	-92.461981
682.559689	-86.039631
682.715128	-82.336234
682.870637	-80.228742
683.026218	-79.198619
683.181869	-78.994198
683.337591	-79.529465
683.493385	-80.793705
683.649249	-82.622474
683.805185	-83.812215
683.961191	-82.491458
684.117269	-80.070938
684.273418	-78.163229
684.429639	-77.097522
684.585930	-76.862001
684.742294	-77.426133
684.898728	-78.781480
685.055234	-80.821251
685.211812	-82.731773
685.368461	-82.659885
685.525182	-80.987903
685.681975	-79.640170
685.838839	-79.334520
685.995775	-80.293402
686.152783	-82.948188
686.309863	-89.015535
686.467014	-96.828894
686.624238	-85.164091
686.781534	-80.463928
686.938902	-78.042611
687.096342	-76.918221
687.253854	-76.782654
687.411438	-77.535419
687.569095	-79.082680
687.726824	-80.932678
687.884626	-81.633188
688.042499	-80.523312
688.200446	-79.086010
688.358465	-78.293697
688.516556	-78.377187
688.674720	-79.420430
688.832957	-81.702719
688.991266	-86.168106
689.149649	-95.132040
689.308104	-88.574190
689.466632	-83.179985
689.625233	-80.753942
689.783906	-79.862185
689.942653	-80.071520
690.101473	-81.255179
690.260367	-82.858431
690.419333	-82.668129
690.578372	-80.072614
690.737485	-77.405053
690.896672	-75.490167
691.055931	-74.376383
691.215264	-74.000540
691.374671	-74.304014
691.534151	-75.195182
691.693704	-76.588389
691.853332	-78.288133
692.013033	-79.839334
692.172807	-80.749664
692.332656	-81.281661
692.492578	-82.209791
692.652575	-84.299603
692.812645	-88.389650
692.972789	-90.359677
693.133007	-84.640195
693.293300	-80.588988
693.453666	-78.195706
693.614107	-76.881114
693.774622	-76.413226
693.935211	-76.655267
694.095875	-77.399137
694.256613	-78.270326
694.417426	-78.731339
694.578313	-78.486992
694.739274	-77.901950
694.900311	-77.575813
695.061421	-77.830584
695.222607	-78.691481
695.383868	-80.114101
695.545203	-82.142799
695.706613	-84.744088
695.868098	-87.334431
696.029658	-88.669319
696.191293	-88.754029
696.353003	-89.161928
696.514789	-90.560189
696.676649	-90.350346
696.838585	-86.832512
697.000596	-83.500677
697.162682	-80.997302
697.324844	-79.172492
697.487081	-77.998345
697.649394	-77.433672
697.811782	-77.334066
697.974246	-77.612571
698.136786	-78.250210
698.299401	-79.157623
698.462092	-80.185896
698.624859	-81.309982
698.787702	-82.378598
698.950621	-83.031095
699.113616	-83.455629
699.276686	-84.120934
699.439833	-85.008103
699.603056	-86.004300
699.766355	-87.508334
699.929731	-90.231840
700.093183	-95.762191
700.256711	-105.500677
700.420315	-92.141555
700.583996	-86.773267
700.747754	-83.738929
700.911588	-81.613869
701.075499	-79.892840
701.239486	-78.416426
701.403550	-77.126316
701.567691	-76.012793
701.731909	-75.226780
701.896203	-74.881198
702.060575	-75.028803
702.225024	-75.736741
702.389549	-77.103851
702.554152	-79.136981
702.718832	-81.622054
702.883589	-84.002740
703.048424	-85.369190
703.213335	-85.953855
703.378324	-87.854997
703.543391	-94.555362
703.708535	-94.259671
703.873757	-84.813834
704.039056	-80.309379
704.204433	-77.802832
704.369887	-76.565310
704.535420	-76.212285
704.701030	-76.360522
704.866718	-76.549240
705.032484	-76.156775
705.198328	-75.040790
705.364250	-73.842540
705.530250	-73.142822
705.696328	-73.187609
705.862485	-74.112808
706.028720	-76.157140
706.195033	-79.836290
706.361424	-85.210094
706.527894	-84.002323
706.694442	-79.827198
706.861069	-77.626821
707.027775	-76.867539
707.194559	-77.009420
707.361422	-77.222881
707.528363	-76.526907
707.695384	-75.083396
707.862483	-73.744359
708.029661	-72.968321
708.196918	-72.913666
708.364254	-73.652238
708.531670	-75.013941
708.699164	-76.160384
708.866738	-75.817837
709.034391	-74.356213
709.202123	-73.030320
709.369935	-72.390575
709.537826	-72.507042
709.705796	-73.279437
709.873847	-74.449838
710.041976	-75.221527
710.210186	-74.586915
710.378475	-73.131197
710.546844	-71.879308
710.715292	-71.171168
710.883821	-71.033124
711.052429	-71.331208
711.221118	-71.694493
711.389887	-71.701071
711.558735	-71.298783
711.727664	-70.805002
711.896673	-70.619638
712.065763	-71.043989
712.234932	-72.209205
712.404183	-73.907048
712.573513	-75.006908
712.742924	-73.999441
712.912416	-71.952850
713.081988	-70.335917
713.251641	-69.509378
713.421375	-69.433551
713.591190	-69.879169
713.761085	-70.276590
713.931061	-69.939983
714.101119	-68.952215
714.271257	-67.949137
714.441476	-67.352987
714.611777	-67.281444
714.782159	-67.645072
714.952622	-68.167743
715.123166	-68.446533
715.293792	-68.269235
715.464499	-67.918316
715.635288	-67.886798
715.806158	-68.498149
715.977110	-69.875138
716.148143	-71.714676
716.319259	-72.365403
716.490456	-70.659830
716.661735	-68.528294
716.833096	-67.053793
717.004538	-66.297320
717.176063	-66.098570
717.347670	-66.179866
717.519359	-66.209088
717.691130	-66.031151
717.862984	-65.752555
718.034920	-65.589955
718.206938	-65.737545
718.379039	-66.244880
718.551222	-66.924604
718.723488	-67.388763
718.895836	-67.303770
719.068267	-66.792470
719.240781	-66.306991
719.413377	-66.113378
719.586057	-66.224459
719.758819	-66.502306
719.931664	-66.655100
720.104593	-66.387781
720.277604	-65.717440
720.450699	-64.923846
720.623876	-64.287747
720.797137	-63.962905
720.970482	-63.951637
721.143910	-64.169250
721.317421	-64.500907
721.491016	-64.815051
721.664694	-65.044516
721.838456	-65.248507
722.012302	-65.498661
722.186231	-65.771505
722.360244	-65.895214
722.534342	-65.612304
722.708523	-64.892642
722.882788	-63.998952
723.057137	-63.242737
723.231570	-62.829545
723.406088	-62.821258
723.580689	-63.124100
723.755375	-63.520673
723.930146	-63.747302
724.105000	-63.691366
724.279940	-63.507167
724.454963	-63.419579
724.630072	-63.547562
724.805265	-63.893820
724.980543	-64.327793
725.155905	-64.628937
725.331353	-64.671073
725.506885	-64.512944
725.682503	-64.325130
725.858205	-64.189480
726.033993	-63.945898
726.209865	-63.402037
726.385823	-62.598906
726.561866	-61.757195
726.737995	-61.102484
726.914209	-60.785088
727.090508	-60.845963
727.266893	-61.256671
727.443364	-61.938177
727.619920	-62.715992
727.796562	-63.352900
727.973290	-63.732460
728.150103	-63.943494
728.327003	-64.133122
728.503988	-64.338967
728.681060	-64.357580
728.858218	-63.944379
729.035461	-63.150081
729.212791	-62.266711
729.390208	-61.561915
729.567710	-61.135701
729.745299	-60.936479
729.922975	-60.817724
730.100737	-60.602246
730.278586	-60.273936
730.456521	-60.037354
730.634543	-60.128924
730.812652	-60.721235
730.990848	-61.870726
731.169130	-63.350603
731.347500	-64.379900
731.525957	-64.204465
731.704500	-63.333986
731.883131	-62.604498
732.061850	-62.212201
732.240655	-61.916428
732.419548	-61.391208
732.598528	-60.622631
732.777596	-59.948442
732.956751	-59.702630
733.135994	-60.029147
733.315325	-60.845954
733.494744	-61.713747
733.674250	-61.957178
733.853844	-61.522487
734.033526	-61.031558
734.213296	-60.949636
734.393154	-61.344786
734.573101	-61.863359
734.753135	-61.882643
734.933258	-61.247834
735.113469	-60.486030
735.293769	-60.087037
735.474157	-60.169213
735.654633	-60.522230
735.835198	-60.767485
736.015852	-60.684140
736.196594	-60.474166
736.377426	-60.540532
736.558346	-61.104212
736.739355	-62.029405
736.920453	-62.678335
737.101640	-62.348827
737.282916	-61.345162
737.464282	-60.395778
737.645736	-59.816579
737.827280	-59.614866
738.008914	-59.653083
738.190637	-59.777703
738.372449	-59.954607
738.554351	-60.273809
738.736342	-60.818877
738.918424	-61.527796
739.100595	-62.091723
739.282855	-62.168780
739.465206	-61.782100
739.647647	-61.220467
739.830178	-60.733068
740.012799	-60.441863
740.195510	-60.361582
740.378311	-60.457144
740.561203	-60.628038
740.744185	-60.728213
740.927258	-60.663690
741.110421	-60.481215
741.293674	-60.344259
741.477018	-60.423005
741.660453	-60.773099
741.843979	-61.300603
742.027596	-61.790417
742.211303	-62.041389
742.395102	-62.044449
742.578991	-61.916221
742.762972	-61.693033
742.947044	-61.293996
743.131207	-60.707275
743.315461	-60.138965
743.499807	-59.861559
743.684244	-60.038714
743.868773	-60.683613
744.053394	-61.622505
744.238106	-62.451182
744.422910	-62.719386
744.607805	-62.421726
744.792793	-61.981300
744.977872	-61.711454
745.163044	-61.652995
745.348307	-61.708429
745.533663	-61.793708
745.719111	-61.923575
745.904651	-62.133268
746.090283	-62.357588
746.276008	-62.403592
746.461826	-62.097185
746.647735	-61.482722
746.833738	-60.820894
747.019833	-60.419541
747.206021	-60.499024
747.392302	-61.155479
747.578676	-62.354892
747.765143	-63.782160
747.951703	-64.679588
748.138356	-64.576868
748.325102	-64.037367
748.511941	-63.623467
748.698874	-63.326108
748.885900	-62.883803
749.073019	-62.263556
749.260232	-61.751553
749.447539	-61.674474
749.634939	-62.149597
749.822433	-62.943052
750.010021	-63.394668
750.197703	-63.083997
750.385479	-62.615129
750.573348	-62.764838
750.761312	-63.913414
750.949370	-66.042551
751.137523	-67.873686
751.325769	-67.097283
751.514110	-65.285807
751.702545	-64.150664
751.891075	-63.689524
752.079700	-63.324422
752.268419	-62.670972
752.457233	-62.058953
752.646142	-62.069460
752.835145	-63.139464
753.024244	-65.696768
753.213437	-70.199137
753.402726	-73.050321
753.592110	-69.506465
753.781589	-67.093356
753.971163	-66.177213
754.160833	-65.720285
754.350598	-64.936827
754.540459	-63.966384
754.730415	-63.419607
754.920467	-63.692891
755.110615	-64.877115
755.300858	-66.640870
755.491198	-67.933047
755.681633	-68.105174
755.872164	-68.326815
756.062792	-69.887728
756.253515	-74.003582
756.444335	-84.841207
756.635252	-78.155389
756.826264	-72.289555
757.017373	-69.776737
757.208579	-68.435673
757.399881	-67.443957
757.591280	-66.587723
757.782776	-66.087819
757.974368	-66.246070
758.166058	-67.268520
758.357844	-69.329983
758.549728	-72.671579
758.741708	-77.619041
758.933786	-83.847961
759.125961	-86.116884
759.318233	-85.003964
759.510603	-83.892779
759.703071	-82.335659
759.895635	-81.396862
760.088298	-81.929440
760.281058	-84.711455
760.473916	-87.648912
760.666872	-81.391020
760.859926	-76.091770
761.053078	-72.671564
761.246328	-70.458972
761.439676	-69.140840
761.633122	-68.555754
761.826667	-68.589999
762.020310	-69.088419
762.214052	-69.980859
762.407892	-71.505175
762.601831	-74.209627
762.795868	-79.013728
762.990004	-80.235682
763.184239	-74.371935
763.378573	-70.790505
763.573006	-69.110913
763.767538	-68.785463
763.962169	-69.234332
764.156900	-69.211618
764.351729	-67.690041
764.546658	-65.788163
764.741687	-64.535487
764.936815	-64.093119
765.132042	-64.227802
765.327370	-64.604790
765.522797	-65.149954
765.718324	-66.355983
765.913950	-69.188814
766.109677	-73.683004
766.305504	-69.812331
766.501431	-64.717938
766.697458	-61.959771
766.893586	-60.805236
767.089814	-60.746511
767.286142	-61.189146
767.482571	-61.455358
767.679100	-61.450370
767.875730	-61.779014
768.072461	-62.786976
768.269293	-63.725791
768.466225	-63.074501
768.663259	-61.627800
768.860393	-60.981798
769.057629	-61.581023
769.254966	-62.884882
769.452404	-62.780292
769.649944	-60.813567
769.847585	-59.133452
770.045328	-58.424867
770.243172	-58.413808
770.441118	-58.509787
770.639166	-58.402135
770.837315	-58.476112
771.035567	-59.253530
771.233920	-60.615464
771.432376	-61.031067
771.630934	-59.590556
771.829594	-58.045760
772.028356	-57.379499
772.227220	-57.540895
772.426188	-57.999215
772.625257	-58.078190
772.824430	-57.729134
773.023705	-57.413975
773.223083	-57.252299
773.422563	-56.961623
773.622147	-56.481763
773.821834	-56.209298
774.021624	-56.528213
774.221517	-57.488503
774.421513	-58.535697
774.621613	-58.581297
774.821816	-57.530363
775.022122	-56.297664
775.222532	-55.340396
775.423046	-54.691829
775.623664	-54.349916
775.824385	-54.360627
776.025211	-54.739060
776.226140	-55.361026
776.427173	-55.931263
776.628311	-56.155475
776.829553	-56.105272
777.030899	-56.043089
777.232350	-56.010550
777.433905	-55.826737
777.635564	-55.365756
777.837328	-54.680106
778.039197	-53.907033
778.241171	-53.173505
778.443250	-52.615899
778.645433	-52.355173
778.847722	-52.506031
779.050116	-53.154024
779.252615	-54.225629
779.455219	-55.280823
779.657929	-55.562689
779.860744	-54.924469
780.063665	-54.004886
780.266691	-53.215344
780.469823	-52.600528
780.673061	-52.158315
780.876405	-51.985799
781.079855	-52.151573
781.283410	-52.504426
781.487072	-52.665636
781.690840	-52.459252
781.894715	-52.234977
782.098695	-52.418094
782.302783	-53.011425
782.506976	-53.435189
782.711277	-53.143575
782.915684	-52.510146
783.120198	-52.064649
783.324818	-51.760670
783.529546	-51.326181
783.734381	-50.864506
783.939322	-50.792894
784.144372	-51.355857
784.349528	-52.263793
784.554792	-52.605411
784.760163	-52.073318
784.965642	-51.531528
785.171228	-51.482171
785.376922	-51.634036
785.582724	-51.456114
785.788634	-51.040769
785.994651	-50.881660
786.200777	-51.035510
786.407011	-50.998533
786.613353	-50.488310
786.819804	-50.017104
787.026363	-50.130459
787.233030	-50.838698
787.439806	-51.533800
787.646691	-51.517229
787.853684	-51.016690
788.060786	-50.605724
788.267997	-50.314411
788.475317	-49.917292
788.682746	-49.524620
788.890285	-49.482650
789.097932	-49.877729
789.305689	-50.344686
789.513555	-50.370582
789.721531	-50.002618
789.929617	-49.704036
790.137812	-49.677780
790.346117	-49.769796
790.554531	-49.779074
790.763056	-49.720401
790.971691	-49.671648
791.180436	-49.561708
791.389291	-49.332902
791.598256	-49.115976
791.807332	-49.104529
792.016518	-49.340198
792.225815	-49.648269
792.435222	-49.760825
792.644740	-49.589321
792.854369	-49.258823
793.064109	-48.917315
793.273960	-48.707471
793.483922	-48.741707
793.693995	-49.029697
793.904180	-49.407634
794.114475	-49.569760
794.324882	-49.350638
794.535401	-48.943537
794.746031	-48.609281
794.956774	-48.434438
795.167627	-48.406306
795.378593	-48.540131
795.589671	-48.837138
795.800861	-49.139898
796.012162	-49.167685
796.223577	-48.877610
796.435103	-48.588783
796.646742	-48.560418
796.858493	-48.678208
797.070357	-48.604042
797.282334	-48.282062
797.494423	-48.005960
797.706626	-47.937560
797.918941	-47.942762
798.131369	-47.906217
798.343911	-48.006244
798.556566	-48.445966
798.769334	-48.966524
798.982215	-48.897507
799.195210	-48.246517
799.408319	-47.719401
799.621541	-47.631330
799.834877	-47.748360
800.048327	-47.741032
800.261890	-47.715228
800.475568	-47.943577
800.689360	-48.236303
800.903266	-48.107164
801.117287	-47.694271
801.331422	-47.608011
801.545671	-48.028943
801.760036	-48.470882
801.974514	-48.358424
802.189108	-47.953856
802.403816	-47.765522
802.618640	-47.729378
802.833578	-47.553601
803.048632	-47.367359
803.263800	-47.514180
803.479085	-47.947192
803.694484	-48.134323
803.909999	-47.824703
804.125630	-47.518251
804.341376	-47.604393
804.557239	-47.904598
804.773217	-48.011596
804.989311	-47.890922
805.205521	-47.752391
805.421847	-47.572512
805.638290	-47.242440
805.854849	-46.937175
806.071524	-46.968675
806.288316	-47.398830
806.505225	-47.898684
806.722250	-48.060695
806.939393	-47.908117
807.156652	-47.711347
807.374028	-47.564927
807.591521	-47.452598
807.809132	-47.402878
808.026859	-47.438504
808.244705	-47.442604
808.462667	-47.251652
808.680748	-46.976826
808.898946	-46.905351
809.117261	-47.170642
809.335695	-47.660153
809.554246	-48.116133
809.772916	-48.310358
809.991704	-48.169565
810.210610	-47.751593
810.429634	-47.270976
810.648777	-47.018501
810.868039	-47.094146
811.087419	-47.318463
811.306918	-47.466174
811.526535	-47.540191
811.746272	-47.686267
811.966127	-47.917198
812.186102	-48.112507
812.406196	-48.227139
812.626409	-48.240597
812.846742	-47.932262
813.067194	-47.260589
813.287766	-46.674250
813.508457	-46.566879
813.729269	-46.952669
813.950200	-47.564355
814.171251	-48.131737
814.392422	-48.566341
814.613714	-48.632183
814.835126	-48.094998
815.056658	-47.388846
815.278311	-47.073206
815.500084	-47.156659
815.721978	-47.243084
815.943993	-47.152330
816.166128	-47.172581
816.388385	-47.504884
816.610762	-47.923700
816.833261	-48.179356
817.055881	-48.419489
817.278623	-48.632293
817.501486	-48.360005
817.724471	-47.643047
817.947577	-47.153674
818.170805	-47.243138
818.394155	-47.703478
818.617627	-48.096198
818.841221	-48.312263
819.064937	-48.457348
819.288775	-48.370607
819.512736	-48.043987
819.736819	-47.903174
819.961025	-48.211119
820.185354	-48.646291
820.409805	-48.599561
820.634379	-48.148624
820.859076	-47.825218
821.083897	-47.769006
821.308840	-47.874785
821.533907	-48.147956
821.759097	-48.569947
821.984411	-48.811597
822.209848	-48.568773
822.435409	-48.165011
822.661093	-48.074926
822.886902	-48.306436
823.112834	-48.517599
823.338891	-48.515929
823.565072	-48.386767
823.791377	-48.236263
824.017807	-48.188942
824.244361	-48.426745
824.471039	-48.986840
824.697843	-49.472770
824.924771	-49.366980
825.151824	-48.858840
825.379002	-48.459589
825.606306	-48.361038
825.833734	-48.591111
826.061288	-49.099288
826.288967	-49.561638
826.516772	-49.507434
826.744703	-49.049300
826.972759	-48.785587
827.200941	-48.914343
827.429249	-49.176804
827.657683	-49.338295
827.886243	-49.380783
828.114930	-49.234392
828.343743	-48.931557
828.572682	-48.840848
828.801748	-49.239601
829.030941	-49.801580
829.260260	-49.792573
829.489706	-49.300912
829.719280	-48.974447
829.948980	-48.942146
830.178808	-49.077898
830.408763	-49.442762
830.638845	-49.998075
830.869055	-50.162806
831.099393	-49.652476
831.329858	-49.241388
831.560451	-49.465822
831.791173	-49.994411
832.022022	-50.164218
832.252999	-49.956383
832.484105	-49.705686
832.715339	-49.467362
832.946702	-49.387325
833.178193	-49.835034
833.409813	-50.702949
833.641561	-50.932955
833.873439	-50.109924
834.105445	-49.314730
834.337581	-49.096060
834.569846	-49.301246
834.802241	-49.710114
835.034764	-50.216303
835.267418	-50.490289
835.500201	-50.234091
835.733114	-49.904941
835.966157	-49.994904
836.199329	-50.295415
836.432632	-50.179078
836.666065	-49.585872
836.899629	-49.090211
837.133323	-49.078656
837.367147	-49.637228
837.601102	-50.628568
837.835188	-51.420233
838.069405	-51.159152
838.303752	-50.132614
838.538231	-49.255606
838.772841	-48.997585
839.007582	-49.378052
839.242455	-49.978985
839.477459	-50.134617
839.712595	-49.818260
839.947863	-49.631130
840.183263	-49.773173
840.418794	-49.966397
840.654458	-49.978831
840.890254	-49.684029
841.126182	-49.035203
841.362242	-48.436326
841.598435	-48.428817
841.834761	-49.095940
842.071220	-49.754268
842.307811	-49.659573
842.544536	-49.223479
842.781393	-48.944383
843.018384	-48.799809
843.255508	-48.833847
843.492765	-49.097388
843.730156	-49.127280
843.967681	-48.594546
844.205339	-48.185757
844.443132	-48.487134
844.681058	-49.170889
844.919118	-49.339491
845.157313	-48.858526
845.395642	-48.237245
845.634105	-47.681777
845.872703	-47.455223
846.111436	-47.871075
846.350303	-48.614647
846.589306	-48.632282
846.828443	-47.889333
847.067716	-47.347087
847.307124	-47.206852
847.546667	-47.167357
847.786345	-47.165980
848.026160	-47.238538
848.266110	-47.168229
848.506195	-47.010111
848.746417	-47.167283
848.986775	-47.550223
849.227269	-47.385011
849.467899	-46.586635
849.708666	-45.958286
849.949569	-45.880989
850.190609	-46.291904
850.431785	-47.022292
850.673099	-47.576499
850.914549	-47.216606
851.156137	-46.214315
851.397861	-45.494497
851.639723	-45.391245
851.881723	-45.648265
852.123860	-45.825115
852.366135	-45.776659
852.608547	-45.671593
852.851098	-45.638646
853.093786	-45.668855
853.336613	-45.621063
853.579578	-45.272938
853.822681	-44.664023
854.065923	-44.232408
854.309304	-44.333610
854.552823	-44.884439
854.796481	-45.314866
855.040278	-45.149617
855.284215	-44.636577
855.528290	-44.188660
855.772505	-44.026801
856.016859	-44.206913
856.261353	-44.445875
856.505987	-44.290488
856.750760	-43.857498
856.995673	-43.681322
857.240727	-43.879328
857.485920	-44.078725
857.731254	-43.961635
857.976729	-43.589376
858.222343	-43.160081
858.468099	-42.935643
858.713995	-43.120535
858.960032	-43.482140
859.206211	-43.429906
859.452530	-42.968230
859.698991	-42.625272
859.945593	-42.571091
860.192336	-42.663621
860.439222	-42.774184
860.686248	-42.736883
860.933417	-42.470577
861.180728	-42.282742
861.428181	-42.427675
861.675776	-42.619499
861.923514	-42.415571
862.171394	-41.946329
862.419417	-41.600133
862.667582	-41.557939
862.915890	-41.849373
863.164342	-42.235415
863.412936	-42.189223
863.661674	-41.644557
863.910555	-41.120709
864.159579	-40.936220
864.408747	-41.049258
864.658059	-41.235874
864.907515	-41.269950
865.157114	-41.137426
865.406858	-41.028277
865.656746	-41.012003
865.906778	-40.949029
866.156955	-40.717006
866.407277	-40.385735
866.657743	-40.209282
866.908354	-40.388598
867.159110	-40.797284
867.410011	-40.970072
867.661057	-40.645737
867.912249	-40.131505
868.163586	-39.787646
868.415069	-39.784817
868.666697	-40.077654
868.918472	-40.309130
869.170392	-40.159177
869.422458	-39.842433
869.674671	-39.681460
869.927030	-39.632796
870.179536	-39.560089
870.432188	-39.462739
870.684987	-39.353573
870.937933	-39.320275
871.191026	-39.497769
871.444266	-39.700279
871.697653	-39.513004
871.951188	-39.056041
872.204870	-38.778479
872.458700	-38.785831
872.712677	-38.993869
872.966803	-39.259136
873.221076	-39.242530
873.475498	-38.884581
873.730068	-38.623105
873.984787	-38.620676
874.239654	-38.612080
874.494669	-38.484815
874.749834	-38.349494
875.005147	-38.258823
875.260610	-38.311145
875.516222	-38.508256
875.771983	-38.508684
876.027894	-38.152569
876.283954	-37.814827
876.540164	-37.755764
876.796524	-37.909434
877.053033	-38.108428
877.309693	-38.126295
877.566503	-37.893266
877.823464	-37.674610
878.080575	-37.666129
878.337837	-37.732050
878.595249	-37.664004
878.852813	-37.491174
879.110528	-37.390813
879.368393	-37.471870
879.626410	-37.619327
879.884579	-37.570445
880.142899	-37.252600
880.401371	-36.920774
880.659994	-36.860373
880.918770	-37.101602
881.177698	-37.365677
881.436778	-37.313294
881.696010	-37.017742
881.955395	-36.773919
882.214933	-36.714964
882.474623	-36.801572
882.734467	-36.857740
882.994463	-36.762256
883.254613	-36.680222
883.514916	-36.757683
883.775372	-36.804315
884.035982	-36.631560
884.296746	-36.355985
884.557664	-36.166251
884.818735	-36.204950
885.079961	-36.465842
885.341341	-36.604478
885.602876	-36.357570
885.864565	-36.038975
886.126409	-35.926873
886.388407	-35.992668
886.650561	-36.133962
886.912870	-36.154763
887.175334	-35.969814
887.437953	-35.841384
887.700728	-35.896048
887.963658	-35.901515
888.226745	-35.775547
888.489987	-35.659771
888.753385	-35.620259
889.016940	-35.710930
889.280651	-35.816830
889.544518	-35.655312
889.808543	-35.334868
890.072723	-35.195651
890.337061	-35.282720
890.601556	-35.449407
890.866208	-35.503514
891.131017	-35.335717
891.395984	-35.140421
891.661109	-35.121195
891.926391	-35.170653
892.191831	-35.122682
892.457429	-35.012197
892.723186	-34.960251
892.989100	-35.055875
893.255173	-35.176317
893.521405	-35.074112
893.787796	-34.795091
894.054345	-34.603421
894.321053	-34.636583
894.587921	-34.811611
894.854948	-34.869045
895.122134	-34.687809
895.389480	-34.496675
895.656986	-34.456472
895.924651	-34.494505
896.192477	-34.487151
896.460463	-34.382195
896.728609	-34.295168
896.996915	-34.379244
897.265382	-34.487480
897.534010	-34.369396
897.802799	-34.126922
898.071749	-33.976261
898.340860	-34.034738
898.610132	-34.245742
898.879566	-34.288470
899.149162	-34.043032
899.418919	-33.825457
899.688838	-33.786172
899.958919	-33.846414
900.229162	-33.893818
900.499568	-33.805892
900.770136	-33.700616
901.040867	-33.749856
901.311761	-33.797244
901.582817	-33.684517
901.854037	-33.524783
902.125420	-33.455438
902.396966	-33.553181
902.668676	-33.689297
902.940550	-33.590090
903.212587	-33.342751
903.484788	-33.228864
903.757153	-33.307774
904.029683	-33.445698
904.302377	-33.428942
904.575236	-33.243100
904.848259	-33.130036
905.121447	-33.175850
905.394800	-33.239355
905.668319	-33.207616
905.942002	-33.116667
906.215852	-33.104761
906.489866	-33.186299
906.764047	-33.164115
907.038393	-32.993020
907.312906	-32.860109
907.587584	-32.888939
907.862429	-33.034206
908.137441	-33.054023
908.412619	-32.846672
908.687964	-32.679568
908.963476	-32.704537
909.239155	-32.813147
909.515002	-32.846857
909.791015	-32.712504
910.067197	-32.599726
910.343546	-32.681355
910.620063	-32.759756
910.896748	-32.685530
911.173601	-32.551173
911.450623	-32.476761
911.727813	-32.566039
912.005171	-32.645119
912.282699	-32.506348
912.560395	-32.359849
912.838261	-32.351002
913.116296	-32.407050
913.394500	-32.406197
913.672874	-32.245919
913.951418	-32.127619
914.230131	-32.240733
914.509015	-32.367528
914.788068	-32.291283
915.067292	-32.066873
915.346687	-31.912184
915.626252	-31.998050
915.905988	-32.140285
916.185895	-32.076618
916.465973	-31.908914
916.746223	-31.820534
917.026644	-31.849619
917.307236	-31.867446
917.588000	-31.758330
917.868937	-31.677632
918.150045	-31.744492
918.431325	-31.819212
918.712778	-31.738771
918.994404	-31.555528
919.276202	-31.494777
919.558173	-31.625589
919.840317	-31.703652
920.122634	-31.558187
920.405125	-31.345214
920.687789	-31.290896
920.970627	-31.401156
921.253639	-31.430983
921.536824	-31.281537
921.820184	-31.157294
922.103718	-31.175291
922.387427	-31.253837
922.671310	-31.215660
922.955368	-31.077937
923.239601	-31.054099
923.524009	-31.132012
923.808592	-31.135447
924.093351	-31.029258
924.378285	-30.934633
924.663396	-30.996379
924.948682	-31.080965
925.234144	-30.974572
925.519782	-30.811509
925.805597	-30.795418
926.091589	-30.943453
926.377757	-31.038466
926.664102	-30.887998
926.950624	-30.716571
927.237323	-30.729494
927.524200	-30.839578
927.811255	-30.855712
928.098487	-30.717888
928.385897	-30.616597
928.673485	-30.628085
928.961251	-30.603555
929.249196	-30.507226
929.537319	-30.453504
929.825621	-30.520227
930.114102	-30.578859
930.402762	-30.454080
930.691601	-30.281713
930.980620	-30.285169
931.269818	-30.437831
931.559196	-30.496768
931.848753	-30.339480
932.138491	-30.189503
932.428409	-30.220677
932.718508	-30.315281
933.008787	-30.288963
933.299246	-30.172140
933.589887	-30.148373
933.880709	-30.228897
934.171712	-30.235485
934.462896	-30.152851
934.754262	-30.119892
935.045810	-30.184578
935.337539	-30.205723
935.629451	-30.079916
935.921545	-29.983121
936.213822	-30.038763
936.506281	-30.105434
936.798922	-30.017307
937.091747	-29.843138
937.384755	-29.826322
937.677946	-29.957874
937.971321	-29.982314
938.264879	-29.839675
938.558621	-29.718909
938.852547	-29.766473
939.146657	-29.852018
939.440952	-29.783505
939.735431	-29.667725
940.030095	-29.640293
940.324943	-29.664346
940.619977	-29.610794
940.915196	-29.515945
941.210600	-29.540848
941.506189	-29.622446
941.801965	-29.573876
942.097926	-29.412054
942.394074	-29.357891
942.690407	-29.479099
942.986927	-29.540990
943.283634	-29.398073
943.580527	-29.231647
943.877608	-29.240708
944.174875	-29.325940
944.472330	-29.279900
944.769972	-29.155672
945.067802	-29.130233
945.365820	-29.197278
945.664026	-29.179171
945.962420	-29.071744
946.261002	-29.044627
946.559773	-29.103031
946.858733	-29.086248
947.157881	-28.963786
947.457219	-28.910610
947.756746	-28.993466
948.056462	-29.016081
948.356368	-28.892086
948.656464	-28.808876
948.956749	-28.893943
949.257225	-28.998337
949.557891	-28.909688
949.858748	-28.770251
950.159796	-28.789256
950.461034	-28.884403
950.762463	-28.855864
951.064084	-28.712820
951.365896	-28.682854
951.667900	-28.750443
951.970095	-28.728738
952.272483	-28.629864
952.575063	-28.606165
952.877835	-28.680240
953.180799	-28.644143
953.483956	-28.509735
953.787307	-28.484444
954.090850	-28.577205
954.394586	-28.564126
954.698516	-28.376298
955.002640	-28.288470
955.306957	-28.403560
955.611469	-28.487172
955.916174	-28.362031
956.221074	-28.231452
956.526169	-28.292929
956.831458	-28.395184
957.136942	-28.332611
957.442622	-28.219783
957.748496	-28.239801
958.054567	-28.295083
958.360833	-28.230321
958.667294	-28.161036
958.973952	-28.235143
959.280806	-28.316693
959.587857	-28.222988
959.895104	-28.119097
960.202548	-28.208415
960.510189	-28.338151
960.818027	-28.248774
961.126062	-28.070667
961.434295	-28.099244
961.742726	-28.239485
962.051355	-28.206631
962.360182	-28.046713
962.669207	-28.029441
962.978431	-28.143351
963.287854	-28.130049
963.597475	-28.023090
963.907296	-28.006409
964.217315	-28.048432
964.527535	-27.964553
964.837954	-27.847828
965.148573	-27.900228
965.459392	-27.975698
965.770411	-27.860119
966.081630	-27.692926
966.393051	-27.761838
966.704672	-27.922175
967.016494	-27.844105
967.328517	-27.636562
967.640742	-27.620507
967.953169	-27.755289
968.265797	-27.724879
968.578627	-27.575230
968.891660	-27.557145
969.204895	-27.635865
969.518332	-27.603094
969.831972	-27.528740
970.145816	-27.591279
970.459862	-27.638939
970.774112	-27.502235
971.088565	-27.383832
971.403223	-27.493440
971.718084	-27.601180
972.033149	-27.447547
972.348419	-27.285018
972.663893	-27.380733
972.979572	-27.534076
973.295456	-27.439271
973.611546	-27.287258
973.927840	-27.321253
974.244340	-27.392421
974.561046	-27.301442
974.877958	-27.218015
975.195076	-27.272877
975.512401	-27.275756
975.829932	-27.158620
976.147670	-27.147830
976.465615	-27.277869
976.783767	-27.253677
977.102126	-27.072698
977.420693	-27.052255
977.739468	-27.198063
978.058451	-27.168452
978.377642	-26.978431
978.697041	-26.970279
979.016649	-27.125321
979.336466	-27.118382
979.656492	-26.975690
979.976727	-26.984878
980.297171	-27.073626
980.617825	-27.006115
980.938689	-26.909016
981.259763	-26.977545
981.581048	-27.021135
981.902542	-26.885802
982.224248	-26.832880
982.546164	-26.992851
982.868291	-27.039733
983.190630	-26.851851
983.513180	-26.793102
983.835942	-26.955476
984.158916	-26.968296
984.482101	-26.764926
984.805500	-26.738652
985.129110	-26.905788
985.452934	-26.905837
985.776970	-26.748338
986.101220	-26.765278
986.425683	-26.877183
986.750359	-26.800575
987.075250	-26.689926
987.400354	-26.769761
987.725673	-26.813653
988.051206	-26.655906
988.376954	-26.612034
988.702916	-26.796084
989.029094	-26.831719
989.355487	-26.613680
989.682095	-26.570310
990.008919	-26.742146
990.335959	-26.734744
990.663216	-26.545379
990.990688	-26.546343
991.318377	-26.674868
991.646283	-26.610199
991.974406	-26.495521
992.302746	-26.572029
992.631304	-26.622754
992.960079	-26.469169
993.289072	-26.396137
993.618283	-26.494011
993.947713	-26.463478
994.277361	-26.296437
994.607227	-26.324987
994.937313	-26.453023
995.267618	-26.340488
995.598142	-26.164815
995.928886	-26.233321
996.259849	-26.324642
996.591033	-26.174732
996.922437	-26.053292
997.254061	-26.142901
997.585906	-26.168707
997.917972	-26.047331
998.250260	-26.050822
998.582768	-26.131848
998.915498	-26.030728
999.248450	-25.904351
999.581624	-25.988736
999.915020	-26.051764
1000.248639	-25.908788
1000.582480	-25.854731
1000.916545	-25.986901
1001.250832	-25.977360
1001.585343	-25.824956
1001.920077	-25.847235
1002.255035	-25.951039
1002.590218	-25.844066
1002.925624	-25.730825
1003.261255	-25.836183
1003.597111	-25.901984
1003.933192	-25.771279
1004.269497	-25.744797
1004.606029	-25.850421
1004.942785	-25.798902
1005.279768	-25.672539
1005.616977	-25.736583
1005.954412	-25.799036
1006.292074	-25.679308
1006.629962	-25.644296
1006.968077	-25.777956
1007.306420	-25.742859
1007.644990	-25.582083
1007.983787	-25.622171
1008.322813	-25.729890
1008.662067	-25.606678
1009.001549	-25.506831
1009.341259	-25.625386
1009.681199	-25.666068
1010.021367	-25.521892
1010.361765	-25.512305
1010.702392	-25.596121
1011.043250	-25.510382
1011.384337	-25.416533
1011.725654	-25.504168
1012.067202	-25.512257
1012.408980	-25.376293
1012.750989	-25.395608
1013.093230	-25.499275
1013.435702	-25.376048
1013.778405	-25.238394
1014.121341	-25.331391
1014.464508	-25.374972
1014.807908	-25.219805
1015.151540	-25.187845
1015.495405	-25.285388
1015.839503	-25.215383
1016.183835	-25.098552
1016.528400	-25.148531
1016.873198	-25.148524
1017.218231	-25.015230
1017.563498	-25.018682
1017.908999	-25.100409
1018.254735	-25.003135
1018.600707	-24.910490
1018.946913	-24.988843
1019.293354	-24.964348
1019.640032	-24.805089
1019.986945	-24.822384
1020.334094	-24.916217
1020.681480	-24.802619
1021.029102	-24.700904
1021.376961	-24.783172
1021.725058	-24.772538
1022.073391	-24.629142
1022.421962	-24.628511
1022.770772	-24.670854
1023.119819	-24.571939
1023.469104	-24.540098
1023.818628	-24.616564
1024.168391	-24.532560
1024.518393	-24.408434
1024.868634	-24.481845
1025.219115	-24.511112
1025.569836	-24.349163
1025.920796	-24.323105
1026.271997	-24.439007
1026.623438	-24.375184
1026.975121	-24.254396
1027.327044	-24.300716
1027.679208	-24.301197
1028.031614	-24.189586
1028.384262	-24.210462
1028.737152	-24.265686
1029.090284	-24.161618
1029.443659	-24.123398
1029.797276	-24.212110
1030.151137	-24.146387
1030.505240	-24.022945
1030.859587	-24.092154
1031.214178	-24.138701
1031.569013	-24.018639
1031.924093	-24.006093
1032.279417	-24.081653
1032.634985	-23.999645
1032.990799	-23.920767
1033.346858	-23.982116
1033.703162	-23.960302
1034.059712	-23.875789
1034.416509	-23.925255
1034.773551	-23.939424
1035.130841	-23.823510
1035.488377	-23.820681
1035.846160	-23.877764
1036.204190	-23.782523
1036.562468	-23.728738
1036.920994	-23.813482
1037.279768	-23.773854
1037.638790	-23.661972
1037.998061	-23.691989
1038.357581	-23.693423
1038.717350	-23.583926
1039.077368	-23.587532
1039.437636	-23.622908
1039.798154	-23.520172
1040.158922	-23.484354
1040.519940	-23.530463
1040.881209	-23.431650
1041.242729	-23.341152
1041.604501	-23.412162
1041.966524	-23.383764
1042.328798	-23.252787
1042.691325	-23.277461
1043.054103	-23.292698
1043.417135	-23.156141
1043.780419	-23.122976
1044.143956	-23.170385
1044.507746	-23.077218
1044.871791	-23.014449
1045.236088	-23.061162
1045.600641	-22.980315
1045.965447	-22.880871
1046.330508	-22.931494
1046.695824	-22.900127
1047.061395	-22.779955
1047.427222	-22.814655
1047.793304	-22.841030
1048.159642	-22.707676
1048.526237	-22.679558
1048.893088	-22.733719
1049.260196	-22.645735
1049.627561	-22.591251
1049.995183	-22.643902
1050.363063	-22.588436
1050.731201	-22.514309
1051.099597	-22.550954
1051.468251	-22.508023
1051.837164	-22.431573
1052.206336	-22.489085
1052.575767	-22.481990
1052.945458	-22.376547
1053.315409	-22.403290
1053.685619	-22.431410
1054.056090	-22.330715
1054.426821	-22.329899
1054.797814	-22.385274
1055.169067	-22.307316
1055.540582	-22.274131
1055.912359	-22.314628
1056.284398	-22.246916
1056.656698	-22.212641
1057.029262	-22.265213
1057.402088	-22.201695
1057.775177	-22.147658
1058.148530	-22.213836
1058.522146	-22.159917
1058.896027	-22.063998
1059.270171	-22.128244
1059.644580	-22.122496
1060.019254	-22.014852
1060.394193	-22.041411
1060.769397	-22.045535
1061.144867	-21.936951
1061.520602	-21.942048
1061.896604	-21.956365
1062.272872	-21.855411
1062.649407	-21.850331
1063.026210	-21.865549
1063.403279	-21.751640
1063.780616	-21.730046
1064.158221	-21.764869
1064.536094	-21.659063
1064.914235	-21.616034
1065.292645	-21.658805
1065.671325	-21.563095
1066.050273	-21.491048
1066.429491	-21.525924
1066.808979	-21.459783
1067.188738	-21.394361
1067.568766	-21.416467
1067.949066	-21.346375
1068.329636	-21.283122
1068.710478	-21.312877
1069.091592	-21.245184
1069.472977	-21.178385
1069.854635	-21.220932
1070.236565	-21.162867
1070.618768	-21.076792
1071.001243	-21.108016
1071.383993	-21.066937
1071.767016	-20.993573
1072.150313	-21.022381
1072.533884	-20.977422
1072.917730	-20.906204
1073.301850	-20.942667
1073.686246	-20.899324
1074.070917	-20.829382
1074.455864	-20.885745
1074.841087	-20.854715
1075.226586	-20.768517
1075.612362	-20.816207
1075.998415	-20.800282
1076.384745	-20.724094
1076.771353	-20.768276
1077.158238	-20.746527
1077.545401	-20.669427
1077.932843	-20.713291
1078.320564	-20.684452
1078.708564	-20.606777
1079.096842	-20.663328
1079.485401	-20.635408
1079.874240	-20.541270
1080.263358	-20.589859
1080.652757	-20.567003
1081.042438	-20.474522
1081.432399	-20.520689
1081.822641	-20.498777
1082.213166	-20.401739
1082.603972	-20.433348
1082.995061	-20.412875
1083.386433	-20.335591
1083.778087	-20.363804
1084.170025	-20.329515
1084.562246	-20.263127
1084.954751	-20.288535
1085.347541	-20.233227
1085.740615	-20.179805
1086.133973	-20.218489
1086.527617	-20.139031
1086.921546	-20.072000
1087.315761	-20.114741
1087.710262	-20.032738
1088.105050	-19.967197
1088.500124	-20.011582
1088.895485	-19.928252
1089.291134	-19.863550
1089.687070	-19.899248
1090.083294	-19.822680
1090.479806	-19.782537
1090.876607	-19.813869
1091.273696	-19.727191
1091.671075	-19.699845
1092.068744	-19.731917
1092.466702	-19.653271
1092.864950	-19.648328
1093.263489	-19.673552
1093.662319	-19.595578
1094.061440	-19.607324
1094.460852	-19.619245
1094.860555	-19.551798
1095.260551	-19.592590
1095.660840	-19.575279
1096.061421	-19.488495
1096.462295	-19.551856
1096.863462	-19.527769
1097.264923	-19.431504
1097.666678	-19.501013
1098.068727	-19.468734
1098.471071	-19.369869
1098.873710	-19.432296
1099.276644	-19.404747
1099.679874	-19.335271
1100.083400	-19.374713
1100.487222	-19.322225
1100.891340	-19.292820
1101.295756	-19.327007
1101.700468	-19.253517
1102.105478	-19.262002
1102.510787	-19.286344
1102.916393	-19.187108
1103.322298	-19.225734
1103.728502	-19.252590
1104.135005	-19.147577
1104.541807	-19.187815
1104.948909	-19.185051
1105.356312	-19.087619
1105.764015	-19.129038
1106.172019	-19.089164
1106.580324	-19.006332
1106.988931	-19.029248
1107.397840	-18.941960
1107.807051	-18.890629
1108.216564	-18.905090
1108.626380	-18.781288
1109.036500	-18.750454
1109.446923	-18.740368
1109.857649	-18.604600
1110.268680	-18.605280
1110.680016	-18.571803
1111.091657	-18.441533
1111.503602	-18.461056
1111.915854	-18.407431
1112.328411	-18.319864
1112.741275	-18.359521
1113.154445	-18.286071
1113.567922	-18.244329
1113.981706	-18.286869
1114.395798	-18.210217
1114.810198	-18.223626
1115.224906	-18.247896
1115.639923	-18.171570
1116.055249	-18.226058
1116.470884	-18.224638
1116.886829	-18.175171
1117.303084	-18.250088
1117.719650	-18.204032
1118.136526	-18.185132
1118.553713	-18.253661
1118.971212	-18.175520
1119.389022	-18.187741
1119.807145	-18.210141
1120.225580	-18.113949
1120.644328	-18.152412
1121.063389	-18.123993
1121.482763	-18.043009
1121.902452	-18.079480
1122.322454	-17.997738
1122.742771	-17.958611
1123.163404	-17.976030
1123.584351	-17.866744
1124.005614	-17.867522
1124.427193	-17.841585
1124.849089	-17.746495
1125.271301	-17.785392
1125.693830	-17.720260
1126.116677	-17.666216
1126.539842	-17.708647
1126.963324	-17.625247
1127.387126	-17.632665
1127.811246	-17.646461
1128.235685	-17.565660
1128.660444	-17.614679
1129.085522	-17.586952
1129.510922	-17.549310
1129.936641	-17.606908
1130.362682	-17.538313
1130.789044	-17.552577
1131.215728	-17.580735
1131.642734	-17.505765
1132.070063	-17.551620
1132.497714	-17.514435
1132.925689	-17.463658
1133.353987	-17.507615
1133.782610	-17.422436
1134.211556	-17.412842
1134.640827	-17.407868
1135.070424	-17.313516
1135.500345	-17.337479
1135.930593	-17.270994
1136.361166	-17.202541
1136.792067	-17.212417
1137.223294	-17.108476
1137.654848	-17.093087
1138.086730	-17.059292
1138.518940	-16.962202
1138.951479	-16.978396
1139.384346	-16.902665
1139.817543	-16.859703
1140.251069	-16.863226
1140.684925	-16.767509
1141.119111	-16.780047
1141.553628	-16.746761
1141.988475	-16.684980
1142.423655	-16.718132
1142.859166	-16.650114
1143.295009	-16.652764
1143.731185	-16.667454
1144.167694	-16.603473
1144.604536	-16.645585
1145.041711	-16.611436
1145.479221	-16.594988
1145.917065	-16.635617
1146.355245	-16.573031
1146.793759	-16.606993
1147.232609	-16.605112
1147.671795	-16.567790
1148.111317	-16.616886
1148.551177	-16.561657
1148.991373	-16.570039
1149.431907	-16.582005
1149.872779	-16.521030
1150.313989	-16.555825
1150.755538	-16.505229
1151.197426	-16.487713
1151.639653	-16.503849
1152.082220	-16.426598
1152.525128	-16.446325
1152.968376	-16.400521
1153.411966	-16.354690
1153.855897	-16.367402
1154.300169	-16.280920
1154.744784	-16.283800
1155.189742	-16.245435
1155.635042	-16.186261
1156.080687	-16.199491
1156.526674	-16.112855
1156.973007	-16.108546
1157.419683	-16.077983
1157.866705	-16.008121
1158.314072	-16.023376
1158.761786	-15.945661
1159.209845	-15.940522
1159.658251	-15.920111
1160.107004	-15.854359
1160.556104	-15.875679
1161.005553	-15.807382
1161.455349	-15.802764
1161.905494	-15.786230
1162.355989	-15.727263
1162.806832	-15.755235
1163.258026	-15.697185
1163.709570	-15.697461
1164.161464	-15.688470
1164.613710	-15.641165
1165.066307	-15.668635
1165.519256	-15.615049
1165.972558	-15.619500
1166.426212	-15.611925
1166.880219	-15.574356
1167.334580	-15.603096
1167.789295	-15.556617
1168.244364	-15.565240
1168.699788	-15.558306
1169.155567	-15.525584
1169.611702	-15.547042
1170.068193	-15.505491
1170.525041	-15.515574
1170.982245	-15.508912
1171.439807	-15.483070
1171.897726	-15.499836
1172.356004	-15.465732
1172.814640	-15.472607
1173.273635	-15.458861
1173.732989	-15.435424
1174.192703	-15.447797
1174.652778	-15.416263
1175.113213	-15.420484
1175.574009	-15.408800
1176.035167	-15.384961
1176.496687	-15.391441
1176.958569	-15.358909
1177.420814	-15.355844
1177.883422	-15.339158
1178.346394	-15.317837
1178.809730	-15.320574
1179.273430	-15.283940
1179.737496	-15.284204
1180.201927	-15.258171
1180.666723	-15.235595
1181.131886	-15.226378
1181.597416	-15.189316
1182.063312	-15.186404
1182.529576	-15.154258
1182.996209	-15.137149
1183.463209	-15.116283
1183.930579	-15.085377
1184.398317	-15.068822
1184.866426	-15.035263
1185.334904	-15.011528
1185.803754	-14.991124
1186.272974	-14.957757
1186.742566	-14.940149
1187.212529	-14.907720
1187.682865	-14.878898
1188.153574	-14.858655
1188.624656	-14.814061
1189.096112	-14.805690
1189.567942	-14.758159
1190.040147	-14.750455
1190.512726	-14.709798
1190.985681	-14.684447
1191.459012	-14.665218
1191.932720	-14.617006
1192.406804	-14.614514
1192.881265	-14.556844
1193.356104	-14.564908
1193.831322	-14.507203
1194.306918	-14.507539
1194.782893	-14.464625
1195.259248	-14.443854
1195.735982	-14.425651
1196.213097	-14.378432
1196.690593	-14.392292
1197.168471	-14.323005
1197.646730	-14.357102
1198.125371	-14.276426
1198.604395	-14.310448
1199.083803	-14.244691
1199.563594	-14.249661
1200.043769	-14.228400
1200.524329	-14.187928
1201.005273	-14.223252
1201.486604	-14.129084
1201.968320	-14.209457
1202.450422	-14.086223
1202.932912	-14.174970
1203.415789	-14.066406
1203.899054	-14.123148
1204.382707	-14.074340
1204.866748	-14.058088
1205.351179	-14.089388
1205.836000	-13.993917
1206.321211	-14.093530
1206.806812	-13.946115
1207.292805	-14.077349
1207.779189	-13.931498
1208.265965	-14.035355
1208.753134	-13.940182
1209.240696	-13.971906
1209.728651	-13.957557
1210.217000	-13.904206
1210.705744	-13.968712
1211.194883	-13.856927
1211.684417	-13.960860
1212.174347	-13.831310
1212.664673	-13.923877
1213.155396	-13.824289
1213.646516	-13.864636
1214.138034	-13.827358
1214.629951	-13.805963
1215.122266	-13.827992
1215.614980	-13.755350
1216.108095	-13.807906
1216.601609	-13.718121
1217.095524	-13.764878
1217.589841	-13.694873
1218.084559	-13.712730
1218.579679	-13.681469
1219.075202	-13.654829
1219.571128	-13.660996
1220.067458	-13.599062
1220.564191	-13.627077
1221.061330	-13.553327
1221.558874	-13.586122
1222.056823	-13.520412
1222.555178	-13.534553
1223.053940	-13.489157
1223.553109	-13.476893
1224.052686	-13.455593
1224.552671	-13.423045
1225.053065	-13.423359
1225.553867	-13.377552
1226.055079	-13.384283
1226.556702	-13.333964
1227.058735	-13.338884
1227.561179	-13.293480
1228.064035	-13.295219
1228.567303	-13.259945
1229.070983	-13.255027
1229.575077	-13.223780
1230.079585	-13.214012
1230.584506	-13.185001
1231.089842	-13.176593
1231.595594	-13.150810
1232.101761	-13.145546
1232.608345	-13.119738
1233.115345	-13.110952
1233.622762	-13.088488
1234.130597	-13.075713
1234.638851	-13.063221
1235.147523	-13.045823
1235.656615	-13.044377
1236.166126	-13.016532
1236.676058	-13.022488
1237.186411	-12.988057
1237.697185	-13.002398
1238.208381	-12.967886
1238.719999	-12.986478
1239.232040	-12.954156
1239.744505	-12.966686
1240.257394	-12.940359
1240.770708	-12.947487
1241.284446	-12.933367
1241.798610	-12.934130
1242.313201	-12.931551
1242.828218	-12.921846
1243.343662	-12.925376
1243.859534	-12.910394
1244.375834	-12.922343
1244.892563	-12.906162
1245.409721	-12.922906
1245.927309	-12.904579
1246.445327	-12.918188
1246.963777	-12.901002
1247.482657	-12.914512
1248.001970	-12.902970
1248.521716	-12.914460
1249.041894	-12.906159
1249.562506	-12.910056
1250.083553	-12.903708
1250.605034	-12.904914
1251.126950	-12.904652
1251.649302	-12.903040
1252.172091	-12.905407
1252.695316	-12.896973
1253.218979	-12.898507
1253.743079	-12.888322
1254.267619	-12.893337
1254.792597	-12.882690
1255.318015	-12.887032
1255.843874	-12.872559
1256.370173	-12.872348
1256.896913	-12.858533
1257.424095	-12.858727
1257.951720	-12.847473
1258.479787	-12.844171
1259.008298	-12.831276
1259.537254	-12.821612
1260.066654	-12.810547
1260.596499	-12.800257
1261.126790	-12.792936
1261.657527	-12.778272
1262.188711	-12.769587
1262.720342	-12.749169
1263.252422	-12.741671
1263.784950	-12.721930
1264.317928	-12.716952
1264.851355	-12.694116
1265.385232	-12.686220
1265.919560	-12.659735
1266.454340	-12.651920
1266.989572	-12.628195
1267.525256	-12.621033
1268.061394	-12.595672
1268.597985	-12.583843
1269.135031	-12.557244
1269.672531	-12.544874
1270.210487	-12.522662
1270.748899	-12.509648
1271.287768	-12.486274
1271.827094	-12.468479
1272.366877	-12.445128
1272.907119	-12.427973
1273.447820	-12.409149
1273.988981	-12.390908
1274.530601	-12.370778
1275.072683	-12.348542
1275.615226	-12.329867
1276.158230	-12.309881
1276.701697	-12.295106
1277.245627	-12.273880
1277.790021	-12.257240
1278.334879	-12.233930
1278.880202	-12.220001
1279.425991	-12.200243
1279.972245	-12.188997
1280.518966	-12.167731
1281.066155	-12.154446
1281.613811	-12.133456
1282.161936	-12.123942
1282.710529	-12.106855
1283.259593	-12.098320
1283.809126	-12.079205
1284.359131	-12.069435
1284.909607	-12.052945
1285.460555	-12.046925
1286.011976	-12.033993
1286.563870	-12.026149
1287.116237	-12.012070
1287.669080	-12.003997
1288.222397	-11.994605
1288.776191	-11.989255
1289.330460	-11.981695
1289.885207	-11.972564
1290.440431	-11.965858
1290.996133	-11.957601
1291.552314	-11.956861
1292.108975	-11.948448
1292.666115	-11.948165
1293.223737	-11.935604
1293.781839	-11.939186
1294.340424	-11.928087
1294.899491	-11.936949
1295.459041	-11.922667
1296.019075	-11.931634
1296.579593	-11.915124
1297.140597	-11.930094
1297.702086	-11.914511
1298.264061	-11.931881
1298.826524	-11.911870
1299.389474	-11.930347
1299.952912	-11.911684
1300.516839	-11.935107
1301.081255	-11.916187
1301.646162	-11.937963
1302.211559	-11.917382
1302.777448	-11.940880
1303.343829	-11.924834
1303.910702	-11.947960
1304.478069	-11.931734
1305.045930	-11.950096
1305.614285	-11.938302
1306.183136	-11.956169
1306.752483	-11.950100
1307.322326	-11.960581
1307.892666	-11.957367
1308.463504	-11.962529
1309.034841	-11.968362
1309.606677	-11.968560
1310.179012	-11.978209
1310.751849	-11.969258
1311.325186	-11.985072
1311.899025	-11.973198
1312.473366	-11.995154
1313.048211	-11.976691
1313.623559	-11.998485
1314.199412	-11.978248
1314.775770	-12.003212
1315.352634	-11.984590
1315.930004	-12.004973
1316.507881	-11.986413
1317.086266	-12.002396
1317.665159	-11.992215
1318.244562	-12.002016
1318.824474	-11.996650
1319.404897	-11.995182
1319.985831	-11.998594
1320.567276	-11.991403
1321.149234	-12.002669
1321.731706	-11.985395
1322.314691	-11.999349
1322.898190	-11.978631
1323.482205	-11.997476
1324.066736	-11.975463
1324.651783	-11.989512
1325.237347	-11.967976
1325.823430	-11.978509
1326.410031	-11.965296
1326.997151	-11.967025
1327.584791	-11.958303
1328.172952	-11.949737
1328.761634	-11.951478
1329.350839	-11.936683
1329.940566	-11.943138
1330.530817	-11.919456
1331.121592	-11.929019
1331.712891	-11.906348
1332.304716	-11.916125
1332.897068	-11.893348
1333.489946	-11.895514
1334.083352	-11.880084
1334.677287	-11.877349
1335.271750	-11.869912
1335.866744	-11.855287
1336.462268	-11.854147
1337.058323	-11.834735
1337.654910	-11.841122
1338.252029	-11.816541
1338.849682	-11.820643
1339.447869	-11.797364
1340.046591	-11.800800
1340.645848	-11.784134
1341.245641	-11.777220
1341.845972	-11.766717
1342.446840	-11.752858
1343.048246	-11.753447
1343.650191	-11.731643
1344.252677	-11.733999
1344.855702	-11.709342
1345.459269	-11.714488
1346.063379	-11.694457
1346.668030	-11.691358
1347.273226	-11.676856
1347.878965	-11.666708
1348.485250	-11.664455
1349.092080	-11.645060
1349.699456	-11.646466
1350.307380	-11.622963
1350.915851	-11.628640
1351.524871	-11.608642
1352.134441	-11.606236
1352.744560	-11.592434
1353.355231	-11.583108
1353.966453	-11.581620
1354.578227	-11.562237
1355.190555	-11.564458
1355.803436	-11.542660
1356.416872	-11.548036
1357.030863	-11.530212
1357.645411	-11.525694
1358.260515	-11.516379
1358.876177	-11.505016
1359.492397	-11.506661
1360.109176	-11.485648
1360.726516	-11.489330
1361.344416	-11.470518
1361.962877	-11.473068
1362.581901	-11.459999
1363.201487	-11.450402
1363.821637	-11.448567
1364.442352	-11.433055
1365.063632	-11.437385
1365.685478	-11.416213
1366.307891	-11.418874
1366.930871	-11.406489
1367.554420	-11.401253
1368.178538	-11.396194
1368.803226	-11.380218
1369.428485	-11.385354
1370.054315	-11.367346
1370.680717	-11.369282
1371.307693	-11.354735
1371.935242	-11.350468
1372.563366	-11.348226
1373.192065	-11.332466
1373.821341	-11.335149
1374.451193	-11.318007
1375.081623	-11.321464
1375.712632	-11.308920
1376.344221	-11.300771
1376.976389	-11.299472
1377.609139	-11.285038
1378.242470	-11.288148
1378.876384	-11.269971
1379.510881	-11.269955
1380.145963	-11.262129
1380.781629	-11.251622
1381.417881	-11.250353
1382.054720	-11.233747
1382.692147	-11.237623
1383.330161	-11.223187
1383.968765	-11.217522
1384.607959	-11.212932
1385.247743	-11.200897
1385.888119	-11.202875
1386.529087	-11.185555
1387.170648	-11.185701
1387.812804	-11.178075
1388.455554	-11.168785
1389.098899	-11.167349
1389.742842	-11.152360
1390.387381	-11.155576
1391.032519	-11.143157
1391.678256	-11.136168
1392.324592	-11.133462
1392.971529	-11.121031
1393.619068	-11.122129
1394.267208	-11.106921
1394.915952	-11.104163
1395.565300	-11.099874
1396.215253	-11.087067
1396.865812	-11.086744
1397.516977	-11.073503
1398.168749	-11.072909
1398.821130	-11.064987
1399.474120	-11.053693
1400.127719	-11.055433
1400.781930	-11.043088
1401.436752	-11.041199
1402.092186	-11.033487
1402.748234	-11.026556
1403.404897	-11.028049
1404.062174	-11.014765
1404.720067	-11.014790
1405.378577	-11.010477
1406.037705	-11.003523
1406.697451	-11.003391
1407.357817	-10.993323
1408.018803	-10.995649
1408.680410	-10.990338
1409.342639	-10.982625
1410.005492	-10.985698
1410.668968	-10.978216
1411.333068	-10.977882
1411.997795	-10.974025
1412.663147	-10.969838
1413.329127	-10.973555
1413.995736	-10.964724
1414.662973	-10.965217
1415.330840	-10.966137
1415.999339	-10.960469
1416.668469	-10.962657
1417.338232	-10.958394
1418.008628	-10.960503
1418.679659	-10.961182
1419.351325	-10.955606
1420.023628	-10.962204
1420.696568	-10.960963
1421.370145	-10.959463
1422.044362	-10.963957
1422.719219	-10.962634
1423.394717	-10.967176
1424.070856	-10.966645
1424.747638	-10.967574
1425.425064	-10.975691
1426.103134	-10.973227
1426.781850	-10.977579
1427.461212	-10.985052
1428.141221	-10.985913
1428.821878	-10.992890
1429.503185	-10.996947
1430.185141	-11.003391
1430.867749	-11.010968
1431.551008	-11.011996
1432.234920	-11.022298
1432.919486	-11.029202
1433.604707	-11.030783
1434.290583	-11.041973
1434.977116	-11.048767
1435.664307	-11.055123
1436.352156	-11.065362
1437.040664	-11.073406
1437.729833	-11.085997
1438.419663	-11.094808
1439.110156	-11.104230
1439.801312	-11.120429
1440.493132	-11.127831
1441.185617	-11.137524
1441.878768	-11.152880
1442.572586	-11.159920
1443.267072	-11.169751
1443.962228	-11.182113
1444.658053	-11.191518
1445.354549	-11.203482
1446.051717	-11.214371
1446.749558	-11.229027
1447.448073	-11.245238
1448.147263	-11.257114
1448.847128	-11.276733
1449.547671	-11.296089
1450.248891	-11.308849
1450.950789	-11.329036
1451.653368	-11.347188
1452.356627	-11.358522
1453.060568	-11.374199
1453.765192	-11.387345
1454.470500	-11.396562
1455.176492	-11.406710
1455.883170	-11.415967
1456.590534	-11.426353
1457.298586	-11.435446
1458.007327	-11.445853
1458.716758	-11.462143
1459.426880	-11.475126
1460.137693	-11.490008
1460.849199	-11.512257
1461.561398	-11.528356
1462.274293	-11.544048
1462.987883	-11.564858
1463.702170	-11.576369
1464.417155	-11.583931
1465.132838	-11.592957
1465.849222	-11.591901
1466.566306	-11.585492
1467.284093	-11.579085
1468.002582	-11.566332
1468.721775	-11.550826
1469.441674	-11.537070
1470.162278	-11.523774
1470.883590	-11.512493
1471.605609	-11.505285
1472.328338	-11.504544
1473.051777	-11.508818
1473.775928	-11.516633
1474.500790	-11.532528
1475.226367	-11.552087
1475.952657	-11.570403
1476.679663	-11.593567
1477.407386	-11.615552
1478.135826	-11.629445
1478.864985	-11.643527
1479.594863	-11.652526
1480.325463	-11.649847
1481.056784	-11.646749
1481.788828	-11.640667
1482.521597	-11.626404
1483.255090	-11.617754
1483.989309	-11.614353
1484.724256	-11.611800
1485.459931	-11.624414
1486.196336	-11.652494
1486.933471	-11.691039
1487.671337	-11.753340
1488.409937	-11.838934
1489.149270	-11.941246
1489.889337	-12.071582
1490.630141	-12.227698
1491.371682	-12.400274
1492.113961	-12.597613
1492.856979	-12.814486
1493.600738	-13.037248
1494.345238	-13.270450
1495.090481	-13.505417
1495.836467	-13.724521
1496.583198	-13.930361
1497.330675	-14.114964
1498.078899	-14.262559
1498.827872	-14.381377
1499.577593	-14.473297
1500.328065	-14.532233
1501.079289	-14.576869
1501.831265	-14.619216
1502.583995	-14.659136
1503.337480	-14.717574
1504.091721	-14.806375
1504.846719	-14.921697
1505.602475	-15.078395
1506.358991	-15.281391
1507.116268	-15.518390
1507.874306	-15.794302
1508.633108	-16.102347
1509.392673	-16.416089
1510.153004	-16.722286
1510.914101	-16.994505
1511.675965	-17.188091
1512.438599	-17.276929
1513.202002	-17.238937
1513.966176	-17.058773
1514.731122	-16.755436
1515.496842	-16.359005
1516.263336	-15.901841
1517.030607	-15.424043
1517.798654	-14.952562
1518.567479	-14.508015
1519.337083	-14.107567
1520.107468	-13.752999
1520.878634	-13.449149
1521.650584	-13.195759
1522.423317	-12.980375
1523.196836	-12.800590
1523.971141	-12.644603
1524.746233	-12.493504
1525.522115	-12.341231
1526.298786	-12.168838
1527.076249	-11.960312
1527.854504	-11.711543
1528.633553	-11.408918
1529.413397	-11.051758
1530.194037	-10.645426
1530.975474	-10.192519
1531.757709	-9.707128
1532.540745	-9.200394
1533.324581	-8.685253
1534.109220	-8.176222
1534.894662	-7.682504
1535.680909	-7.217213
1536.467961	-6.787803
1537.255821	-6.400398
1538.044489	-6.064267
1538.833967	-5.781005
1539.624256	-5.555320
1540.415357	-5.392115
1541.207271	-5.290539
1542.000000	-5.254689
1542.793545	-5.285686
1543.587907	-5.383350
1544.383087	-5.550597
1545.179088	-5.786645
1545.975909	-6.093976
1546.773552	-6.473870
1547.572019	-6.926857
1548.371311	-7.459125
1549.171428	-8.071751
1549.972373	-8.771218
1550.774147	-9.568862
1551.576751	-10.471851
1552.380185	-11.500524
1553.184453	-12.678561
1553.989554	-14.039535
1554.795490	-15.641568
1555.602263	-17.563383
1556.409873	-19.952030
1557.218322	-23.039108
1558.027612	-27.039338
1558.837743	-30.164287
1559.648717	-27.599631
1560.460536	-23.881235
1561.273200	-21.089267
1562.086710	-19.015030
1562.901069	-17.413811
1563.716278	-16.150969
1564.532337	-15.131951
1565.349249	-14.303665
1566.167014	-13.632708
1566.985634	-13.085522
1567.805111	-12.649838
1568.625444	-12.308991
1569.446637	-12.051035
1570.268690	-11.870768
1571.091605	-11.756721
1571.915382	-11.707964
1572.740024	-11.716475
1573.565532	-11.777208
1574.391907	-11.890513
1575.219150	-12.046977
1576.047262	-12.247157
1576.876246	-12.485486
1577.706103	-12.757169
1578.536833	-13.061440
1579.368439	-13.388037
1580.200922	-13.738103
1581.034282	-14.102941
1581.868522	-14.476016
1582.703643	-14.856418
1583.539646	-15.232087
1584.376532	-15.603771
1585.214304	-15.961203
1586.052962	-16.301526
1586.892508	-16.623944
1587.732943	-16.916638
1588.574269	-17.185292
1589.416487	-17.420800
1590.259599	-17.623216
1591.103605	-17.791396
1591.948508	-17.917464
1592.794309	-18.010372
1593.641009	-18.059849
1594.488609	-18.070980
1595.337112	-18.045511
1596.186518	-17.981496
1597.036829	-17.889411
1597.888047	-17.763064
1598.740172	-17.614595
1599.593207	-17.445736
1600.447153	-17.258649
1601.302010	-17.063021
1602.157782	-16.856132
1603.014469	-16.650755
1603.872072	-16.444216
1604.730593	-16.242278
1605.590034	-16.050023
1606.450397	-15.865714
1607.311681	-15.696964
1608.173890	-15.537793
1609.037024	-15.394649
1609.901085	-15.264373
1610.766075	-15.145624
1611.631995	-15.039786
1612.498846	-14.940806
1613.366630	-14.852958
1614.235349	-14.768511
1615.105004	-14.690117
1615.975596	-14.614190
1616.847128	-14.539424
1617.719600	-14.466753
1618.593014	-14.391008
1619.467372	-14.316816
1620.342675	-14.238479
1621.218924	-14.160164
1622.096122	-14.078794
1622.974270	-13.996127
1623.853369	-13.913468
1624.733420	-13.828870
1625.614427	-13.747123
1626.496389	-13.664770
1627.379308	-13.587365
1628.263187	-13.511208
1629.148026	-13.440120
1630.033828	-13.373009
1630.920593	-13.310154
1631.808324	-13.252687
1632.697022	-13.197641
1633.586688	-13.148512
1634.477324	-13.100329
1635.368932	-13.056481
1636.261514	-13.012114
1637.155070	-12.969991
1638.049602	-12.927234
1638.945113	-12.884073
1639.841603	-12.840370
1640.739075	-12.794616
1641.637529	-12.749476
1642.536968	-12.701462
1643.437393	-12.654721
1644.338806	-12.605526
1645.241209	-12.558711
1646.144602	-12.510829
1647.048988	-12.465454
1647.954368	-12.420684
1648.860744	-12.378516
1649.768118	-12.338647
1650.676491	-12.300453
1651.585865	-12.265462
1652.496241	-12.231361
1653.407621	-12.201040
1654.320008	-12.170347
1655.233401	-12.142893
1656.147804	-12.114244
1657.063218	-12.088328
1657.979645	-12.061035
1658.897085	-12.035823
1659.815542	-12.009793
1660.735016	-11.985804
1661.655509	-11.962173
1662.577023	-11.940149
1663.499560	-11.919386
1664.423121	-11.899773
1665.347709	-11.882298
1666.273324	-11.865464
1667.199969	-11.851357
1668.127645	-11.837409
1669.056353	-11.826606
1669.986097	-11.815448
1670.916877	-11.807364
1671.848695	-11.798406
1672.781553	-11.792301
1673.715452	-11.785011
1674.650395	-11.780344
1675.586383	-11.774588
1676.523418	-11.771469
1677.461501	-11.767605
1678.400635	-11.766323
1679.340821	-11.764436
1680.282061	-11.764871
1681.224357	-11.764959
1682.167710	-11.766971
1683.112122	-11.768649
1684.057595	-11.771973
1685.004132	-11.775230
1685.951732	-11.779850
1686.900400	-11.784380
1687.850135	-11.789856
1688.800940	-11.795281
1689.752818	-11.801562
1690.705768	-11.807937
1691.659795	-11.814995
1692.614898	-11.822382
1693.571081	-11.830583
1694.528345	-11.839198
1695.486691	-11.848583
1696.446122	-11.858376
1697.406640	-11.868780
1698.368245	-11.879482
1699.330941	-11.890805
1700.294729	-11.902361
1701.259611	-11.914612
1702.225588	-11.927231
1703.192664	-11.940723
1704.160838	-11.954577
1705.130114	-11.969473
1706.100493	-11.984439
1707.071977	-12.000157
1708.044568	-12.015736
1709.018268	-12.032170
1709.993079	-12.048239
1710.969003	-12.065126
1711.946041	-12.081586
1712.924196	-12.099064
1713.903469	-12.116106
1714.883862	-12.134205
1715.865378	-12.151514
1716.848017	-12.169829
1717.831783	-12.187421
1718.816677	-12.206168
1719.802701	-12.224047
1720.789857	-12.243071
1721.778147	-12.261228
1722.767573	-12.280627
1723.758136	-12.299196
1724.749840	-12.318927
1725.742685	-12.337752
1726.736673	-12.357728
1727.731808	-12.377104
1728.728090	-12.397628
1729.725521	-12.417585
1730.724105	-12.438272
1731.723842	-12.458422
1732.724735	-12.479015
1733.726785	-12.499428
1734.729995	-12.520097
1735.734366	-12.540824
1736.739902	-12.561314
1737.746603	-12.582162
1738.754472	-12.602647
1739.763510	-12.623961
1740.773721	-12.644490
1741.785105	-12.665725
1742.797665	-12.685587
1743.811403	-12.706167
1744.826321	-12.725650
1745.842422	-12.746291
1746.859706	-12.766146
1747.878177	-12.786782
1748.897835	-12.806764
1749.918685	-12.827097
1750.940726	-12.847407
1751.963963	-12.867800
1752.988395	-12.888734
1754.014027	-12.909073
1755.040860	-12.930179
1756.068895	-12.950426
1757.098135	-12.971993
1758.128583	-12.992936
1759.160240	-13.015415
1760.193109	-13.037517
1761.227191	-13.060462
1762.262488	-13.083103
1763.299004	-13.105721
1764.336740	-13.128648
1765.375697	-13.151126
1766.415880	-13.174808
1767.457288	-13.197729
1768.499926	-13.221806
1769.543794	-13.244713
1770.588895	-13.268282
1771.635231	-13.291185
1772.682805	-13.314315
1773.731619	-13.337756
1774.781674	-13.360578
1775.832973	-13.383982
1776.885519	-13.405870
1777.939312	-13.428338
1778.994357	-13.449484
1780.050654	-13.471092
1781.108207	-13.492361
1782.167017	-13.513450
1783.227087	-13.534949
1784.288418	-13.555347
1785.351013	-13.576403
1786.414875	-13.596037
1787.480006	-13.616049
1788.546407	-13.635429
1789.614082	-13.654770
1790.683032	-13.674457
1791.753259	-13.693328
1792.824767	-13.712784
1793.897557	-13.731086
1794.971632	-13.749793
1796.046994	-13.768206
1797.123645	-13.786913
1798.201588	-13.806352
1799.280824	-13.825585
1800.361357	-13.845684
1801.443188	-13.865140
1802.526320	-13.884860
1803.610756	-13.904133
1804.696497	-13.923121
1805.783546	-13.942439
1806.871906	-13.961471
1807.961578	-13.981424
1809.052565	-14.001214
1810.144870	-14.021277
1811.238494	-14.041089
1812.333441	-14.060198
1813.429713	-14.079270
1814.527311	-14.097603
1815.626239	-14.116152
1816.726499	-14.134367
1817.828094	-14.152263
1818.931025	-14.169891
1820.035295	-14.186593
1821.140906	-14.203051
1822.247862	-14.218813
1823.356165	-14.234523
1824.465816	-14.250313
1825.576819	-14.265957
1826.689175	-14.281828
1827.802888	-14.297150
1828.917960	-14.312248
1830.034394	-14.326917
1831.152191	-14.341262
1832.271354	-14.355729
1833.391887	-14.369853
1834.513790	-14.383970
1835.637068	-14.397627
1836.761722	-14.410805
1837.887755	-14.423709
1839.015169	-14.435967
1840.143968	-14.448099
1841.274153	-14.459680
1842.405727	-14.470765
1843.538693	-14.481544
1844.673053	-14.491673
1845.808810	-14.501772
1846.945966	-14.511426
1848.084525	-14.520736
1849.224488	-14.529923
1850.365858	-14.538448
1851.508638	-14.546733
1852.652831	-14.554392
1853.798438	-14.561170
1854.945463	-14.567622
1856.093909	-14.573222
1857.243777	-14.578580
1858.395071	-14.583866
1859.547794	-14.588569
1860.701947	-14.593139
1861.857533	-14.597038
1863.014556	-14.600131
1864.173018	-14.603023
1865.332922	-14.605180
1866.494270	-14.607228
1867.657065	-14.609590
1868.821309	-14.611875
1869.987006	-14.614709
1871.154158	-14.617445
1872.322768	-14.619519
1873.492839	-14.621236
1874.664373	-14.622360
1875.837373	-14.623255
1877.011841	-14.624483
1878.187782	-14.625429
1879.365197	-14.626131
1880.544089	-14.626457
1881.724460	-14.625954
1882.906315	-14.625106
1884.089655	-14.623799
1885.274483	-14.621862
1886.460803	-14.619679
1887.648616	-14.616993
1888.837927	-14.613924
1890.028736	-14.610931
1891.221049	-14.607604
1892.414866	-14.604239
1893.610192	-14.600433
1894.807028	-14.595564
1896.005379	-14.589769
1897.205246	-14.582965
1898.406633	-14.575642
1899.609542	-14.568281
1900.813977	-14.560613
1902.019940	-14.552652
1903.227434	-14.544069
1904.436462	-14.534799
1905.647028	-14.525399
1906.859133	-14.515895
1908.072781	-14.506546
1909.287976	-14.497263
1910.504719	-14.487450
1911.723013	-14.477187
1912.942863	-14.466323
1914.164270	-14.455116
1915.387238	-14.444256
1916.611770	-14.433591
1917.837868	-14.422872
1919.065536	-14.411635
1920.294777	-14.399397
1921.525594	-14.386666
1922.757989	-14.373811
1923.991967	-14.361149
1925.227529	-14.348990
1926.464679	-14.336532
1927.703420	-14.323198
1928.943755	-14.309126
1930.185688	-14.294633
1931.429221	-14.280782
1932.674356	-14.268159
1933.921099	-14.255996
1935.169451	-14.243463
1936.419415	-14.230108
1937.670996	-14.216126
1938.924195	-14.202642
1940.179017	-14.190531
1941.435463	-14.179671
1942.693538	-14.169099
1943.953245	-14.157674
1945.214586	-14.145011
1946.477566	-14.131705
1947.742186	-14.118738
1949.008451	-14.106503
1950.276363	-14.094438
1951.545926	-14.081733
1952.817143	-14.067921
1954.090017	-14.053023
1955.364551	-14.037547
1956.640749	-14.021944
1957.918615	-14.006235
1959.198150	-13.990465
1960.479359	-13.974741
1961.762244	-13.958946
1963.046810	-13.943283
1964.333059	-13.928085
1965.620995	-13.912950
1966.910621	-13.897304
1968.201940	-13.881122
1969.494956	-13.864618
1970.789672	-13.848164
1972.086091	-13.832158
1973.384217	-13.816464
1974.684053	-13.800591
1975.985602	-13.784337
1977.288869	-13.767796
1978.593855	-13.751451
1979.900566	-13.736077
1981.209003	-13.721861
1982.519171	-13.708217
1983.831073	-13.694587
1985.144712	-13.680779
1986.460093	-13.667077
1987.777217	-13.654129
1989.096089	-13.642347
1990.416713	-13.631536
1991.739092	-13.621235
1993.063228	-13.611071
1994.389127	-13.600767
1995.716791	-13.590068
1997.046223	-13.579019
1998.377428	-13.568156
1999.710409	-13.557866
2001.045169	-13.547918
2002.381713	-13.537803
2003.720043	-13.527169
2005.060163	-13.516215
2006.402077	-13.505258
2007.745788	-13.494276
2009.091301	-13.483156
2010.438618	-13.472105
2011.787743	-13.461585
2013.138680	-13.451506
2014.491433	-13.441135
2015.846005	-13.429930
2017.202399	-13.418043
2018.560621	-13.406108
2019.920673	-13.394637
2021.282558	-13.383638
2022.646281	-13.372646
2024.011846	-13.361221
2025.379256	-13.349329
2026.748515	-13.337266
2028.119626	-13.325470
2029.492594	-13.314228
2030.867422	-13.303223
2032.244114	-13.292054
2033.622673	-13.281031
2035.003104	-13.270982
2036.385411	-13.262379
2037.769597	-13.254893
2039.155665	-13.247877
2040.543621	-13.241033
2041.933467	-13.234654
2043.325208	-13.228897
2044.718847	-13.223625
2046.114389	-13.218752
2047.511837	-13.214466
2048.911195	-13.211156
2050.312467	-13.208882
2051.715657	-13.207232
2053.120769	-13.205766
2054.527807	-13.204498
2055.936775	-13.203775
2057.347677	-13.203931
2058.760516	-13.204975
2060.175297	-13.206519
2061.592025	-13.208084
2063.010701	-13.209416
2064.431332	-13.210207
2065.853921	-13.210028
2067.278472	-13.208590
2068.704988	-13.205924
2070.133475	-13.202245
2071.563936	-13.197954
2072.996375	-13.193723
2074.430796	-13.190441
2075.867204	-13.188447
2077.305603	-13.187330
2078.745996	-13.186605
2080.188389	-13.186352
2081.632784	-13.187059
2083.079187	-13.189013
2084.527601	-13.191937
2085.978030	-13.194979
2087.430480	-13.196815
2088.884954	-13.196407
2090.341455	-13.193309
2091.799990	-13.186971
2093.260561	-13.176285
2094.723173	-13.160203
2096.187831	-13.139087
2097.654538	-13.115243
2099.123300	-13.091521
2100.594119	-13.069960
2102.067001	-13.052136
2103.541950	-13.040022
2105.018971	-13.035828
2106.498067	-13.040671
2107.979243	-13.054227
2109.462503	-13.075689
2110.947853	-13.104428
2112.435295	-13.139426
2113.924836	-13.178616
2115.416478	-13.219724
2116.910227	-13.261453
2118.406087	-13.303264
2119.904063	-13.344021
2121.404158	-13.381555
2122.906378	-13.414465
2124.410727	-13.443747
2125.917210	-13.470967
2127.425831	-13.495576
2128.936594	-13.515539
2130.449505	-13.530190
2131.964567	-13.540828
2133.481786	-13.548873
2135.001166	-13.554162
2136.522711	-13.555222
2138.046427	-13.551924
2139.572317	-13.546023
2141.100388	-13.538526
2142.630642	-13.528928
2144.163085	-13.517261
2145.697722	-13.505432
2147.234558	-13.495546
2148.773596	-13.488269
2150.314842	-13.484056
2151.858301	-13.484765
2153.403977	-13.492489
2154.951875	-13.507076
2156.502000	-13.526629
2158.054357	-13.551032
2159.608950	-13.582186
2161.165785	-13.620375
2162.724866	-13.662450
2164.286198	-13.704784
2165.849786	-13.746663
2167.415635	-13.788501
2168.983749	-13.828568
2170.554134	-13.863760
2172.126795	-13.892127
2173.701737	-13.914542
2175.278964	-13.933420
2176.858481	-13.949477
2178.440294	-13.962170
2180.024408	-13.972821
2181.610827	-13.984781
2183.199557	-14.000045
2184.790602	-14.018450
2186.383968	-14.040979
2187.979660	-14.069114
2189.577683	-14.101270
2191.178041	-14.134569
2192.780741	-14.168827
2194.385787	-14.204862
2195.993185	-14.240257
2197.602939	-14.271634
2199.215054	-14.299513
2200.829537	-14.327302
2202.446392	-14.356339
2204.065624	-14.385134
2205.687239	-14.413431
2207.311242	-14.444000
2208.937638	-14.478716
2210.566433	-14.516112
2212.197631	-14.554277
2213.831239	-14.593103
2215.467261	-14.632881
2217.105703	-14.673267
2218.746570	-14.714179
2220.389867	-14.756021
2222.035601	-14.799190
2223.683776	-14.843885
2225.334398	-14.889968
2226.987472	-14.936501
2228.643004	-14.982872
2230.300999	-15.029666
2231.961463	-15.076896
2233.624402	-15.124212
2235.289820	-15.172301
2236.957723	-15.220748
2238.628118	-15.268129
2240.301009	-15.315412
2241.976402	-15.364088
2243.654303	-15.412789
2245.334717	-15.460045
2247.017650	-15.506656
2248.703108	-15.553276
2250.391096	-15.599543
2252.081620	-15.645387
2253.774686	-15.691130
2255.470300	-15.737813
2257.168467	-15.784731
2258.869193	-15.829962
2260.572484	-15.875570
2262.278345	-15.924554
2263.986783	-15.975438
2265.697804	-16.026798
2267.411412	-16.081435
2269.127615	-16.140052
2270.846417	-16.200202
2272.567826	-16.262154
2274.291846	-16.327936
2276.018484	-16.396637
2277.747745	-16.466429
2279.479637	-16.537896
2281.214164	-16.611663
2282.951333	-16.686943
2284.691149	-16.762409
2286.433619	-16.837610
2288.178750	-16.912734
2289.926546	-16.986808
2291.677014	-17.060376
2293.430161	-17.135365
2295.185992	-17.210007
2296.944513	-17.282206
2298.705732	-17.354029
2300.469653	-17.426874
2302.236283	-17.498492
2304.005629	-17.567646
2305.777696	-17.636303
2307.552492	-17.705531
2309.330022	-17.774383
2311.110292	-17.842602
2312.893310	-17.910856
2314.679080	-17.978837
2316.467611	-18.046404
2318.258907	-18.114802
2320.052976	-18.185273
2321.849824	-18.256969
2323.649457	-18.331454
2325.451883	-18.409882
2327.257106	-18.487787
2329.065135	-18.567149
2330.875975	-18.654860
2332.689633	-18.747840
2334.506116	-18.842044
2336.325430	-18.939204
2338.147581	-19.039297
2339.972578	-19.140292
2341.800425	-19.242634
2343.631130	-19.347826
2345.464700	-19.452362
2347.301141	-19.555792
2349.140461	-19.662309
2350.982665	-19.767329
2352.827760	-19.867132
2354.675754	-19.970731
2356.526653	-20.078597
2358.380464	-20.180738
2360.237195	-20.280248
2362.096851	-20.383351
2363.959440	-20.484747
2365.824968	-20.580515
2367.693444	-20.677763
2369.564873	-20.775874
2371.439263	-20.868346
2373.316620	-20.960841
2375.196953	-21.055645
2377.080267	-21.145672
2378.966570	-21.236631
2380.855869	-21.331511
2382.748171	-21.422279
2384.643484	-21.514275
2386.541815	-21.616511
2388.443170	-21.718887
2390.347557	-21.816390
2392.254984	-21.926290
2394.165457	-22.047149
2396.078984	-22.163669
2397.995572	-22.286519
2399.915229	-22.422132
2401.837961	-22.555472
2403.763777	-22.690009
2405.692684	-22.829920
2407.624689	-22.968723
2409.559800	-23.110218
2411.498023	-23.249572
2413.439368	-23.383112
2415.383840	-23.519461
2417.331449	-23.657053
2419.282201	-23.791541
2421.236104	-23.925368
2423.193165	-24.063183
2425.153393	-24.194353
2427.116795	-24.315998
2429.083378	-24.446571
2431.053151	-24.573857
2433.026121	-24.688474
2435.002297	-24.808463
2436.981685	-24.927222
2438.964293	-25.035323
2440.950131	-25.142387
2442.939204	-25.252130
2444.931522	-25.357844
2446.927092	-25.459096
2448.925923	-25.566326
2450.928022	-25.679444
2452.933397	-25.797662
2454.942056	-25.920317
2456.954008	-26.049579
2458.969260	-26.191200
2460.987821	-26.337933
2463.009699	-26.498679
2465.034902	-26.669750
2467.063437	-26.841345
2469.095315	-27.018952
2471.130542	-27.198354
2473.169127	-27.374489
2475.211078	-27.551201
2477.256404	-27.730113
2479.305112	-27.903178
2481.357212	-28.073026
2483.412713	-28.248087
2485.471621	-28.417802
2487.533946	-28.580988
2489.599696	-28.748448
2491.668880	-28.906944
2493.741507	-29.059160
2495.817585	-29.213094
2497.897122	-29.354888
2499.980127	-29.487917
2502.066609	-29.615108
2504.156578	-29.732747
2506.250040	-29.847267
2508.347006	-29.962231
2510.447483	-30.065735
2512.551482	-30.164609
2514.659010	-30.265969
2516.770076	-30.368228
2518.884690	-30.479627
2521.002861	-30.601684
2523.124597	-30.739044
2525.249907	-30.890458
2527.378801	-31.054039
2529.511287	-31.240789
2531.647375	-31.449523
2533.787074	-31.661585
2535.930393	-31.885760
2538.077340	-32.111313
2540.227927	-32.338376
2542.382160	-32.573252
2544.540051	-32.795472
2546.701608	-33.024447
2548.866840	-33.241878
2551.035757	-33.440366
2553.208369	-33.678900
2555.384684	-33.901971
2557.564713	-34.102692
2559.748465	-34.317072
2561.935948	-34.509209
2564.127174	-34.703927
2566.322152	-34.883399
2568.520890	-35.012392
2570.723399	-35.147697
2572.929689	-35.272352
2575.139769	-35.380298
2577.353649	-35.464560
2579.571340	-35.499275
2581.792849	-35.559124
2584.018189	-35.633431
2586.247368	-35.693482
2588.480396	-35.744553
2590.717284	-35.802100
2592.958041	-35.942803
2595.202678	-36.093990
2597.451204	-36.246193
2599.703630	-36.447536
2601.959966	-36.668503
2604.220222	-36.936250
2606.484408	-37.195735
2608.752535	-37.426444
2611.024612	-37.710294
2613.300651	-38.022700
2615.580661	-38.317783
2617.864653	-38.561389
2620.152638	-38.863965
2622.444625	-39.213078
2624.740626	-39.532699
2627.040651	-39.882621
2629.344710	-40.232627
2631.652814	-40.593751
2633.964974	-40.909599
2636.281200	-41.182442
2638.601504	-41.465243
2640.925896	-41.657558
2643.254386	-41.870118
2645.586987	-41.946468
2647.923707	-41.970357
2650.264559	-42.063291
2652.609554	-41.949677
2654.958702	-41.893776
2657.312015	-41.877925
2659.669503	-41.732920
2662.031178	-41.650456
2664.397051	-41.714388
2666.767132	-41.693911
2669.141434	-41.754296
2671.519968	-41.902543
2673.902745	-41.979749
2676.289776	-42.243599
2678.681072	-42.453984
2681.076646	-42.538709
2683.476508	-42.915896
2685.880671	-43.115813
2688.289145	-43.316640
2690.701942	-43.620424
2693.119075	-43.925337
2695.540554	-44.359202
2697.966391	-44.762665
2700.396599	-45.186379
2702.831189	-45.804064
2705.270172	-46.428018
2707.713561	-46.899330
2710.161368	-47.692948
2712.613605	-48.218051
2715.070283	-48.896127
2717.531416	-49.613700
2719.997014	-50.042900
2722.467090	-50.536315
2724.941657	-50.649041
2727.420726	-50.696740
2729.904310	-50.264632
2732.392421	-50.010779
2734.885072	-49.754193
2737.382275	-49.421372
2739.884042	-48.963047
2742.390387	-48.959755
2744.901321	-48.818052
2747.416857	-48.675930
2749.937008	-48.715481
2752.461787	-48.765869
2754.991206	-48.641876
2757.525279	-48.673152
2760.064017	-48.754815
2762.607434	-48.589387
2765.155544	-48.688111
2767.708358	-48.663210
2770.265890	-48.709159
2772.828153	-48.979664
2775.395160	-49.345902
2777.966924	-49.576745
2780.543459	-49.919580
2783.124778	-50.569362
2785.710894	-51.114733
2788.301821	-51.647160
2790.897572	-52.444819
2793.498160	-53.500136
2796.103599	-54.288597
2798.713903	-55.987582
2801.329085	-57.265334
2803.949159	-58.580946
2806.574139	-59.761427
2809.204038	-60.230382
2811.838871	-60.765032
2814.478650	-60.520885
2817.123391	-59.852464
2819.773107	-59.908319
2822.427812	-59.693169
2825.087521	-59.731506
2827.752247	-59.452715
2830.422005	-59.455885
2833.096808	-59.134897
2835.776672	-58.379726
2838.461611	-58.043358
2841.151638	-57.117781
2843.846769	-56.339229
2846.547019	-56.016442
2849.252401	-55.476709
2851.962930	-55.323337
2854.678621	-55.133739
2857.399489	-54.817106
2860.125549	-55.191906
2862.856815	-54.896738
2865.593302	-54.996858
2868.335026	-55.423594
2871.082002	-55.431003
2873.834244	-56.408787
2876.591767	-57.149724
2879.354588	-57.792653
2882.122721	-59.443013
2884.896181	-60.034094
2887.674984	-61.450234
2890.459146	-62.829445
2893.248681	-62.643804
2896.043606	-63.971457
2898.843937	-64.101713
2901.649687	-64.277276
2904.460875	-65.401876
2907.277515	-64.781033
2910.099623	-67.227830
2912.927215	-68.312612
2915.760308	-70.518051
2918.598916	-75.997854
2921.443057	-81.018985
2924.292747	-82.864213
2927.148002	-74.910583
2930.008837	-71.327317
2932.875270	-68.830430
2935.747318	-67.718871
2938.624995	-65.712370
2941.508320	-64.095555
2944.397308	-63.183045
2947.291977	-62.375287
2950.192343	-61.871383
2953.098423	-61.694463
2956.010234	-61.633201
2958.927792	-62.319225
2961.851116	-62.605640
2964.780221	-63.651878
2967.715126	-64.455178
2970.655847	-65.634302
2973.602402	-66.943808
2976.554808	-67.807852
2979.513083	-68.937396
2982.477243	-68.163322
2985.447308	-68.465753
2988.423293	-67.593560
2991.405218	-67.057319
2994.393099	-66.816153
2997.386955	-66.761727
