# 2022-03-21_14.48.35
# shape = sech2
# FWHM_ps = 0.1
# carrier_nm = 1542
# frep_MHz = 12126
# pow_mW = 8000
# GDD = 0.0
# propa_len = 0.15222222222222223
# untap_len = 0.01
# taper_len = 0.09222222222222223
# waist_len = 0.02
# uptap_len = 0.02
# untap_scale = 1.0
# waist_scale = 0.23333333333333336
# workingDir = NL_20110305_12 (Spirou)
# axis = slow
# window_ps = 10.0
# steps = 200
# points = 13000
# 
# wavelength [nm]	 power spectral density [dB]
1000.248639	-26.617499
1000.582480	-26.696995
1000.916545	-26.706219
1001.250832	-26.584739
1001.585343	-26.469516
1001.920077	-26.483875
1002.255035	-26.569042
1002.590218	-26.580578
1002.925624	-26.473333
1003.261255	-26.352820
1003.597111	-26.338614
1003.933192	-26.416237
1004.269497	-26.438090
1004.606029	-26.343628
1004.942785	-26.244669
1005.279768	-26.245194
1005.616977	-26.306714
1005.954412	-26.300161
1006.292074	-26.176868
1006.629962	-26.051240
1006.968077	-26.050294
1007.306420	-26.134009
1007.644990	-26.153394
1007.983787	-26.046183
1008.322813	-25.917715
1008.662067	-25.891401
1009.001549	-25.951902
1009.341259	-25.963402
1009.681199	-25.874620
1010.021367	-25.788274
1010.361765	-25.795004
1010.702392	-25.856598
1011.043250	-25.853319
1011.384337	-25.744467
1011.725654	-25.647550
1012.067202	-25.669218
1012.408980	-25.748399
1012.750989	-25.753022
1013.093230	-25.666752
1013.435702	-25.594253
1013.778405	-25.613806
1014.121341	-25.673795
1014.464508	-25.654075
1014.807908	-25.561929
1015.151540	-25.529783
1015.495405	-25.604884
1015.839503	-25.679530
1016.183835	-25.639083
1016.528400	-25.519196
1016.873198	-25.464612
1017.218231	-25.531414
1017.563498	-25.605847
1017.908999	-25.564350
1018.254735	-25.459129
1018.600707	-25.420471
1018.946913	-25.469436
1019.293354	-25.496592
1019.640032	-25.425908
1019.986945	-25.338355
1020.334094	-25.345479
1020.681480	-25.419644
1021.029102	-25.433628
1021.376961	-25.347263
1021.725058	-25.270491
1022.073391	-25.301411
1022.421962	-25.376036
1022.770772	-25.366382
1023.119819	-25.280866
1023.469104	-25.240349
1023.818628	-25.290558
1024.168391	-25.337062
1024.518393	-25.273861
1024.868634	-25.164987
1025.219115	-25.151287
1025.569836	-25.223193
1025.920796	-25.237835
1026.271997	-25.138018
1026.623438	-25.034743
1026.975121	-25.047952
1027.327044	-25.129779
1027.679208	-25.119225
1028.031614	-24.999369
1028.384262	-24.923226
1028.737152	-24.964727
1029.090284	-25.023243
1029.443659	-24.972699
1029.797276	-24.857290
1030.151137	-24.829108
1030.505240	-24.904526
1030.859587	-24.934729
1031.214178	-24.840283
1031.569013	-24.740202
1031.924093	-24.763113
1032.279417	-24.860139
1032.634985	-24.870214
1032.990799	-24.772668
1033.346858	-24.716886
1033.703162	-24.776270
1034.059712	-24.845812
1034.416509	-24.804429
1034.773551	-24.715594
1035.130841	-24.720251
1035.488377	-24.801651
1035.846160	-24.812033
1036.204190	-24.714771
1036.562468	-24.646550
1036.920994	-24.700062
1037.279768	-24.779897
1037.638790	-24.742881
1037.998061	-24.644308
1038.357581	-24.638904
1038.717350	-24.725050
1039.077368	-24.759752
1039.437636	-24.678784
1039.798154	-24.615302
1040.158922	-24.680134
1040.519940	-24.767840
1040.881209	-24.730963
1041.242729	-24.621143
1041.604501	-24.601029
1041.966524	-24.687662
1042.328798	-24.722873
1042.691325	-24.633261
1043.054103	-24.555942
1043.417135	-24.595435
1043.780419	-24.659178
1044.143956	-24.614057
1044.507746	-24.510647
1044.871791	-24.500084
1045.236088	-24.568873
1045.600641	-24.563826
1045.965447	-24.454805
1046.330508	-24.380208
1046.695824	-24.417697
1047.061395	-24.446059
1047.427222	-24.360347
1047.793304	-24.256678
1048.159642	-24.259269
1048.526237	-24.315572
1048.893088	-24.277079
1049.260196	-24.164462
1049.627561	-24.128997
1049.995183	-24.193724
1050.363063	-24.206965
1050.731201	-24.107620
1051.099597	-24.026595
1051.468251	-24.056575
1051.837164	-24.101111
1052.206336	-24.026017
1052.575767	-23.922842
1052.945458	-23.919355
1053.315409	-23.976476
1053.685619	-23.949778
1054.056090	-23.838509
1054.426821	-23.810416
1054.797814	-23.871362
1055.169067	-23.885930
1055.540582	-23.793123
1055.912359	-23.727350
1056.284398	-23.780896
1056.656698	-23.819822
1057.029262	-23.744880
1057.402088	-23.648587
1057.775177	-23.671525
1058.148530	-23.739518
1058.522146	-23.701148
1058.896027	-23.603612
1059.270171	-23.597674
1059.644580	-23.681341
1060.019254	-23.677007
1060.394193	-23.581185
1060.769397	-23.540961
1061.144867	-23.602377
1061.520602	-23.619427
1061.896604	-23.510194
1062.272872	-23.441442
1062.649407	-23.482172
1063.026210	-23.517385
1063.403279	-23.430121
1063.780616	-23.329714
1064.158221	-23.357480
1064.536094	-23.401866
1064.914235	-23.334122
1065.292645	-23.220373
1065.671325	-23.215542
1066.050273	-23.269235
1066.429491	-23.212248
1066.808979	-23.087813
1067.188738	-23.049804
1067.568766	-23.096408
1067.949066	-23.060432
1068.329636	-22.937696
1068.710478	-22.884600
1069.091592	-22.921637
1069.472977	-22.907422
1069.854635	-22.795517
1070.236565	-22.738801
1070.618768	-22.771666
1071.001243	-22.756774
1071.383993	-22.641624
1071.767016	-22.562195
1072.150313	-22.594284
1072.533884	-22.596365
1072.917730	-22.496040
1073.301850	-22.418682
1073.686246	-22.447629
1074.070917	-22.470931
1074.455864	-22.384565
1074.841087	-22.308587
1075.226586	-22.335890
1075.612362	-22.362596
1075.998415	-22.287705
1076.384745	-22.208738
1076.771353	-22.236768
1077.158238	-22.270212
1077.545401	-22.202391
1077.932843	-22.128458
1078.320564	-22.157411
1078.708564	-22.202338
1079.096842	-22.141249
1079.485401	-22.066443
1079.874240	-22.088291
1080.263358	-22.123523
1080.652757	-22.055832
1081.042438	-21.970730
1081.432399	-21.985149
1081.822641	-22.014996
1082.213166	-21.951065
1082.603972	-21.876375
1082.995061	-21.898713
1083.386433	-21.929983
1083.778087	-21.859826
1084.170025	-21.778960
1084.562246	-21.789242
1084.954751	-21.801459
1085.347541	-21.715028
1085.740615	-21.624330
1086.133973	-21.620457
1086.527617	-21.609454
1086.921546	-21.512365
1087.315761	-21.434335
1087.710262	-21.448263
1088.105050	-21.442467
1088.500124	-21.344267
1088.895485	-21.272788
1089.291134	-21.294350
1089.687070	-21.291371
1090.083294	-21.200497
1090.479806	-21.140290
1090.876607	-21.162170
1091.273696	-21.148178
1091.671075	-21.059573
1092.068744	-21.015574
1092.466702	-21.039543
1092.864950	-21.006730
1093.263489	-20.904118
1093.662319	-20.857402
1094.061440	-20.870461
1094.460852	-20.824664
1094.860555	-20.731975
1095.260551	-20.709353
1095.660840	-20.733779
1096.061421	-20.698322
1096.462295	-20.643696
1096.863462	-20.669914
1097.264923	-20.717729
1097.666678	-20.684704
1098.068727	-20.643053
1098.471071	-20.684190
1098.873710	-20.726867
1099.276644	-20.683374
1099.679874	-20.639719
1100.083400	-20.663810
1100.487222	-20.666624
1100.891340	-20.604777
1101.295756	-20.568986
1101.700468	-20.574181
1102.105478	-20.521326
1102.510787	-20.425956
1102.916393	-20.398625
1103.322298	-20.411858
1103.728502	-20.358098
1104.135005	-20.277932
1104.541807	-20.274233
1104.948909	-20.300191
1105.356312	-20.271017
1105.764015	-20.238128
1106.172019	-20.253815
1106.580324	-20.249432
1106.988931	-20.197394
1107.397840	-20.180208
1107.807051	-20.193560
1108.216564	-20.141231
1108.626380	-20.047751
1109.036500	-20.015240
1109.446923	-20.002970
1109.857649	-19.914574
1110.268680	-19.802881
1110.680016	-19.748934
1111.091657	-19.697661
1111.503602	-19.600999
1111.915854	-19.528287
1112.328411	-19.502673
1112.741275	-19.451998
1113.154445	-19.386098
1113.567922	-19.384424
1113.981706	-19.411554
1114.395798	-19.382133
1114.810198	-19.347942
1115.224906	-19.384052
1115.639923	-19.424492
1116.055249	-19.406062
1116.470884	-19.400974
1116.886829	-19.441824
1117.303084	-19.449805
1117.719650	-19.415183
1118.136526	-19.410431
1118.553713	-19.409265
1118.971212	-19.349516
1119.389022	-19.285522
1119.807145	-19.264265
1120.225580	-19.217109
1120.644328	-19.125900
1121.063389	-19.075055
1121.482763	-19.058334
1121.902452	-18.996004
1122.322454	-18.920085
1122.742771	-18.903203
1123.163404	-18.890592
1123.584351	-18.833442
1124.005614	-18.801752
1124.427193	-18.822026
1124.849089	-18.813609
1125.271301	-18.779448
1125.693830	-18.789172
1126.116677	-18.807677
1126.539842	-18.772116
1126.963324	-18.741775
1127.387126	-18.749011
1127.811246	-18.719229
1128.235685	-18.647927
1128.660444	-18.614929
1129.085522	-18.593149
1129.510922	-18.515738
1129.936641	-18.433769
1130.362682	-18.390977
1130.789044	-18.323684
1131.215728	-18.224507
1131.642734	-18.164720
1132.070063	-18.124984
1132.497714	-18.048757
1132.925689	-17.985509
1133.353987	-17.971768
1133.782610	-17.941247
1134.211556	-17.887278
1134.640827	-17.878012
1135.070424	-17.890588
1135.500345	-17.867835
1135.930593	-17.859870
1136.361166	-17.897323
1136.792067	-17.915029
1137.223294	-17.908713
1137.654848	-17.939816
1138.086730	-17.974458
1138.518940	-17.964713
1138.951479	-17.965503
1139.384346	-17.994671
1139.817543	-17.985353
1140.251069	-17.956664
1140.684925	-17.962650
1141.119111	-17.951268
1141.553628	-17.893515
1141.988475	-17.858465
1142.423655	-17.837478
1142.859166	-17.771475
1143.295009	-17.705259
1143.731185	-17.675341
1144.167694	-17.619363
1144.604536	-17.540942
1145.041711	-17.503121
1145.479221	-17.465570
1145.917065	-17.384471
1146.355245	-17.328952
1146.793759	-17.309556
1147.232609	-17.255386
1147.671795	-17.197626
1148.111317	-17.188763
1148.551177	-17.163749
1148.991373	-17.107661
1149.431907	-17.095148
1149.872779	-17.096390
1150.313989	-17.053093
1150.755538	-17.030549
1151.197426	-17.048997
1151.639653	-17.033105
1152.082220	-17.006008
1152.525128	-17.023194
1152.968376	-17.023942
1153.411966	-16.990464
1153.855897	-16.993789
1154.300169	-17.006933
1154.744784	-16.976892
1155.189742	-16.965375
1155.635042	-16.983521
1156.080687	-16.959365
1156.526674	-16.925880
1156.973007	-16.929767
1157.419683	-16.909084
1157.866705	-16.864723
1158.314072	-16.857630
1158.761786	-16.843277
1159.209845	-16.793604
1159.658251	-16.769443
1160.107004	-16.755425
1160.556104	-16.702846
1161.005553	-16.659254
1161.455349	-16.643439
1161.905494	-16.601283
1162.355989	-16.548884
1162.806832	-16.529120
1163.258026	-16.495736
1163.709570	-16.435975
1164.161464	-16.408146
1164.613710	-16.384699
1165.066307	-16.326655
1165.519256	-16.295417
1165.972558	-16.287016
1166.426212	-16.240648
1166.880219	-16.203036
1167.334580	-16.198464
1167.789295	-16.162552
1168.244364	-16.121061
1168.699788	-16.122608
1169.155567	-16.104788
1169.611702	-16.062776
1170.068193	-16.064307
1170.525041	-16.057828
1170.982245	-16.011124
1171.439807	-16.008626
1171.897726	-16.013574
1172.356004	-15.969939
1172.814640	-15.967130
1173.273635	-15.979734
1173.732989	-15.938074
1174.192703	-15.928804
1174.652778	-15.938100
1175.113213	-15.900640
1175.574009	-15.888987
1176.035167	-15.894582
1176.496687	-15.865238
1176.958569	-15.845384
1177.420814	-15.835709
1177.883422	-15.809785
1178.346394	-15.779046
1178.809730	-15.757399
1179.273430	-15.739381
1179.737496	-15.697738
1180.201927	-15.667539
1180.666723	-15.652343
1181.131886	-15.595242
1181.597416	-15.561962
1182.063312	-15.547877
1182.529576	-15.482175
1182.996209	-15.458130
1183.463209	-15.440320
1183.930579	-15.365627
1184.398317	-15.351663
1184.866426	-15.323290
1185.334904	-15.251198
1185.803754	-15.255783
1186.272974	-15.215608
1186.742566	-15.155983
1187.212529	-15.173520
1187.682865	-15.116642
1188.153574	-15.080746
1188.624656	-15.106053
1189.096112	-15.038482
1189.567942	-15.039422
1190.040147	-15.056903
1190.512726	-14.979719
1190.985681	-15.016884
1191.459012	-15.007276
1191.932720	-14.938761
1192.406804	-15.011334
1192.881265	-14.959581
1193.356104	-14.917692
1193.831322	-15.004467
1194.306918	-14.902944
1194.782893	-14.907479
1195.259248	-14.980466
1195.735982	-14.842997
1196.213097	-14.905699
1196.690593	-14.929014
1197.168471	-14.779517
1197.646730	-14.890176
1198.125371	-14.839191
1198.604395	-14.717213
1199.083803	-14.851469
1199.563594	-14.723787
1200.043769	-14.659849
1200.524329	-14.777638
1201.005273	-14.595253
1201.486604	-14.605586
1201.968320	-14.676562
1202.450422	-14.482033
1202.932912	-14.557769
1203.415789	-14.559469
1203.899054	-14.388497
1204.382707	-14.502846
1204.866748	-14.439820
1205.351179	-14.320964
1205.836000	-14.441796
1206.321211	-14.330008
1206.806812	-14.269219
1207.292805	-14.369817
1207.779189	-14.235236
1208.265965	-14.230026
1208.753134	-14.299407
1209.240696	-14.162598
1209.728651	-14.197306
1210.217000	-14.227544
1210.705744	-14.101792
1211.194883	-14.166135
1211.684417	-14.159275
1212.174347	-14.054232
1212.664673	-14.134686
1213.155396	-14.089986
1213.646516	-14.015908
1214.138034	-14.102008
1214.629951	-14.027493
1215.122266	-13.995342
1215.614980	-14.069198
1216.108095	-13.973621
1216.601609	-13.984099
1217.095524	-14.028404
1217.589841	-13.933342
1218.084559	-13.979178
1218.579679	-13.982043
1219.075202	-13.906433
1219.571128	-13.966826
1220.067458	-13.932616
1220.564191	-13.892744
1221.061330	-13.945657
1221.558874	-13.891040
1222.056823	-13.884187
1222.555178	-13.908964
1223.053940	-13.853921
1223.553109	-13.866049
1224.052686	-13.861600
1224.552671	-13.822506
1225.053065	-13.832094
1225.553867	-13.808276
1226.055079	-13.788579
1226.556702	-13.785065
1227.058735	-13.763218
1227.561179	-13.754258
1228.064035	-13.733959
1228.567303	-13.723297
1229.070983	-13.710057
1229.575077	-13.685031
1230.079585	-13.687571
1230.584506	-13.659061
1231.089842	-13.640594
1231.595594	-13.646004
1232.101761	-13.605470
1232.608345	-13.605740
1233.115345	-13.602917
1233.622762	-13.560187
1234.130597	-13.575780
1234.638851	-13.553946
1235.147523	-13.521977
1235.656615	-13.544463
1236.166126	-13.505677
1236.676058	-13.491954
1237.186411	-13.505409
1237.697185	-13.458721
1238.208381	-13.467108
1238.719999	-13.466224
1239.232040	-13.425023
1239.744505	-13.443762
1240.257394	-13.422665
1240.770708	-13.395712
1241.284446	-13.413709
1241.798610	-13.378544
1242.313201	-13.365942
1242.828218	-13.369551
1243.343662	-13.329479
1243.859534	-13.329082
1244.375834	-13.318439
1244.892563	-13.283731
1245.409721	-13.284260
1245.927309	-13.258787
1246.445327	-13.233006
1246.963777	-13.229265
1247.482657	-13.196814
1248.001970	-13.177630
1248.521716	-13.164282
1249.041894	-13.131388
1249.562506	-13.119094
1250.083553	-13.101246
1250.605034	-13.072957
1251.126950	-13.061898
1251.649302	-13.037847
1252.172091	-13.014910
1252.695316	-13.004105
1253.218979	-12.975532
1253.743079	-12.956408
1254.267619	-12.940697
1254.792597	-12.910290
1255.318015	-12.898462
1255.843874	-12.877918
1256.370173	-12.849718
1256.896913	-12.838869
1257.424095	-12.808722
1257.951720	-12.788298
1258.479787	-12.774547
1259.008298	-12.737954
1259.537254	-12.723997
1260.066654	-12.700297
1260.596499	-12.669784
1261.126790	-12.662854
1261.657527	-12.629773
1262.188711	-12.610407
1262.720342	-12.597587
1263.252422	-12.562205
1263.784950	-12.555596
1264.317928	-12.529766
1264.851355	-12.501113
1265.385232	-12.495964
1265.919560	-12.461869
1266.454340	-12.451026
1266.989572	-12.437041
1267.525256	-12.404199
1268.061394	-12.402144
1268.597985	-12.373705
1269.135031	-12.355195
1269.672531	-12.348783
1270.210487	-12.313359
1270.748899	-12.309288
1271.287768	-12.290772
1271.827094	-12.268267
1272.366877	-12.269963
1272.907119	-12.241126
1273.447820	-12.235686
1273.988981	-12.227532
1274.530601	-12.203629
1275.072683	-12.208209
1275.615226	-12.186004
1276.158230	-12.177981
1276.701697	-12.178673
1277.245627	-12.157613
1277.790021	-12.163680
1278.334879	-12.149178
1278.880202	-12.139536
1279.425991	-12.143077
1279.972245	-12.121602
1280.518966	-12.125010
1281.066155	-12.113975
1281.613811	-12.102070
1282.161936	-12.108321
1282.710529	-12.090468
1283.259593	-12.093739
1283.809126	-12.086265
1284.359131	-12.073881
1284.909607	-12.080618
1285.460555	-12.062574
1286.011976	-12.064026
1286.563870	-12.060235
1287.116237	-12.049056
1287.669080	-12.058377
1288.222397	-12.045113
1288.776191	-12.048415
1289.330460	-12.047398
1289.885207	-12.036942
1290.440431	-12.046754
1290.996133	-12.034969
1291.552314	-12.038338
1292.108975	-12.040508
1292.666115	-12.033080
1293.223737	-12.043469
1293.781839	-12.033481
1294.340424	-12.036054
1294.899491	-12.035019
1295.459041	-12.024971
1296.019075	-12.031620
1296.579593	-12.019503
1297.140597	-12.020321
1297.702086	-12.018205
1298.264061	-12.009053
1298.826524	-12.012626
1299.389474	-11.997962
1299.952912	-11.996547
1300.516839	-11.989483
1301.081255	-11.978147
1301.646162	-11.979017
1302.211559	-11.964478
1302.777448	-11.964364
1303.343829	-11.956408
1303.910702	-11.945978
1304.478069	-11.943797
1305.045930	-11.927745
1305.614285	-11.926556
1306.183136	-11.915450
1306.752483	-11.906532
1307.322326	-11.904612
1307.892666	-11.890517
1308.463504	-11.888915
1309.034841	-11.874564
1309.606677	-11.865328
1310.179012	-11.857872
1310.751849	-11.840920
1311.325186	-11.837556
1311.899025	-11.821986
1312.473366	-11.813988
1313.048211	-11.802770
1313.623559	-11.786214
1314.199412	-11.778990
1314.775770	-11.757493
1315.352634	-11.747573
1315.930004	-11.732931
1316.507881	-11.718053
1317.086266	-11.708564
1317.665159	-11.688777
1318.244562	-11.681392
1318.824474	-11.662306
1319.404897	-11.647995
1319.985831	-11.636120
1320.567276	-11.619324
1321.149234	-11.613528
1321.731706	-11.595566
1322.314691	-11.588694
1322.898190	-11.576304
1323.482205	-11.562521
1324.066736	-11.554609
1324.651783	-11.537551
1325.237347	-11.535310
1325.823430	-11.521373
1326.410031	-11.514349
1326.997151	-11.507004
1327.584791	-11.494228
1328.172952	-11.490093
1328.761634	-11.472539
1329.350839	-11.470357
1329.940566	-11.459288
1330.530817	-11.451933
1331.121592	-11.447592
1331.712891	-11.434821
1332.304716	-11.434358
1332.897068	-11.418329
1333.489946	-11.416152
1334.083352	-11.407275
1334.677287	-11.401980
1335.271750	-11.401568
1335.866744	-11.390701
1336.462268	-11.394710
1337.058323	-11.382864
1337.654910	-11.384597
1338.252029	-11.378559
1338.849682	-11.377439
1339.447869	-11.381236
1340.046591	-11.374687
1340.645848	-11.383023
1341.245641	-11.374005
1341.845972	-11.380987
1342.446840	-11.376196
1343.048246	-11.379014
1343.650191	-11.383985
1344.252677	-11.381871
1344.855702	-11.393033
1345.459269	-11.385430
1346.063379	-11.397307
1346.668030	-11.392341
1347.273226	-11.400945
1347.878965	-11.404838
1348.485250	-11.408337
1349.092080	-11.420899
1349.699456	-11.416622
1350.307380	-11.432145
1350.915851	-11.426589
1351.524871	-11.442175
1352.134441	-11.443035
1352.744560	-11.453777
1353.355231	-11.463346
1353.966453	-11.464971
1354.578227	-11.479814
1355.190555	-11.474881
1355.803436	-11.494255
1356.416872	-11.491208
1357.030863	-11.509539
1357.645411	-11.511668
1358.260515	-11.522228
1358.876177	-11.530454
1359.492397	-11.531934
1360.109176	-11.548521
1360.726516	-11.546274
1361.344416	-11.568535
1361.962877	-11.564639
1362.581901	-11.584138
1363.201487	-11.581999
1363.821637	-11.595246
1364.442352	-11.600943
1365.063632	-11.608219
1365.685478	-11.623573
1366.307891	-11.622706
1366.930871	-11.642133
1367.554420	-11.635210
1368.178538	-11.656583
1368.803226	-11.650822
1369.428485	-11.671633
1370.054315	-11.671698
1370.680717	-11.684752
1371.307693	-11.690072
1371.935242	-11.693713
1372.563366	-11.707688
1373.192065	-11.705256
1373.821341	-11.727146
1374.451193	-11.720622
1375.081623	-11.743337
1375.712632	-11.733953
1376.344221	-11.754147
1376.976389	-11.749931
1377.609139	-11.766680
1378.242470	-11.769870
1378.876384	-11.778300
1379.510881	-11.787215
1380.145963	-11.785823
1380.781629	-11.801656
1381.417881	-11.796087
1382.054720	-11.818130
1382.692147	-11.808319
1383.330161	-11.829984
1383.968765	-11.817590
1384.607959	-11.835948
1385.247743	-11.827396
1385.888119	-11.843536
1386.529087	-11.840473
1387.170648	-11.848246
1387.812804	-11.849671
1388.455554	-11.848930
1389.098899	-11.857264
1389.742842	-11.851977
1390.387381	-11.867967
1391.032519	-11.856567
1391.678256	-11.874150
1392.324592	-11.858362
1392.971529	-11.878143
1393.619068	-11.863540
1394.267208	-11.884963
1394.915952	-11.872930
1395.565300	-11.890036
1396.215253	-11.881153
1396.865812	-11.895278
1397.516977	-11.894288
1398.168749	-11.905066
1398.821130	-11.910632
1399.474120	-11.913974
1400.127719	-11.923741
1400.781930	-11.922390
1401.436752	-11.940096
1402.092186	-11.936349
1402.748234	-11.958583
1403.404897	-11.950019
1404.062174	-11.973417
1404.720067	-11.963378
1405.378577	-11.991116
1406.037705	-11.982897
1406.697451	-12.010957
1407.357817	-12.001614
1408.018803	-12.026914
1408.680410	-12.018906
1409.342639	-12.043537
1410.005492	-12.038351
1410.668968	-12.058570
1411.333068	-12.053196
1411.997795	-12.068537
1412.663147	-12.067175
1413.329127	-12.081497
1413.995736	-12.084375
1414.662973	-12.093642
1415.330840	-12.096774
1415.999339	-12.101272
1416.668469	-12.108837
1417.338232	-12.112747
1418.008628	-12.124196
1418.679659	-12.124309
1419.351325	-12.136743
1420.023628	-12.134525
1420.696568	-12.150877
1421.370145	-12.147595
1422.044362	-12.164199
1422.719219	-12.156447
1423.394717	-12.173271
1424.070856	-12.166420
1424.747638	-12.188777
1425.425064	-12.184294
1426.103134	-12.207810
1426.781850	-12.201464
1427.461212	-12.225479
1428.141221	-12.220477
1428.821878	-12.246401
1429.503185	-12.241012
1430.185141	-12.266135
1430.867749	-12.261732
1431.551008	-12.291590
1432.234920	-12.293253
1432.919486	-12.326253
1433.604707	-12.327093
1434.290583	-12.356925
1434.977116	-12.355575
1435.664307	-12.384637
1436.352156	-12.382774
1437.040664	-12.409364
1437.729833	-12.406595
1438.419663	-12.435547
1439.110156	-12.438990
1439.801312	-12.473660
1440.493132	-12.479157
1441.185617	-12.509970
1441.878768	-12.510564
1442.572586	-12.536590
1443.267072	-12.533192
1443.962228	-12.553402
1444.658053	-12.545513
1445.354549	-12.563648
1446.051717	-12.561509
1446.749558	-12.588166
1447.448073	-12.594204
1448.147263	-12.623069
1448.847128	-12.629013
1449.547671	-12.653603
1450.248891	-12.655341
1450.950789	-12.669018
1451.653368	-12.658868
1452.356627	-12.660509
1453.060568	-12.648739
1453.765192	-12.654116
1454.470500	-12.654155
1455.176492	-12.668649
1455.883170	-12.681113
1456.590534	-12.704383
1457.298586	-12.725315
1458.007327	-12.743638
1458.716758	-12.752616
1459.426880	-12.748190
1460.137693	-12.739295
1460.849199	-12.717915
1461.561398	-12.701509
1462.274293	-12.675545
1462.987883	-12.668753
1463.702170	-12.660570
1464.417155	-12.682109
1465.132838	-12.698344
1465.849222	-12.739338
1466.566306	-12.764302
1467.284093	-12.807303
1468.002582	-12.821205
1468.721775	-12.840766
1469.441674	-12.821498
1470.162278	-12.807347
1470.883590	-12.764492
1471.605609	-12.736255
1472.328338	-12.693586
1473.051777	-12.675947
1473.775928	-12.663207
1474.500790	-12.684230
1475.226367	-12.718549
1475.952657	-12.776369
1476.679663	-12.843303
1477.407386	-12.916235
1478.135826	-12.987012
1478.864985	-13.035028
1479.594863	-13.065134
1480.325463	-13.054840
1481.056784	-13.032901
1481.788828	-12.976202
1482.521597	-12.928474
1483.255090	-12.869656
1483.989309	-12.854374
1484.724256	-12.861075
1485.459931	-12.935284
1486.196336	-13.047799
1486.933471	-13.233314
1487.671337	-13.460150
1488.409937	-13.739044
1489.149270	-14.028168
1489.889337	-14.309368
1490.630141	-14.547461
1491.371682	-14.703888
1492.113961	-14.769261
1492.856979	-14.709967
1493.600738	-14.573876
1494.345238	-14.353466
1495.090481	-14.123151
1495.836467	-13.873529
1496.583198	-13.667664
1497.330675	-13.495078
1498.078899	-13.394952
1498.827872	-13.350992
1499.577593	-13.372471
1500.328065	-13.449128
1501.079289	-13.565498
1501.831265	-13.712296
1502.583995	-13.841313
1503.337480	-13.951776
1504.091721	-13.988267
1504.846719	-13.970716
1505.602475	-13.860244
1506.358991	-13.702761
1507.116268	-13.499727
1507.874306	-13.303611
1508.633108	-13.130873
1509.392673	-13.010465
1510.153004	-12.969681
1510.914101	-13.017006
1511.675965	-13.182644
1512.438599	-13.454469
1513.202002	-13.874788
1513.966176	-14.430976
1514.731122	-15.175913
1515.496842	-16.101312
1516.263336	-17.291366
1517.030607	-18.790587
1517.798654	-20.767522
1518.567479	-23.463761
1519.337083	-27.603086
1520.107468	-35.980572
1520.878634	-37.471876
1521.650584	-27.911528
1522.423317	-23.372463
1523.196836	-20.339580
1523.971141	-18.104555
1524.746233	-16.308212
1525.522115	-14.836562
1526.298786	-13.572010
1527.076249	-12.488531
1527.854504	-11.536452
1528.633553	-10.698472
1529.413397	-9.953163
1530.194037	-9.289361
1530.975474	-8.701513
1531.757709	-8.172650
1532.540745	-7.706914
1533.324581	-7.290906
1534.109220	-6.931306
1534.894662	-6.613786
1535.680909	-6.347612
1536.467961	-6.124581
1537.255821	-5.949635
1538.044489	-5.818112
1538.833967	-5.733940
1539.624256	-5.698877
1540.415357	-5.710015
1541.207271	-5.773836
1542.000000	-5.887153
1542.793545	-6.058959
1543.587907	-6.282349
1544.383087	-6.568436
1545.179088	-6.914605
1545.975909	-7.327764
1546.773552	-7.808309
1547.572019	-8.362115
1548.371311	-8.998400
1549.171428	-9.714778
1549.972373	-10.528373
1550.774147	-11.438914
1551.576751	-12.466642
1552.380185	-13.607121
1553.184453	-14.870244
1553.989554	-16.244458
1554.795490	-17.657616
1555.602263	-18.971873
1556.409873	-19.884007
1557.218322	-20.120060
1558.027612	-19.634778
1558.837743	-18.683769
1559.648717	-17.592114
1560.460536	-16.517999
1561.273200	-15.547759
1562.086710	-14.691499
1562.901069	-13.950154
1563.716278	-13.325973
1564.532337	-12.794470
1565.349249	-12.356975
1566.167014	-11.998965
1566.985634	-11.719598
1567.805111	-11.509354
1568.625444	-11.360131
1569.446637	-11.278021
1570.268690	-11.249231
1571.091605	-11.275848
1571.915382	-11.351623
1572.740024	-11.475712
1573.565532	-11.644842
1574.391907	-11.847114
1575.219150	-12.089165
1576.047262	-12.358049
1576.876246	-12.648189
1577.706103	-12.954400
1578.536833	-13.266911
1579.368439	-13.583555
1580.200922	-13.884699
1581.034282	-14.172124
1581.868522	-14.439776
1582.703643	-14.673521
1583.539646	-14.878260
1584.376532	-15.047187
1585.214304	-15.186027
1586.052962	-15.289159
1586.892508	-15.357005
1587.732943	-15.402888
1588.574269	-15.413707
1589.416487	-15.396341
1590.259599	-15.354678
1591.103605	-15.285863
1591.948508	-15.194093
1592.794309	-15.076629
1593.641009	-14.947293
1594.488609	-14.802679
1595.337112	-14.645076
1596.186518	-14.491747
1597.036829	-14.337739
1597.888047	-14.191127
1598.740172	-14.057934
1599.593207	-13.941019
1600.447153	-13.843456
1601.302010	-13.761140
1602.157782	-13.703608
1603.014469	-13.664187
1603.872072	-13.637528
1604.730593	-13.631315
1605.590034	-13.635828
1606.450397	-13.648989
1607.311681	-13.671602
1608.173890	-13.700868
1609.037024	-13.736592
1609.901085	-13.775246
1610.766075	-13.824202
1611.631995	-13.881454
1612.498846	-13.943426
1613.366630	-14.021332
1614.235349	-14.108931
1615.105004	-14.204372
1615.975596	-14.312625
1616.847128	-14.426957
1617.719600	-14.544381
1618.593014	-14.661467
1619.467372	-14.776338
1620.342675	-14.883802
1621.218924	-14.978599
1622.096122	-15.067535
1622.974270	-15.145480
1623.853369	-15.212110
1624.733420	-15.279410
1625.614427	-15.342771
1626.496389	-15.405656
1627.379308	-15.476852
1628.263187	-15.552665
1629.148026	-15.635200
1630.033828	-15.726988
1630.920593	-15.827113
1631.808324	-15.933575
1632.697022	-16.045275
1633.586688	-16.164928
1634.477324	-16.285562
1635.368932	-16.405565
1636.261514	-16.529155
1637.155070	-16.645075
1638.049602	-16.753967
1638.945113	-16.859402
1639.841603	-16.950529
1640.739075	-17.031230
1641.637529	-17.105373
1642.536968	-17.165655
1643.437393	-17.218710
1644.338806	-17.267442
1645.241209	-17.308515
1646.144602	-17.346701
1647.048988	-17.383248
1647.954368	-17.416686
1648.860744	-17.447523
1649.768118	-17.476564
1650.676491	-17.502767
1651.585865	-17.522832
1652.496241	-17.537805
1653.407621	-17.546568
1654.320008	-17.543334
1655.233401	-17.531840
1656.147804	-17.511300
1657.063218	-17.476972
1657.979645	-17.436231
1658.897085	-17.388588
1659.815542	-17.331317
1660.735016	-17.273259
1661.655509	-17.212343
1662.577023	-17.146427
1663.499560	-17.083003
1664.423121	-17.017159
1665.347709	-16.946959
1666.273324	-16.877981
1667.199969	-16.804002
1668.127645	-16.725060
1669.056353	-16.645706
1669.986097	-16.560433
1670.916877	-16.471723
1671.848695	-16.383796
1672.781553	-16.292005
1673.715452	-16.200691
1674.650395	-16.111754
1675.586383	-16.020970
1676.523418	-15.932234
1677.461501	-15.845666
1678.400635	-15.756966
1679.340821	-15.670521
1680.282061	-15.584770
1681.224357	-15.496609
1682.167710	-15.411313
1683.112122	-15.326296
1684.057595	-15.240674
1685.004132	-15.159124
1685.951732	-15.078353
1686.900400	-14.997919
1687.850135	-14.922149
1688.800940	-14.846133
1689.752818	-14.771098
1690.705768	-14.699932
1691.659795	-14.627455
1692.614898	-14.556517
1693.571081	-14.489012
1694.528345	-14.420741
1695.486691	-14.355631
1696.446122	-14.293467
1697.406640	-14.230759
1698.368245	-14.170937
1699.330941	-14.112870
1700.294729	-14.054427
1701.259611	-13.998832
1702.225588	-13.943687
1703.192664	-13.888793
1704.160838	-13.836269
1705.130114	-13.784369
1706.100493	-13.734893
1707.071977	-13.687174
1708.044568	-13.640215
1709.018268	-13.595162
1709.993079	-13.549688
1710.969003	-13.506064
1711.946041	-13.464689
1712.924196	-13.423166
1713.903469	-13.384467
1714.883862	-13.346055
1715.865378	-13.307551
1716.848017	-13.272287
1717.831783	-13.237246
1718.816677	-13.204384
1719.802701	-13.173840
1720.789857	-13.142094
1721.778147	-13.112047
1722.767573	-13.082584
1723.758136	-13.053660
1724.749840	-13.027726
1725.742685	-13.002097
1726.736673	-12.977822
1727.731808	-12.953932
1728.728090	-12.929925
1729.725521	-12.908195
1730.724105	-12.886328
1731.723842	-12.866776
1732.724735	-12.848796
1733.726785	-12.829292
1734.729995	-12.811842
1735.734366	-12.793594
1736.739902	-12.775029
1737.746603	-12.759316
1738.754472	-12.743459
1739.763510	-12.729185
1740.773721	-12.715558
1741.785105	-12.701621
1742.797665	-12.688367
1743.811403	-12.674284
1744.826321	-12.662011
1745.842422	-12.650512
1746.859706	-12.639308
1747.878177	-12.630103
1748.897835	-12.620514
1749.918685	-12.611565
1750.940726	-12.602278
1751.963963	-12.593230
1752.988395	-12.585368
1754.014027	-12.576596
1755.040860	-12.569708
1756.068895	-12.562814
1757.098135	-12.555369
1758.128583	-12.549268
1759.160240	-12.542354
1760.193109	-12.535902
1761.227191	-12.529621
1762.262488	-12.523871
1763.299004	-12.518418
1764.336740	-12.512471
1765.375697	-12.508079
1766.415880	-12.502928
1767.457288	-12.498266
1768.499926	-12.494977
1769.543794	-12.491471
1770.588895	-12.488710
1771.635231	-12.486370
1772.682805	-12.485223
1773.731619	-12.483545
1774.781674	-12.482066
1775.832973	-12.481640
1776.885519	-12.480591
1777.939312	-12.480579
1778.994357	-12.480829
1780.050654	-12.481337
1781.108207	-12.481721
1782.167017	-12.482187
1783.227087	-12.483340
1784.288418	-12.483357
1785.351013	-12.483933
1786.414875	-12.485047
1787.480006	-12.486246
1788.546407	-12.487353
1789.614082	-12.488492
1790.683032	-12.490738
1791.753259	-12.492319
1792.824767	-12.494023
1793.897557	-12.495868
1794.971632	-12.497938
1796.046994	-12.500426
1797.123645	-12.502629
1798.201588	-12.505646
1799.280824	-12.508262
1800.361357	-12.511097
1801.443188	-12.514361
1802.526320	-12.517938
1803.610756	-12.522433
1804.696497	-12.527011
1805.783546	-12.532505
1806.871906	-12.538134
1807.961578	-12.543561
1809.052565	-12.548631
1810.144870	-12.553417
1811.238494	-12.559024
1812.333441	-12.565654
1813.429713	-12.572616
1814.527311	-12.579736
1815.626239	-12.586632
1816.726499	-12.593742
1817.828094	-12.600778
1818.931025	-12.606756
1820.035295	-12.613720
1821.140906	-12.620983
1822.247862	-12.630519
1823.356165	-12.639765
1824.465816	-12.648539
1825.576819	-12.657050
1826.689175	-12.664892
1827.802888	-12.674795
1828.917960	-12.683865
1830.034394	-12.694618
1831.152191	-12.704166
1832.271354	-12.715172
1833.391887	-12.726522
1834.513790	-12.738014
1835.637068	-12.750249
1836.761722	-12.761437
1837.887755	-12.774642
1839.015169	-12.786794
1840.143968	-12.800769
1841.274153	-12.813809
1842.405727	-12.828397
1843.538693	-12.842925
1844.673053	-12.858275
1845.808810	-12.874164
1846.945966	-12.889765
1848.084525	-12.905495
1849.224488	-12.920327
1850.365858	-12.936626
1851.508638	-12.953192
1852.652831	-12.971114
1853.798438	-12.987715
1854.945463	-13.003997
1856.093909	-13.018819
1857.243777	-13.034797
1858.395071	-13.051245
1859.547794	-13.069110
1860.701947	-13.086035
1861.857533	-13.102832
1863.014556	-13.118842
1864.173018	-13.136088
1865.332922	-13.153719
1866.494270	-13.172021
1867.657065	-13.189618
1868.821309	-13.207185
1869.987006	-13.224268
1871.154158	-13.241587
1872.322768	-13.258965
1873.492839	-13.276715
1874.664373	-13.294769
1875.837373	-13.313150
1877.011841	-13.331765
1878.187782	-13.350733
1879.365197	-13.370246
1880.544089	-13.390481
1881.724460	-13.411395
1882.906315	-13.432496
1884.089655	-13.453540
1885.274483	-13.474801
1886.460803	-13.496717
1887.648616	-13.519429
1888.837927	-13.542714
1890.028736	-13.566079
1891.221049	-13.589274
1892.414866	-13.612560
1893.610192	-13.635947
1894.807028	-13.659850
1896.005379	-13.684078
1897.205246	-13.708052
1898.406633	-13.731258
1899.609542	-13.753629
1900.813977	-13.775867
1902.019940	-13.798334
1903.227434	-13.821167
1904.436462	-13.843864
1905.647028	-13.866238
1906.859133	-13.887495
1908.072781	-13.908119
1909.287976	-13.928615
1910.504719	-13.949634
1911.723013	-13.971035
1912.942863	-13.992243
1914.164270	-14.012943
1915.387238	-14.033374
1916.611770	-14.053979
1917.837868	-14.075062
1919.065536	-14.096621
1920.294777	-14.118061
1921.525594	-14.139373
1922.757989	-14.160185
1923.991967	-14.182033
1925.227529	-14.204781
1926.464679	-14.229041
1927.703420	-14.253014
1928.943755	-14.277127
1930.185688	-14.300260
1931.429221	-14.323961
1932.674356	-14.347606
1933.921099	-14.372207
1935.169451	-14.396259
1936.419415	-14.419788
1937.670996	-14.442438
1938.924195	-14.465313
1940.179017	-14.488801
1941.435463	-14.512479
1942.693538	-14.535405
1943.953245	-14.556599
1945.214586	-14.577120
1946.477566	-14.597006
1947.742186	-14.617397
1949.008451	-14.636578
1950.276363	-14.654603
1951.545926	-14.671118
1952.817143	-14.687335
1954.090017	-14.702899
1955.364551	-14.717247
1956.640749	-14.729902
1957.918615	-14.741228
1959.198150	-14.752350
1960.479359	-14.762683
1961.762244	-14.772559
1963.046810	-14.781101
1964.333059	-14.789357
1965.620995	-14.797148
1966.910621	-14.805193
1968.201940	-14.812949
1969.494956	-14.820173
1970.789672	-14.827348
1972.086091	-14.834115
1973.384217	-14.840027
1974.684053	-14.844481
1975.985602	-14.849479
1977.288869	-14.855029
1978.593855	-14.860206
1979.900566	-14.863601
1981.209003	-14.866040
1982.519171	-14.867939
1983.831073	-14.869090
1985.144712	-14.869733
1986.460093	-14.870170
1987.777217	-14.869994
1989.096089	-14.868293
1990.416713	-14.865470
1991.739092	-14.862017
1993.063228	-14.857951
1994.389127	-14.852065
1995.716791	-14.844786
1997.046223	-14.836563
1998.377428	-14.827950
1999.710409	-14.818548
2001.045169	-14.808885
2002.381713	-14.798326
2003.720043	-14.786327
2005.060163	-14.772220
2006.402077	-14.757515
2007.745788	-14.742351
2009.091301	-14.726644
2010.438618	-14.709080
2011.787743	-14.690519
2013.138680	-14.671143
2014.491433	-14.651941
2015.846005	-14.632805
2017.202399	-14.613101
2018.560621	-14.591964
2019.920673	-14.570126
2021.282558	-14.549100
2022.646281	-14.529392
2024.011846	-14.510053
2025.379256	-14.490147
2026.748515	-14.470358
2028.119626	-14.451677
2029.492594	-14.433953
2030.867422	-14.415819
2032.244114	-14.397260
2033.622673	-14.378528
2035.003104	-14.360466
2036.385411	-14.342259
2037.769597	-14.323393
2039.155665	-14.304535
2040.543621	-14.285838
2041.933467	-14.267067
2043.325208	-14.246929
2044.718847	-14.224282
2046.114389	-14.200516
2047.511837	-14.176655
2048.911195	-14.154420
2050.312467	-14.131841
2051.715657	-14.107298
2053.120769	-14.080045
2054.527807	-14.050471
2055.936775	-14.021078
2057.347677	-13.992824
2058.760516	-13.964743
2060.175297	-13.936709
2061.592025	-13.908730
2063.010701	-13.880607
2064.431332	-13.850983
2065.853921	-13.819866
2067.278472	-13.789864
2068.704988	-13.762511
2070.133475	-13.736806
2071.563936	-13.711391
2072.996375	-13.687277
2074.430796	-13.666164
2075.867204	-13.647148
2077.305603	-13.627643
2078.745996	-13.606201
2080.188389	-13.583400
2081.632784	-13.561849
2083.079187	-13.544243
2084.527601	-13.532015
2085.978030	-13.525458
2087.430480	-13.521857
2088.884954	-13.514355
2090.341455	-13.496187
2091.799990	-13.466410
2093.260561	-13.428803
2094.723173	-13.388445
2096.187831	-13.352787
2097.654538	-13.330229
2099.123300	-13.324937
2100.594119	-13.335656
2102.067001	-13.356517
2103.541950	-13.377768
2105.018971	-13.389204
2106.498067	-13.383005
2107.979243	-13.356094
2109.462503	-13.308842
2110.947853	-13.246082
2112.435295	-13.175636
2113.924836	-13.104185
2115.416478	-13.037745
2116.910227	-12.982080
2118.406087	-12.940032
2119.904063	-12.910713
2121.404158	-12.893572
2122.906378	-12.887161
2124.410727	-12.888226
2125.917210	-12.894202
2127.425831	-12.903287
2128.936594	-12.914463
2130.449505	-12.927014
2131.964567	-12.940646
2133.481786	-12.953749
2135.001166	-12.967151
2136.522711	-12.983337
2138.046427	-13.000709
2139.572317	-13.018627
2141.100388	-13.037577
2142.630642	-13.055932
2144.163085	-13.072519
2145.697722	-13.086810
2147.234558	-13.096917
2148.773596	-13.101753
2150.314842	-13.101113
2151.858301	-13.094556
2153.403977	-13.081188
2154.951875	-13.061417
2156.502000	-13.035752
2158.054357	-13.003262
2159.608950	-12.964624
2161.165785	-12.923888
2162.724866	-12.882200
2164.286198	-12.841638
2165.849786	-12.806694
2167.415635	-12.779830
2168.983749	-12.763423
2170.554134	-12.759144
2172.126795	-12.767665
2173.701737	-12.787420
2175.278964	-12.814852
2176.858481	-12.846808
2178.440294	-12.879107
2180.024408	-12.908108
2181.610827	-12.928889
2183.199557	-12.939305
2184.790602	-12.939785
2186.383968	-12.931729
2187.979660	-12.919986
2189.577683	-12.909972
2191.178041	-12.907023
2192.780741	-12.915620
2194.385787	-12.938924
2195.993185	-12.974227
2197.602939	-13.015600
2199.215054	-13.049384
