# 2022-03-15_11.39.44
# shape = sech2
# FWHM_ps = 0.2
# carrier_nm = 1542
# frep_MHz = 12126
# pow_mW = 4500
# GDD = 0.0
# propa_len = 0.18
# untap_len = 0.01
# taper_len = 0.16
# waist_len = 0.02
# uptap_len = 0.02
# untap_scale = 1.0
# waist_scale = 0.1
# workingDir = NL_20110305_12 (Spirou)
# axis = slow
# window_ps = 10.0
# steps = 200
# points = 13000
# 
# wavelength [nm]	 power spectral density [dB]
1000.248639	-48.106679
1000.582480	-48.820036
1000.916545	-48.565306
1001.250832	-48.122853
1001.585343	-48.134157
1001.920077	-47.962060
1002.255035	-48.013925
1002.590218	-48.828546
1002.925624	-47.506453
1003.261255	-47.776760
1003.597111	-47.787392
1003.933192	-48.101377
1004.269497	-47.904425
1004.606029	-47.593258
1004.942785	-47.779731
1005.279768	-47.284493
1005.616977	-47.944851
1005.954412	-47.359361
1006.292074	-47.617850
1006.629962	-47.428498
1006.968077	-47.309724
1007.306420	-47.169509
1007.644990	-47.137906
1007.983787	-47.724686
1008.322813	-47.375532
1008.662067	-46.479994
1009.001549	-47.399614
1009.341259	-46.889672
1009.681199	-47.092872
1010.021367	-47.255012
1010.361765	-46.609267
1010.702392	-46.745420
1011.043250	-46.851959
1011.384337	-47.088198
1011.725654	-46.339554
1012.067202	-47.061309
1012.408980	-47.000414
1012.750989	-45.710922
1013.093230	-47.153156
1013.435702	-45.822086
1013.778405	-47.255693
1014.121341	-46.013281
1014.464508	-46.459281
1014.807908	-46.232038
1015.151540	-45.683215
1015.495405	-46.575600
1015.839503	-45.388752
1016.183835	-46.640544
1016.528400	-45.437547
1016.873198	-46.293656
1017.218231	-45.592488
1017.563498	-45.326104
1017.908999	-46.137688
1018.254735	-45.228550
1018.600707	-45.978950
1018.946913	-44.936341
1019.293354	-46.074371
1019.640032	-45.100032
1019.986945	-45.272662
1020.334094	-45.437738
1020.681480	-45.032863
1021.029102	-45.522624
1021.376961	-44.828325
1021.725058	-45.287205
1022.073391	-44.872374
1022.421962	-45.312997
1022.770772	-44.423955
1023.119819	-45.295317
1023.469104	-44.809003
1023.818628	-44.471941
1024.168391	-45.151964
1024.518393	-44.433938
1024.868634	-44.755196
1025.219115	-44.578575
1025.569836	-44.650329
1025.920796	-44.348466
1026.271997	-44.620896
1026.623438	-44.428160
1026.975121	-44.226980
1027.327044	-44.567076
1027.679208	-44.100947
1028.031614	-44.467604
1028.384262	-44.007558
1028.737152	-44.308226
1029.090284	-44.137572
1029.443659	-44.038850
1029.797276	-44.103406
1030.151137	-43.950619
1030.505240	-44.073612
1030.859587	-43.871630
1031.214178	-43.881503
1031.569013	-43.818744
1031.924093	-43.931071
1032.279417	-43.557446
1032.634985	-43.578061
1032.990799	-43.917908
1033.346858	-43.266968
1033.703162	-43.541462
1034.059712	-43.480935
1034.416509	-43.320411
1034.773551	-43.189918
1035.130841	-43.213809
1035.488377	-43.414906
1035.846160	-42.767913
1036.204190	-43.283161
1036.562468	-42.926829
1036.920994	-43.093754
1037.279768	-42.823219
1037.638790	-42.799348
1037.998061	-43.124814
1038.357581	-42.740820
1038.717350	-42.594682
1039.077368	-42.955114
1039.437636	-42.742802
1039.798154	-42.609245
1040.158922	-42.562411
1040.519940	-42.844641
1040.881209	-42.306377
1041.242729	-42.829852
1041.604501	-42.333936
1041.966524	-42.503601
1042.328798	-42.507785
1042.691325	-42.334841
1043.054103	-42.506895
1043.417135	-42.230636
1043.780419	-42.307995
1044.143956	-42.366108
1044.507746	-42.157805
1044.871791	-42.198199
1045.236088	-41.992331
1045.600641	-42.284931
1045.965447	-41.922816
1046.330508	-42.012137
1046.695824	-41.897208
1047.061395	-41.911465
1047.427222	-41.912687
1047.793304	-41.734390
1048.159642	-41.811319
1048.526237	-41.687287
1048.893088	-41.798864
1049.260196	-41.522325
1049.627561	-41.658359
1049.995183	-41.634423
1050.363063	-41.329843
1050.731201	-41.578958
1051.099597	-41.462764
1051.468251	-41.281170
1051.837164	-41.359815
1052.206336	-41.181965
1052.575767	-41.434499
1052.945458	-40.984026
1053.315409	-41.243913
1053.685619	-41.013569
1054.056090	-41.045219
1054.426821	-41.107729
1054.797814	-40.712688
1055.169067	-41.085033
1055.540582	-40.695407
1055.912359	-40.802154
1056.284398	-40.789167
1056.656698	-40.549654
1057.029262	-40.835379
1057.402088	-40.323985
1057.775177	-40.786781
1058.148530	-40.425510
1058.522146	-40.466188
1058.896027	-40.439351
1059.270171	-40.382257
1059.644580	-40.405851
1060.019254	-40.255940
1060.394193	-40.389466
1060.769397	-40.147597
1061.144867	-40.241688
1061.520602	-40.300395
1061.896604	-40.063046
1062.272872	-40.169050
1062.649407	-40.167619
1063.026210	-39.985613
1063.403279	-40.052740
1063.780616	-40.154589
1064.158221	-39.775404
1064.536094	-40.062586
1064.914235	-39.832344
1065.292645	-39.879265
1065.671325	-39.754807
1066.050273	-39.889465
1066.429491	-39.631508
1066.808979	-39.585719
1067.188738	-39.877698
1067.568766	-39.297687
1067.949066	-39.649958
1068.329636	-39.516908
1068.710478	-39.206526
1069.091592	-39.485378
1069.472977	-39.283331
1069.854635	-39.208801
1070.236565	-39.100166
1070.618768	-39.342116
1071.001243	-38.768671
1071.383993	-39.151823
1071.767016	-39.071950
1072.150313	-38.618142
1072.533884	-39.062791
1072.917730	-38.749326
1073.301850	-38.707998
1073.686246	-38.738796
1074.070917	-38.705363
1074.455864	-38.572707
1074.841087	-38.597399
1075.226586	-38.531808
1075.612362	-38.479176
1075.998415	-38.584032
1076.384745	-38.321032
1076.771353	-38.534258
1077.158238	-38.287517
1077.545401	-38.350027
1077.932843	-38.399238
1078.320564	-38.125315
1078.708564	-38.431087
1079.096842	-38.174909
1079.485401	-38.161223
1079.874240	-38.167996
1080.263358	-38.188381
1080.652757	-38.051516
1081.042438	-38.024003
1081.432399	-38.112338
1081.822641	-37.925491
1082.213166	-37.967074
1082.603972	-37.851867
1082.995061	-37.862828
1083.386433	-37.827452
1083.778087	-37.681566
1084.170025	-37.712112
1084.562246	-37.606437
1084.954751	-37.653990
1085.347541	-37.400277
1085.740615	-37.485187
1086.133973	-37.426382
1086.527617	-37.281014
1086.921546	-37.269844
1087.315761	-37.172409
1087.710262	-37.170990
1088.105050	-37.070320
1088.500124	-36.977220
1088.895485	-36.945710
1089.291134	-36.944430
1089.687070	-36.796693
1090.083294	-36.735922
1090.479806	-36.770664
1090.876607	-36.670336
1091.273696	-36.609178
1091.671075	-36.531205
1092.068744	-36.563359
1092.466702	-36.468168
1092.864950	-36.419595
1093.263489	-36.392020
1093.662319	-36.336040
1094.061440	-36.357146
1094.460852	-36.217548
1094.860555	-36.275532
1095.260551	-36.177265
1095.660840	-36.164597
1096.061421	-36.175554
1096.462295	-36.054114
1096.863462	-36.028201
1097.264923	-36.090993
1097.666678	-35.957832
1098.068727	-35.907816
1098.471071	-35.891066
1098.873710	-35.920204
1099.276644	-35.735501
1099.679874	-35.769054
1100.083400	-35.681370
1100.487222	-35.697938
1100.891340	-35.541591
1101.295756	-35.551598
1101.700468	-35.453521
1102.105478	-35.430710
1102.510787	-35.352390
1102.916393	-35.285650
1103.322298	-35.201102
1103.728502	-35.168549
1104.135005	-35.104625
1104.541807	-35.017251
1104.948909	-34.930182
1105.356312	-34.926701
1105.764015	-34.806933
1106.172019	-34.825045
1106.580324	-34.586859
1106.988931	-34.748026
1107.397840	-34.547419
1107.807051	-34.530017
1108.216564	-34.492611
1108.626380	-34.364433
1109.036500	-34.442684
1109.446923	-34.273918
1109.857649	-34.301014
1110.268680	-34.194730
1110.680016	-34.173712
1111.091657	-34.184407
1111.503602	-34.036680
1111.915854	-34.073605
1112.328411	-33.949937
1112.741275	-34.027319
1113.154445	-33.883797
1113.567922	-33.854885
1113.981706	-33.832650
1114.395798	-33.773617
1114.810198	-33.775490
1115.224906	-33.630074
1115.639923	-33.675553
1116.055249	-33.512864
1116.470884	-33.609159
1116.886829	-33.449443
1117.303084	-33.386970
1117.719650	-33.357922
1118.136526	-33.276701
1118.553713	-33.265720
1118.971212	-33.135755
1119.389022	-33.105093
1119.807145	-33.002082
1120.225580	-32.972489
1120.644328	-32.933836
1121.063389	-32.787530
1121.482763	-32.803677
1121.902452	-32.647185
1122.322454	-32.676374
1122.742771	-32.560058
1123.163404	-32.500977
1123.584351	-32.473189
1124.005614	-32.324909
1124.427193	-32.355275
1124.849089	-32.253752
1125.271301	-32.217583
1125.693830	-32.110660
1126.116677	-32.136218
1126.539842	-31.976377
1126.963324	-32.014983
1127.387126	-31.934753
1127.811246	-31.859877
1128.235685	-31.856740
1128.660444	-31.731617
1129.085522	-31.765059
1129.510922	-31.673343
1129.936641	-31.608739
1130.362682	-31.592169
1130.789044	-31.504319
1131.215728	-31.478369
1131.642734	-31.389334
1132.070063	-31.376038
1132.497714	-31.272727
1132.925689	-31.217608
1133.353987	-31.202573
1133.782610	-31.089877
1134.211556	-31.045257
1134.640827	-30.970266
1135.070424	-30.956329
1135.500345	-30.822681
1135.930593	-30.830229
1136.361166	-30.724106
1136.792067	-30.674841
1137.223294	-30.657991
1137.654848	-30.507496
1138.086730	-30.559628
1138.518940	-30.443608
1138.951479	-30.367681
1139.384346	-30.360049
1139.817543	-30.302348
1140.251069	-30.199417
1140.684925	-30.205630
1141.119111	-30.115893
1141.553628	-30.049146
1141.988475	-30.073616
1142.423655	-29.924060
1142.859166	-29.925809
1143.295009	-29.882455
1143.731185	-29.822784
1144.167694	-29.758486
1144.604536	-29.714656
1145.041711	-29.704820
1145.479221	-29.594863
1145.917065	-29.602874
1146.355245	-29.504313
1146.793759	-29.470693
1147.232609	-29.449630
1147.671795	-29.339173
1148.111317	-29.329951
1148.551177	-29.216471
1148.991373	-29.221844
1149.431907	-29.111625
1149.872779	-29.063115
1150.313989	-29.015647
1150.755538	-28.900253
1151.197426	-28.902095
1151.639653	-28.779312
1152.082220	-28.760614
1152.525128	-28.669382
1152.968376	-28.622307
1153.411966	-28.551435
1153.855897	-28.512643
1154.300169	-28.451222
1154.744784	-28.374933
1155.189742	-28.376545
1155.635042	-28.258321
1156.080687	-28.266355
1156.526674	-28.182602
1156.973007	-28.151217
1157.419683	-28.089194
1157.866705	-28.035286
1158.314072	-28.010602
1158.761786	-27.918783
1159.209845	-27.888980
1159.658251	-27.825525
1160.107004	-27.772989
1160.556104	-27.696233
1161.005553	-27.669489
1161.455349	-27.571452
1161.905494	-27.540934
1162.355989	-27.473804
1162.806832	-27.395166
1163.258026	-27.381179
1163.709570	-27.268030
1164.161464	-27.266877
1164.613710	-27.176390
1165.066307	-27.141437
1165.519256	-27.094740
1165.972558	-27.025555
1166.426212	-27.016140
1166.880219	-26.924456
1167.334580	-26.921183
1167.789295	-26.851407
1168.244364	-26.817690
1168.699788	-26.766701
1169.155567	-26.727037
1169.611702	-26.683425
1170.068193	-26.616002
1170.525041	-26.598276
1170.982245	-26.512742
1171.439807	-26.492374
1171.897726	-26.402165
1172.356004	-26.381284
1172.814640	-26.297497
1173.273635	-26.246129
1173.732989	-26.191594
1174.192703	-26.122745
1174.652778	-26.074951
1175.113213	-25.992176
1175.574009	-25.970975
1176.035167	-25.872774
1176.496687	-25.853399
1176.958569	-25.772212
1177.420814	-25.741116
1177.883422	-25.682375
1178.346394	-25.631320
1178.809730	-25.595201
1179.273430	-25.545756
1179.737496	-25.498446
1180.201927	-25.459422
1180.666723	-25.427454
1181.131886	-25.349534
1181.597416	-25.361768
1182.063312	-25.258738
1182.529576	-25.251743
1182.996209	-25.196180
1183.463209	-25.136627
1183.930579	-25.093762
1184.398317	-25.050583
1184.866426	-24.980535
1185.334904	-24.931777
1185.803754	-24.892263
1186.272974	-24.801513
1186.742566	-24.780859
1187.212529	-24.695349
1187.682865	-24.654467
1188.153574	-24.583495
1188.624656	-24.541162
1189.096112	-24.471951
1189.567942	-24.421109
1190.040147	-24.371452
1190.512726	-24.316682
1190.985681	-24.259927
1191.459012	-24.226368
1191.932720	-24.167676
1192.406804	-24.126839
1192.881265	-24.090163
1193.356104	-24.046338
1193.831322	-24.002981
1194.306918	-23.979476
1194.782893	-23.934458
1195.259248	-23.893918
1195.735982	-23.885046
1196.213097	-23.815366
1196.690593	-23.816633
1197.168471	-23.758157
1197.646730	-23.731283
1198.125371	-23.703564
1198.604395	-23.645147
1199.083803	-23.630605
1199.563594	-23.571582
1200.043769	-23.532954
1200.524329	-23.498339
1201.005273	-23.435078
1201.486604	-23.399228
1201.968320	-23.347033
1202.450422	-23.287757
1202.932912	-23.246290
1203.415789	-23.182482
1203.899054	-23.131803
1204.382707	-23.078987
1204.866748	-23.014415
1205.351179	-22.972138
1205.836000	-22.901675
1206.321211	-22.862275
1206.806812	-22.793928
1207.292805	-22.755678
1207.779189	-22.690673
1208.265965	-22.650587
1208.753134	-22.598886
1209.240696	-22.548262
1209.728651	-22.510262
1210.217000	-22.458149
1210.705744	-22.425504
1211.194883	-22.371529
1211.684417	-22.348206
1212.174347	-22.295984
1212.664673	-22.260753
1213.155396	-22.239657
1213.646516	-22.171930
1214.138034	-22.173560
1214.629951	-22.105492
1215.122266	-22.089716
1215.614980	-22.045301
1216.108095	-22.007951
1216.601609	-21.975173
1217.095524	-21.927365
1217.589841	-21.901725
1218.084559	-21.840878
1218.579679	-21.820916
1219.075202	-21.756340
1219.571128	-21.725001
1220.067458	-21.674050
1220.564191	-21.620240
1221.061330	-21.585217
1221.558874	-21.514168
1222.056823	-21.484852
1222.555178	-21.414209
1223.053940	-21.369674
1223.553109	-21.315779
1224.052686	-21.258028
1224.552671	-21.201919
1225.053065	-21.155997
1225.553867	-21.088559
1226.055079	-21.042592
1226.556702	-20.986907
1227.058735	-20.929752
1227.561179	-20.879721
1228.064035	-20.826407
1228.567303	-20.776684
1229.070983	-20.719340
1229.575077	-20.682720
1230.079585	-20.620135
1230.584506	-20.582587
1231.089842	-20.535143
1231.595594	-20.486765
1232.101761	-20.444924
1232.608345	-20.409511
1233.115345	-20.352675
1233.622762	-20.330050
1234.130597	-20.281405
1234.638851	-20.239957
1235.147523	-20.214639
1235.656615	-20.167587
1236.166126	-20.132320
1236.676058	-20.106368
1237.186411	-20.058968
1237.697185	-20.030362
1238.208381	-20.001004
1238.719999	-19.952524
1239.232040	-19.932847
1239.744505	-19.891362
1240.257394	-19.852105
1240.770708	-19.828256
1241.284446	-19.784114
1241.798610	-19.746676
1242.313201	-19.722070
1242.828218	-19.670688
1243.343662	-19.641631
1243.859534	-19.605429
1244.375834	-19.558578
1244.892563	-19.527889
1245.409721	-19.486147
1245.927309	-19.441630
1246.445327	-19.410472
1246.963777	-19.361404
1247.482657	-19.324063
1248.001970	-19.286268
1248.521716	-19.237399
1249.041894	-19.202507
1249.562506	-19.160396
1250.083553	-19.113063
1250.605034	-19.079973
1251.126950	-19.032978
1251.649302	-18.991778
1252.172091	-18.954825
1252.695316	-18.909267
1253.218979	-18.870478
1253.743079	-18.831907
1254.267619	-18.787623
1254.792597	-18.751840
1255.318015	-18.710656
1255.843874	-18.670595
1256.370173	-18.634464
1256.896913	-18.593572
1257.424095	-18.557263
1257.951720	-18.519854
1258.479787	-18.481389
1259.008298	-18.447287
1259.537254	-18.409455
1260.066654	-18.374017
1260.596499	-18.341224
1261.126790	-18.303730
1261.657527	-18.271888
1262.188711	-18.238533
1262.720342	-18.204305
1263.252422	-18.173192
1263.784950	-18.141043
1264.317928	-18.108932
1264.851355	-18.079017
1265.385232	-18.047045
1265.919560	-18.017718
1266.454340	-17.987136
1266.989572	-17.957423
1267.525256	-17.927704
1268.061394	-17.898414
1268.597985	-17.868650
1269.135031	-17.839538
1269.672531	-17.809846
1270.210487	-17.780693
1270.748899	-17.751178
1271.287768	-17.720850
1271.827094	-17.692451
1272.366877	-17.661108
1272.907119	-17.632059
1273.447820	-17.601497
1273.988981	-17.571205
1274.530601	-17.540979
1275.072683	-17.510229
1275.615226	-17.479678
1276.158230	-17.449057
1276.701697	-17.418194
1277.245627	-17.387263
1277.790021	-17.356502
1278.334879	-17.325827
1278.880202	-17.294327
1279.425991	-17.264016
1279.972245	-17.232567
1280.518966	-17.202091
1281.066155	-17.170432
1281.613811	-17.140020
1282.161936	-17.108657
1282.710529	-17.077370
1283.259593	-17.046614
1283.809126	-17.014532
1284.359131	-16.984218
1284.909607	-16.951687
1285.460555	-16.920774
1286.011976	-16.888925
1286.563870	-16.857179
1287.116237	-16.825220
1287.669080	-16.793356
1288.222397	-16.761359
1288.776191	-16.729048
1289.330460	-16.697205
1289.885207	-16.664271
1290.440431	-16.632892
1290.996133	-16.599384
1291.552314	-16.567862
1292.108975	-16.534489
1292.666115	-16.502428
1293.223737	-16.469270
1293.781839	-16.436763
1294.340424	-16.403391
1294.899491	-16.371011
1295.459041	-16.337221
1296.019075	-16.304572
1296.579593	-16.270846
1297.140597	-16.237765
1297.702086	-16.204185
1298.264061	-16.170713
1298.826524	-16.136935
1299.389474	-16.103796
1299.952912	-16.069579
1300.516839	-16.036606
1301.081255	-16.002494
1301.646162	-15.969219
1302.211559	-15.936153
1302.777448	-15.902002
1303.343829	-15.869640
1303.910702	-15.836188
1304.478069	-15.803080
1305.045930	-15.771001
1305.614285	-15.737590
1306.183136	-15.705733
1306.752483	-15.673425
1307.322326	-15.640994
1307.892666	-15.609538
1308.463504	-15.577541
1309.034841	-15.545966
1309.606677	-15.514939
1310.179012	-15.483336
1310.751849	-15.452679
1311.325186	-15.421918
1311.899025	-15.391062
1312.473366	-15.361498
1313.048211	-15.330524
1313.623559	-15.301705
1314.199412	-15.271622
1314.775770	-15.242749
1315.352634	-15.213983
1315.930004	-15.185323
1316.507881	-15.157153
1317.086266	-15.129781
1317.665159	-15.101748
1318.244562	-15.075316
1318.824474	-15.048278
1319.404897	-15.022093
1319.985831	-14.996242
1320.567276	-14.970638
1321.149234	-14.945284
1321.731706	-14.920956
1322.314691	-14.895739
1322.898190	-14.872422
1323.482205	-14.848114
1324.066736	-14.824951
1324.651783	-14.802129
1325.237347	-14.779184
1325.823430	-14.757196
1326.410031	-14.735412
1326.997151	-14.713600
1327.584791	-14.693115
1328.172952	-14.671836
1328.761634	-14.652041
1329.350839	-14.631851
1329.940566	-14.612441
1330.530817	-14.593197
1331.121592	-14.574470
1331.712891	-14.555792
1332.304716	-14.537846
1332.897068	-14.519651
1333.489946	-14.502205
1334.083352	-14.484922
1334.677287	-14.467358
1335.271750	-14.451109
1335.866744	-14.433845
1336.462268	-14.417686
1337.058323	-14.401494
1337.654910	-14.385040
1338.252029	-14.369570
1338.849682	-14.353583
1339.447869	-14.337934
1340.046591	-14.322901
1340.645848	-14.307053
1341.245641	-14.292377
1341.845972	-14.277046
1342.446840	-14.262090
1343.048246	-14.247305
1343.650191	-14.232328
1344.252677	-14.217417
1344.855702	-14.202904
1345.459269	-14.187647
1346.063379	-14.173350
1346.668030	-14.158089
1347.273226	-14.143660
1347.878965	-14.128480
1348.485250	-14.113937
1349.092080	-14.098720
1349.699456	-14.084254
1350.307380	-14.068777
1350.915851	-14.054315
1351.524871	-14.038992
1352.134441	-14.023814
1352.744560	-14.009298
1353.355231	-13.993058
1353.966453	-13.979108
1354.578227	-13.962539
1355.190555	-13.948118
1355.803436	-13.932094
1356.416872	-13.916658
1357.030863	-13.901259
1357.645411	-13.885166
1358.260515	-13.869928
1358.876177	-13.853538
1359.492397	-13.838443
1360.109176	-13.821618
1360.726516	-13.806724
1361.344416	-13.789753
1361.962877	-13.774520
1362.581901	-13.758045
1363.201487	-13.742050
1363.821637	-13.726131
1364.442352	-13.709732
1365.063632	-13.693830
1365.685478	-13.677591
1366.307891	-13.661313
1366.930871	-13.645505
1367.554420	-13.628948
1368.178538	-13.613321
1368.803226	-13.596899
1369.428485	-13.581159
1370.054315	-13.565066
1370.680717	-13.549263
1371.307693	-13.533344
1371.935242	-13.517730
1372.563366	-13.501778
1373.192065	-13.486492
1373.821341	-13.470618
1374.451193	-13.455477
1375.081623	-13.439967
1375.712632	-13.424833
1376.344221	-13.409681
1376.976389	-13.394680
1377.609139	-13.379807
1378.242470	-13.365083
1378.876384	-13.350423
1379.510881	-13.335954
1380.145963	-13.321604
1380.781629	-13.307316
1381.417881	-13.293304
1382.054720	-13.279296
1382.692147	-13.265610
1383.330161	-13.251829
1383.968765	-13.238454
1384.607959	-13.225117
1385.247743	-13.211869
1385.888119	-13.199041
1386.529087	-13.185976
1387.170648	-13.173476
1387.812804	-13.160906
1388.455554	-13.148487
1389.098899	-13.136563
1389.742842	-13.124306
1390.387381	-13.112685
1391.032519	-13.100998
1391.678256	-13.089439
1392.324592	-13.078347
1392.971529	-13.067052
1393.619068	-13.056252
1394.267208	-13.045442
1394.915952	-13.034838
1395.565300	-13.024497
1396.215253	-13.014169
1396.865812	-13.004178
1397.516977	-12.994181
1398.168749	-12.984554
1398.821130	-12.974890
1399.474120	-12.965529
1400.127719	-12.956279
1400.781930	-12.947137
1401.436752	-12.938293
1402.092186	-12.929417
1402.748234	-12.920842
1403.404897	-12.912345
1404.062174	-12.903988
1404.720067	-12.895818
1405.378577	-12.887776
1406.037705	-12.879803
1406.697451	-12.872081
1407.357817	-12.864376
1408.018803	-12.856823
1408.680410	-12.849504
1409.342639	-12.842112
1410.005492	-12.835067
1410.668968	-12.827981
1411.333068	-12.821014
1411.997795	-12.814307
1412.663147	-12.807477
1413.329127	-12.800972
1413.995736	-12.794407
1414.662973	-12.788012
1415.330840	-12.781724
1415.999339	-12.775448
1416.668469	-12.769362
1417.338232	-12.763229
1418.008628	-12.757282
1418.679659	-12.751315
1419.351325	-12.745452
1420.023628	-12.739735
1420.696568	-12.733843
1421.370145	-12.728355
1422.044362	-12.722565
1422.719219	-12.717094
1423.394717	-12.711555
1424.070856	-12.706066
1424.747638	-12.700698
1425.425064	-12.695341
1426.103134	-12.689994
1426.781850	-12.684881
1427.461212	-12.679548
1428.141221	-12.674587
1428.821878	-12.669387
1429.503185	-12.664487
1430.185141	-12.659455
1430.867749	-12.654547
1431.551008	-12.649691
1432.234920	-12.644710
1432.919486	-12.639997
1433.604707	-12.634951
1434.290583	-12.630217
1434.977116	-12.625163
1435.664307	-12.620248
1436.352156	-12.615164
1437.040664	-12.610014
1437.729833	-12.604782
1438.419663	-12.599447
1439.110156	-12.593891
1439.801312	-12.588343
1440.493132	-12.582406
1441.185617	-12.576539
1441.878768	-12.570224
1442.572586	-12.563916
1443.267072	-12.557226
1443.962228	-12.550414
1444.658053	-12.543330
1445.354549	-12.535960
1446.051717	-12.528415
1446.749558	-12.520488
1447.448073	-12.512337
1448.147263	-12.503892
1448.847128	-12.495019
1449.547671	-12.486023
1450.248891	-12.476470
1450.950789	-12.466776
1451.653368	-12.456601
1452.356627	-12.446106
1453.060568	-12.435260
1453.765192	-12.423954
1454.470500	-12.412260
1455.176492	-12.400174
1455.883170	-12.387548
1456.590534	-12.374582
1457.298586	-12.361047
1458.007327	-12.347122
1458.716758	-12.332644
1459.426880	-12.317714
1460.137693	-12.302243
1460.849199	-12.286268
1461.561398	-12.269736
1462.274293	-12.252656
1462.987883	-12.234996
1463.702170	-12.216808
1464.417155	-12.197913
1465.132838	-12.178545
1465.849222	-12.158384
1466.566306	-12.137688
1467.284093	-12.116224
1468.002582	-12.094138
1468.721775	-12.071324
1469.441674	-12.047933
1470.162278	-12.023811
1470.883590	-11.999255
1471.605609	-11.973955
1472.328338	-11.948320
1473.051777	-11.921961
1473.775928	-11.895151
1474.500790	-11.867611
1475.226367	-11.839363
1475.952657	-11.810228
1476.679663	-11.780140
1477.407386	-11.748920
1478.135826	-11.716587
1478.864985	-11.682981
1479.594863	-11.648256
1480.325463	-11.612392
1481.056784	-11.575548
1481.788828	-11.537952
1482.521597	-11.499646
1483.255090	-11.461018
1483.989309	-11.421947
1484.724256	-11.382700
1485.459931	-11.343058
1486.196336	-11.302940
1486.933471	-11.262012
1487.671337	-11.219933
1488.409937	-11.176212
1489.149270	-11.130550
1489.889337	-11.082424
1490.630141	-11.031759
1491.371682	-10.978404
1492.113961	-10.922517
1492.856979	-10.864516
1493.600738	-10.804880
1494.345238	-10.744363
1495.090481	-10.683769
1495.836467	-10.623811
1496.583198	-10.565260
1497.330675	-10.508594
1498.078899	-10.454115
1498.827872	-10.401886
1499.577593	-10.351574
1500.328065	-10.302636
1501.079289	-10.254315
1501.831265	-10.205541
1502.583995	-10.155454
1503.337480	-10.102945
1504.091721	-10.047432
1504.846719	-9.988347
1505.602475	-9.925826
1506.358991	-9.860219
1507.116268	-9.792722
1507.874306	-9.724676
1508.633108	-9.658191
1509.392673	-9.595296
1510.153004	-9.538408
1510.914101	-9.489628
1511.675965	-9.451109
1512.438599	-9.424472
1513.202002	-9.411245
1513.966176	-9.412238
1514.731122	-9.428047
1515.496842	-9.458487
1516.263336	-9.503135
1517.030607	-9.561092
1517.798654	-9.631465
1518.567479	-9.713530
1519.337083	-9.807071
1520.107468	-9.912373
1520.878634	-10.030451
1521.650584	-10.162699
1522.423317	-10.311043
1523.196836	-10.477990
1523.971141	-10.667020
1524.746233	-10.883627
1525.522115	-11.136293
1526.298786	-11.438099
1527.076249	-11.807987
1527.854504	-12.272301
1528.633553	-12.866167
1529.413397	-13.635377
1530.194037	-14.637609
1530.975474	-15.938381
1531.757709	-17.575388
1532.540745	-19.376803
1533.324581	-20.421862
1534.109220	-19.373574
1534.894662	-16.921440
1535.680909	-14.402014
1536.467961	-12.244189
1537.255821	-10.481624
1538.044489	-9.075674
1538.833967	-7.988944
1539.624256	-7.196829
1540.415357	-6.686204
1541.207271	-6.453232
1542.000000	-6.501757
1542.793545	-6.843337
1543.587907	-7.499324
1544.383087	-8.506365
1545.179088	-9.928009
1545.975909	-11.880936
1546.773552	-14.600112
1547.572019	-18.638786
1548.371311	-25.577476
1549.171428	-28.471047
1549.972373	-20.892448
1550.774147	-16.797035
1551.576751	-14.251465
1552.380185	-12.505562
1553.184453	-11.246348
1553.989554	-10.313657
1554.795490	-9.614017
1555.602263	-9.087412
1556.409873	-8.693135
1557.218322	-8.402194
1558.027612	-8.193628
1558.837743	-8.051781
1559.648717	-7.964926
1560.460536	-7.923853
1561.273200	-7.921189
1562.086710	-7.950585
1562.901069	-8.006460
1563.716278	-8.083636
1564.532337	-8.177421
1565.349249	-8.283581
1566.167014	-8.398510
1566.985634	-8.519311
1567.805111	-8.643825
1568.625444	-8.770625
1569.446637	-8.898870
1570.268690	-9.028211
1571.091605	-9.158639
1571.915382	-9.290411
1572.740024	-9.423945
1573.565532	-9.559833
1574.391907	-9.698722
1575.219150	-9.841341
1576.047262	-9.988365
1576.876246	-10.140408
1577.706103	-10.297924
1578.536833	-10.461183
1579.368439	-10.630244
1580.200922	-10.804923
1581.034282	-10.984889
1581.868522	-11.169550
1582.703643	-11.358287
1583.539646	-11.550291
1584.376532	-11.744824
1585.214304	-11.941050
1586.052962	-12.138277
1586.892508	-12.335790
1587.732943	-12.533054
1588.574269	-12.729492
1589.416487	-12.924793
1590.259599	-13.118558
1591.103605	-13.310623
1591.948508	-13.500743
1592.794309	-13.688840
1593.641009	-13.874697
1594.488609	-14.058259
1595.337112	-14.239275
1596.186518	-14.417679
1597.036829	-14.593180
1597.888047	-14.765662
1598.740172	-14.934829
1599.593207	-15.100554
1600.447153	-15.262500
1601.302010	-15.420535
1602.157782	-15.574299
1603.014469	-15.723645
1603.872072	-15.868174
1604.730593	-16.007693
1605.590034	-16.141779
1606.450397	-16.270188
1607.311681	-16.392487
1608.173890	-16.508450
1609.037024	-16.617659
1609.901085	-16.719900
1610.766075	-16.814820
1611.631995	-16.902255
1612.498846	-16.981920
1613.366630	-17.053750
1614.235349	-17.117580
1615.105004	-17.173461
1615.975596	-17.221378
1616.847128	-17.261511
1617.719600	-17.293986
1618.593014	-17.319061
1619.467372	-17.336937
1620.342675	-17.347889
1621.218924	-17.352136
1622.096122	-17.349940
1622.974270	-17.341528
1623.853369	-17.327160
1624.733420	-17.307122
1625.614427	-17.281728
1626.496389	-17.251328
1627.379308	-17.216305
1628.263187	-17.177065
1629.148026	-17.134023
1630.033828	-17.087583
1630.920593	-17.038125
1631.808324	-16.986002
1632.697022	-16.931513
1633.586688	-16.874958
1634.477324	-16.816591
1635.368932	-16.756676
1636.261514	-16.695431
1637.155070	-16.633084
1638.049602	-16.569812
1638.945113	-16.505810
1639.841603	-16.441217
1640.739075	-16.376202
1641.637529	-16.310868
1642.536968	-16.245363
1643.437393	-16.179779
1644.338806	-16.114252
1645.241209	-16.048853
1646.144602	-15.983700
1647.048988	-15.918834
1647.954368	-15.854353
1648.860744	-15.790278
1649.768118	-15.726703
1650.676491	-15.663643
1651.585865	-15.601198
1652.496241	-15.539400
1653.407621	-15.478338
1654.320008	-15.418046
1655.233401	-15.358593
1656.147804	-15.299994
1657.063218	-15.242307
1657.979645	-15.185499
1658.897085	-15.129608
1659.815542	-15.074592
1660.735016	-15.020498
1661.655509	-14.967304
1662.577023	-14.915067
1663.499560	-14.863775
1664.423121	-14.813470
1665.347709	-14.764136
1666.273324	-14.715781
1667.199969	-14.668390
1668.127645	-14.621980
1669.056353	-14.576557
1669.986097	-14.532157
1670.916877	-14.488768
1671.848695	-14.446429
1672.781553	-14.405112
1673.715452	-14.364842
1674.650395	-14.325588
1675.586383	-14.287353
1676.523418	-14.250103
1677.461501	-14.213821
1678.400635	-14.178488
1679.340821	-14.144088
1680.282061	-14.110604
1681.224357	-14.078003
1682.167710	-14.046257
1683.112122	-14.015335
1684.057595	-13.985233
1685.004132	-13.955944
1685.951732	-13.927490
1686.900400	-13.899881
1687.850135	-13.873097
1688.800940	-13.847111
1689.752818	-13.821867
1690.705768	-13.797344
1691.659795	-13.773507
1692.614898	-13.750347
1693.571081	-13.727831
1694.528345	-13.705931
1695.486691	-13.684613
1696.446122	-13.663863
1697.406640	-13.643658
1698.368245	-13.623976
1699.330941	-13.604807
1700.294729	-13.586147
1701.259611	-13.567985
1702.225588	-13.550362
1703.192664	-13.533287
1704.160838	-13.516796
1705.130114	-13.500869
1706.100493	-13.485511
1707.071977	-13.470708
1708.044568	-13.456469
1709.018268	-13.442775
1709.993079	-13.429618
1710.969003	-13.416971
1711.946041	-13.404801
1712.924196	-13.393053
1713.903469	-13.381708
1714.883862	-13.370717
1715.865378	-13.360065
1716.848017	-13.349695
1717.831783	-13.339603
1718.816677	-13.329758
1719.802701	-13.320170
1720.789857	-13.310853
1721.778147	-13.301870
1722.767573	-13.293228
1723.758136	-13.284955
1724.749840	-13.277015
1725.742685	-13.269394
1726.736673	-13.262055
1727.731808	-13.254995
1728.728090	-13.248193
1729.725521	-13.241686
1730.724105	-13.235470
1731.723842	-13.229562
1732.724735	-13.223940
1733.726785	-13.218571
1734.729995	-13.213380
1735.734366	-13.208301
1736.739902	-13.203269
1737.746603	-13.198283
1738.754472	-13.193359
1739.763510	-13.188601
1740.773721	-13.184078
1741.785105	-13.179854
1742.797665	-13.175925
1743.811403	-13.172282
1744.826321	-13.168860
1745.842422	-13.165641
1746.859706	-13.162608
1747.878177	-13.159786
1748.897835	-13.157169
1749.918685	-13.154775
1750.940726	-13.152616
1751.963963	-13.150703
1752.988395	-13.149018
1754.014027	-13.147537
1755.040860	-13.146208
1756.068895	-13.144967
1757.098135	-13.143773
1758.128583	-13.142561
1759.160240	-13.141276
1760.193109	-13.139870
1761.227191	-13.138310
1762.262488	-13.136619
1763.299004	-13.134830
1764.336740	-13.133034
1765.375697	-13.131351
1766.415880	-13.129914
1767.457288	-13.128818
1768.499926	-13.128103
1769.543794	-13.127779
1770.588895	-13.127838
1771.635231	-13.128234
1772.682805	-13.128892
1773.731619	-13.129717
1774.781674	-13.130627
1775.832973	-13.131598
1776.885519	-13.132675
1777.939312	-13.133901
1778.994357	-13.135281
1780.050654	-13.136759
1781.108207	-13.138318
1782.167017	-13.140003
1783.227087	-13.141875
1784.288418	-13.143971
1785.351013	-13.146247
1786.414875	-13.148615
1787.480006	-13.151022
1788.546407	-13.153418
1789.614082	-13.155821
1790.683032	-13.158230
1791.753259	-13.160632
1792.824767	-13.163041
1793.897557	-13.165481
1794.971632	-13.168073
1796.046994	-13.170937
1797.123645	-13.174121
1798.201588	-13.177692
1799.280824	-13.181647
1800.361357	-13.185986
1801.443188	-13.190726
1802.526320	-13.195882
1803.610756	-13.201454
1804.696497	-13.207384
1805.783546	-13.213558
1806.871906	-13.219927
1807.961578	-13.226516
1809.052565	-13.233378
1810.144870	-13.240499
1811.238494	-13.247768
1812.333441	-13.255053
1813.429713	-13.262286
1814.527311	-13.269544
1815.626239	-13.276986
1816.726499	-13.284746
1817.828094	-13.292826
1818.931025	-13.301141
1820.035295	-13.309623
1821.140906	-13.318297
1822.247862	-13.327245
1823.356165	-13.336573
1824.465816	-13.346288
1825.576819	-13.356377
1826.689175	-13.366784
1827.802888	-13.377454
1828.917960	-13.388356
1830.034394	-13.399427
1831.152191	-13.410696
1832.271354	-13.422283
1833.391887	-13.434328
1834.513790	-13.446866
1835.637068	-13.459761
1836.761722	-13.472847
1837.887755	-13.486090
1839.015169	-13.499562
1840.143968	-13.513391
1841.274153	-13.527642
1842.405727	-13.542263
1843.538693	-13.557135
1844.673053	-13.572176
1845.808810	-13.587421
1846.945966	-13.602996
1848.084525	-13.618983
1849.224488	-13.635364
1850.365858	-13.652039
1851.508638	-13.668996
1852.652831	-13.686311
1853.798438	-13.704028
1854.945463	-13.722019
1856.093909	-13.740128
1857.243777	-13.758326
1858.395071	-13.776683
1859.547794	-13.795355
1860.701947	-13.814479
1861.857533	-13.834096
1863.014556	-13.854122
1864.173018	-13.874438
1865.332922	-13.895003
1866.494270	-13.915894
1867.657065	-13.937231
1868.821309	-13.959081
1869.987006	-13.981403
1871.154158	-14.004106
1872.322768	-14.027228
1873.492839	-14.050920
1874.664373	-14.075264
1875.837373	-14.100079
1877.011841	-14.125081
1878.187782	-14.150299
1879.365197	-14.176114
1880.544089	-14.202846
1881.724460	-14.230316
1882.906315	-14.257979
1884.089655	-14.285474
1885.274483	-14.312995
1886.460803	-14.341028
1887.648616	-14.369795
1888.837927	-14.399034
1890.028736	-14.428436
1891.221049	-14.458033
1892.414866	-14.488033
1893.610192	-14.518498
1894.807028	-14.549305
1896.005379	-14.580331
1897.205246	-14.611592
1898.406633	-14.643219
1899.609542	-14.675268
1900.813977	-14.707652
1902.019940	-14.740358
1903.227434	-14.773667
1904.436462	-14.807890
1905.647028	-14.842983
1906.859133	-14.878450
1908.072781	-14.913893
1909.287976	-14.949530
1910.504719	-14.985922
1911.723013	-15.023321
1912.942863	-15.061300
1914.164270	-15.099266
1915.387238	-15.137268
1916.611770	-15.175895
1917.837868	-15.215578
1919.065536	-15.256090
1920.294777	-15.296856
1921.525594	-15.337479
1922.757989	-15.377980
1923.991967	-15.418786
1925.227529	-15.460430
1926.464679	-15.503192
1927.703420	-15.546760
1928.943755	-15.590482
1930.185688	-15.634171
1931.429221	-15.678340
1932.674356	-15.723633
1933.921099	-15.770144
1935.169451	-15.817419
1936.419415	-15.865036
1937.670996	-15.913036
1938.924195	-15.961852
1940.179017	-16.011914
1941.435463	-16.063309
1942.693538	-16.115723
1943.953245	-16.168716
1945.214586	-16.222163
1946.477566	-16.276312
1947.742186	-16.331362
1949.008451	-16.387225
1950.276363	-16.443718
1951.545926	-16.500674
1952.817143	-16.557945
1954.090017	-16.615306
1955.364551	-16.672696
1956.640749	-16.730379
1957.918615	-16.788478
1959.198150	-16.846720
1960.479359	-16.905011
1961.762244	-16.963772
1963.046810	-17.023224
1964.333059	-17.082810
1965.620995	-17.142060
1966.910621	-17.201620
1968.201940	-17.262614
1969.494956	-17.324975
1970.789672	-17.387452
1972.086091	-17.449511
1973.384217	-17.512151
1974.684053	-17.576617
1975.985602	-17.642866
1977.288869	-17.709682
1978.593855	-17.776572
1979.900566	-17.844741
1981.209003	-17.915421
1982.519171	-17.988072
1983.831073	-18.061203
1985.144712	-18.134423
1986.460093	-18.208618
1987.777217	-18.284386
1989.096089	-18.361084
1990.416713	-18.437869
1991.739092	-18.514844
1993.063228	-18.592552
1994.389127	-18.670713
1995.716791	-18.748570
1997.046223	-18.826355
1998.377428	-18.904852
1999.710409	-18.984138
2001.045169	-19.063804
2002.381713	-19.143842
2003.720043	-19.224442
2005.060163	-19.305430
2006.402077	-19.386427
2007.745788	-19.467213
2009.091301	-19.548333
2010.438618	-19.630929
2011.787743	-19.715478
2013.138680	-19.801002
2014.491433	-19.886564
2015.846005	-19.972736
2017.202399	-20.060255
2018.560621	-20.149153
2019.920673	-20.239802
2021.282558	-20.332847
2022.646281	-20.427569
2024.011846	-20.522174
2025.379256	-20.616155
2026.748515	-20.710615
2028.119626	-20.805839
2029.492594	-20.901213
2030.867422	-20.997334
2032.244114	-21.094517
2033.622673	-21.190967
2035.003104	-21.285781
2036.385411	-21.381473
2037.769597	-21.480480
2039.155665	-21.581721
2040.543621	-21.682503
2041.933467	-21.782759
2043.325208	-21.884733
2044.718847	-21.988541
2046.114389	-22.092055
2047.511837	-22.194890
2048.911195	-22.298813
2050.312467	-22.404242
2051.715657	-22.508881
2053.120769	-22.610769
2054.527807	-22.711400
2055.936775	-22.814113
2057.347677	-22.919365
2058.760516	-23.024750
2060.175297	-23.130232
2061.592025	-23.237940
2063.010701	-23.347908
2064.431332	-23.457916
2065.853921	-23.567584
2067.278472	-23.679810
2068.704988	-23.796427
2070.133475	-23.914750
2071.563936	-24.031712
2072.996375	-24.149142
2074.430796	-24.269391
2075.867204	-24.390258
2077.305603	-24.510046
2078.745996	-24.630729
2080.188389	-24.752122
2081.632784	-24.872687
2083.079187	-24.995658
2084.527601	-25.122455
2085.978030	-25.246601
2087.430480	-25.365708
2088.884954	-25.487352
2090.341455	-25.615256
2091.799990	-25.741851
2093.260561	-25.862143
2094.723173	-25.983172
2096.187831	-26.108821
2097.654538	-26.231810
2099.123300	-26.348428
2100.594119	-26.465070
2102.067001	-26.586469
2103.541950	-26.709837
2105.018971	-26.831492
2106.498067	-26.953147
2107.979243	-27.080121
2109.462503	-27.213705
2110.947853	-27.346987
2112.435295	-27.475965
2113.924836	-27.610340
2115.416478	-27.756598
2116.910227	-27.903807
2118.406087	-28.041446
2119.904063	-28.178015
2121.404158	-28.324860
2122.906378	-28.472392
2124.410727	-28.608801
2125.917210	-28.743399
2127.425831	-28.884936
2128.936594	-29.025022
2130.449505	-29.155403
2131.964567	-29.282406
2133.481786	-29.415866
2135.001166	-29.547474
2136.522711	-29.666657
2138.046427	-29.788777
2139.572317	-29.923836
2141.100388	-30.055135
2142.630642	-30.178665
2144.163085	-30.313226
2145.697722	-30.462925
2147.234558	-30.608583
2148.773596	-30.748285
2150.314842	-30.902891
2151.858301	-31.069900
2153.403977	-31.225885
2154.951875	-31.381032
2156.502000	-31.555012
2158.054357	-31.722995
2159.608950	-31.875774
2161.165785	-32.037687
2162.724866	-32.198947
2164.286198	-32.348027
2165.849786	-32.503238
2167.415635	-32.661530
2168.983749	-32.804531
2170.554134	-32.939275
2172.126795	-33.077715
2173.701737	-33.220805
2175.278964	-33.361387
2176.858481	-33.489874
2178.440294	-33.615151
2180.024408	-33.752804
2181.610827	-33.895882
2183.199557	-34.031994
2184.790602	-34.166477
2186.383968	-34.310941
2187.979660	-34.467774
2189.577683	-34.634498
2191.178041	-34.804718
2192.780741	-34.966113
2194.385787	-35.137365
2195.993185	-35.337496
2197.602939	-35.536057
2199.215054	-35.701065
