# 2022-03-22_00.51.10
# shape = sech2
# FWHM_ps = 0.1
# carrier_nm = 1542
# frep_MHz = 12126
# pow_mW = 8000
# GDD = 0.0
# propa_len = 0.14622222222222223
# untap_len = 0.01
# taper_len = 0.08622222222222223
# waist_len = 0.02
# uptap_len = 0.02
# untap_scale = 1.0
# waist_scale = 0.13157894736842107
# workingDir = NL_20110305_12 (Spirou)
# axis = slow
# window_ps = 10.0
# steps = 200
# points = 21700
# 
# wavelength [nm]	 power spectral density [dB]
600.043425	-94.312626
600.163550	-100.523960
600.283723	-97.702609
600.403943	-96.430692
600.524212	-90.148899
600.644529	-94.657958
600.764895	-90.637966
600.885308	-93.005368
601.005770	-90.443941
601.126280	-91.904802
601.246839	-105.286213
601.367446	-117.800795
601.488101	-100.170934
601.608804	-103.427793
601.729557	-94.035184
601.850357	-89.124851
601.971206	-87.465629
602.092104	-89.842173
602.213050	-90.008512
602.334045	-89.633009
602.455089	-89.461280
602.576181	-90.595092
602.697322	-91.343502
602.818511	-90.376359
602.939749	-90.694250
603.061036	-92.298965
603.182372	-96.416392
603.303757	-89.309434
603.425191	-88.513490
603.546673	-89.006066
603.668204	-92.261196
603.789785	-85.979582
603.911414	-85.971996
604.033092	-87.106572
604.154820	-90.038401
604.276596	-93.439150
604.398422	-92.179249
604.520297	-94.808812
604.642220	-96.115323
604.764193	-96.217564
604.886216	-104.727103
605.008287	-99.199318
605.130408	-97.847261
605.252578	-95.953105
605.374798	-95.273922
605.497066	-96.961665
605.619385	-92.102446
605.741752	-99.018368
605.864169	-95.871685
605.986636	-96.539321
606.109152	-107.682956
606.231718	-95.007659
606.354333	-93.015081
606.476998	-101.819468
606.599712	-93.515429
606.722476	-95.383777
606.845290	-91.837385
606.968154	-97.137137
607.091067	-94.155707
607.214030	-89.105684
607.337043	-88.534950
607.460106	-88.669862
607.583219	-86.103252
607.706381	-85.556549
607.829594	-84.332806
607.952856	-92.071979
608.076169	-89.879187
608.199531	-92.862120
608.322944	-90.950443
608.446407	-91.554365
608.569920	-87.707696
608.693483	-87.500957
608.817096	-88.549785
608.940759	-89.929418
609.064473	-88.815473
609.188237	-88.266278
609.312051	-92.748859
609.435916	-95.943668
609.559831	-109.723676
609.683796	-90.912410
609.807812	-110.316145
609.931878	-87.226718
610.055995	-92.419020
610.180162	-89.504756
610.304380	-94.366834
610.428648	-95.309041
610.552967	-102.668231
610.677337	-95.535935
610.801757	-91.965830
610.926228	-87.285376
611.050750	-86.876576
611.175323	-89.226076
611.299946	-89.121883
611.424620	-88.694232
611.549345	-94.220220
611.674121	-92.879535
611.798948	-87.601917
611.923826	-96.327192
612.048755	-87.189079
612.173734	-93.014993
612.298765	-87.541717
612.423847	-86.925277
612.548980	-91.966053
612.674165	-86.800584
612.799400	-91.086554
612.924687	-87.616240
613.050025	-91.223934
613.175414	-86.955421
613.300854	-91.765158
613.426346	-91.743350
613.551889	-88.268045
613.677484	-92.309980
613.803130	-84.447794
613.928827	-96.525595
614.054576	-94.218504
614.180377	-88.768931
614.306229	-90.617449
614.432132	-86.650101
614.558087	-87.551969
614.684094	-87.578711
614.810153	-92.064067
614.936263	-90.787227
615.062425	-106.193762
615.188639	-98.999228
615.314904	-84.963481
615.441222	-83.998572
615.567591	-84.410052
615.694012	-85.593349
615.820486	-85.839635
615.947011	-86.589126
616.073588	-96.403346
616.200217	-95.856424
616.326898	-86.800977
616.453632	-88.770544
616.580417	-87.403543
616.707255	-86.671633
616.834144	-86.094017
616.961086	-89.899128
617.088081	-89.279920
617.215127	-91.382064
617.342226	-87.921829
617.469378	-85.987405
617.596581	-100.468580
617.723837	-87.476900
617.851146	-94.808041
617.978507	-87.907202
618.105920	-85.265117
618.233386	-96.526243
618.360905	-87.990935
618.488476	-112.445980
618.616100	-90.935779
618.743777	-120.556013
618.871506	-97.115108
618.999288	-92.363099
619.127123	-101.514354
619.255011	-88.246633
619.382951	-96.549791
619.510945	-83.938053
619.638991	-89.773539
619.767090	-84.914696
619.895243	-92.351484
620.023448	-83.000470
620.151706	-95.393868
620.280017	-88.191253
620.408382	-88.068269
620.536799	-85.178419
620.665270	-86.122547
620.793794	-89.153297
620.922371	-87.291592
621.051002	-98.692521
621.179686	-84.382820
621.308423	-96.703521
621.437213	-87.955628
621.566057	-87.844166
621.694954	-87.219735
621.823905	-89.992251
621.952909	-101.264938
622.081967	-91.759352
622.211079	-92.551529
622.340244	-93.850762
622.469462	-84.058974
622.598735	-92.872839
622.728061	-83.131385
622.857441	-88.640674
622.986874	-82.755488
623.116361	-91.619793
623.245903	-86.116401
623.375498	-94.636910
623.505147	-87.557344
623.634850	-91.442707
623.764606	-86.340220
623.894417	-87.809520
624.024282	-90.124090
624.154201	-85.024008
624.284174	-89.752976
624.414202	-83.673446
624.544283	-94.083468
624.674419	-89.184539
624.804609	-88.585514
624.934853	-89.164871
625.065151	-83.452676
625.195504	-97.319706
625.325911	-87.934992
625.456373	-89.552598
625.586889	-88.135241
625.717460	-87.813613
625.848085	-91.949073
625.978764	-84.872157
626.109498	-89.563954
626.240287	-89.733667
626.371131	-88.268939
626.502029	-97.471865
626.632982	-85.743072
626.763989	-89.355986
626.895052	-86.809088
627.026169	-84.233414
627.157341	-90.551165
627.288568	-89.751098
627.419850	-96.604518
627.551187	-91.042982
627.682579	-87.506992
627.814026	-89.280106
627.945528	-94.720133
628.077085	-81.078738
628.208697	-89.219998
628.340364	-84.333405
628.472087	-91.288083
628.603865	-86.117785
628.735698	-92.895415
628.867586	-96.078609
628.999530	-100.593938
629.131529	-88.831147
629.263584	-94.330712
629.395694	-92.916101
629.527859	-92.302114
629.660080	-90.688432
629.792357	-91.362388
629.924689	-94.902227
630.057077	-94.355445
630.189520	-92.215151
630.322019	-88.645108
630.454574	-89.105751
630.587184	-93.408615
630.719851	-99.830373
630.852573	-93.871107
630.985351	-92.660600
631.118185	-87.941032
631.251075	-85.379279
631.384021	-85.958785
631.517023	-87.405282
631.650081	-85.378330
631.783195	-83.310335
631.916365	-80.518099
632.049592	-84.693626
632.182874	-83.219813
632.316213	-83.451952
632.449608	-90.037299
632.583059	-82.162459
632.716567	-90.792099
632.850131	-83.321973
632.983751	-81.809949
633.117428	-85.633720
633.251161	-82.578349
633.384951	-86.889226
633.518797	-82.231337
633.652700	-96.465930
633.786660	-87.302607
633.920676	-91.764458
634.054749	-84.891399
634.188879	-97.368666
634.323065	-82.831729
634.457308	-84.685831
634.591608	-84.690399
634.725965	-83.778495
634.860379	-89.312699
634.994850	-84.917620
635.129377	-83.458071
635.263962	-84.954466
635.398604	-84.039292
635.533303	-91.851590
635.668058	-88.988168
635.802872	-84.800692
635.937742	-84.810613
636.072669	-83.380656
636.207654	-84.200323
636.342696	-88.149781
636.477796	-87.372918
636.612953	-88.436104
636.748167	-85.158997
636.883439	-90.731827
637.018768	-93.735793
637.154155	-88.490622
637.289599	-85.407113
637.425101	-95.024443
637.560660	-89.450712
637.696277	-81.914668
637.831952	-84.077042
637.967685	-85.346606
638.103475	-90.665247
638.239324	-87.623380
638.375230	-83.357383
638.511194	-94.134614
638.647215	-85.612802
638.783295	-87.807901
638.919433	-100.998901
639.055629	-84.943155
639.191883	-81.762206
639.328195	-83.330410
639.464565	-80.764592
639.600994	-85.341999
639.737481	-81.041609
639.874025	-84.244526
640.010629	-86.445699
640.147290	-88.847766
640.284010	-87.736982
640.420789	-84.745222
640.557625	-85.272421
640.694521	-91.392398
640.831474	-89.935076
640.968487	-90.029805
641.105558	-84.950169
641.242687	-85.534741
641.379876	-91.347577
641.517123	-90.165335
641.654429	-85.622633
641.791793	-87.906581
641.929216	-82.462938
642.066699	-85.582665
642.204240	-79.792135
642.341840	-84.249503
642.479499	-83.557313
642.617217	-86.139180
642.754994	-85.414368
642.892830	-81.887749
643.030726	-81.115366
643.168680	-94.904581
643.306694	-83.424697
643.444767	-78.718927
643.582899	-80.785900
643.721091	-76.207636
643.859342	-82.085884
643.997652	-77.269230
644.136022	-76.825502
644.274451	-80.662399
644.412940	-77.222178
644.551488	-98.985293
644.690096	-88.217337
644.828763	-86.057419
644.967490	-86.852036
645.106277	-95.622624
645.245124	-82.905849
645.384030	-82.072643
645.522997	-79.387759
645.662023	-77.315328
645.801109	-79.081222
645.940255	-79.642785
646.079460	-84.308686
646.218726	-84.809821
646.358052	-87.615839
646.497438	-85.868610
646.636884	-78.698679
646.776391	-77.643299
646.915957	-74.963771
647.055584	-78.702644
647.195271	-81.485344
647.335019	-78.694583
647.474826	-88.302697
647.614695	-77.842743
647.754623	-87.444605
647.894612	-82.785141
648.034662	-83.790127
648.174772	-80.928138
648.314943	-81.089094
648.455174	-81.580045
648.595466	-78.336968
648.735819	-100.827370
648.876233	-78.193331
649.016707	-85.926787
649.157242	-82.836809
649.297838	-83.121066
649.438495	-79.565214
649.579213	-81.837530
649.719992	-79.486675
649.860832	-98.473302
650.001733	-88.508317
650.142695	-85.077380
650.283718	-86.818837
650.424803	-88.353037
650.565949	-78.053230
650.707156	-78.496096
650.848424	-75.886940
650.989754	-82.175387
651.131145	-80.545438
651.272597	-82.365510
651.414111	-84.116111
651.555687	-83.789240
651.697324	-86.335633
651.839022	-84.620618
651.980782	-81.226259
652.122604	-82.836258
652.264488	-77.339872
652.406433	-77.882130
652.548441	-88.298665
652.690510	-80.302979
652.832640	-81.642082
652.974833	-82.645631
653.117088	-88.089993
653.259405	-79.036937
653.401784	-92.717152
653.544224	-78.269915
653.686727	-82.182882
653.829293	-84.840541
653.971920	-82.577342
654.114609	-85.775853
654.257361	-89.457571
654.400175	-84.538994
654.543052	-76.944064
654.685991	-78.827030
654.828992	-74.467383
654.972056	-75.887288
655.115183	-74.470863
655.258372	-78.133609
655.401623	-80.210972
655.544937	-78.137173
655.688314	-78.108986
655.831754	-77.679713
655.975256	-82.568916
656.118822	-83.934534
656.262450	-85.050718
656.406141	-82.254464
656.549894	-93.739230
656.693711	-80.603761
656.837591	-79.346437
656.981534	-85.110055
657.125540	-77.066089
657.269610	-81.595923
657.413742	-81.645578
657.557938	-78.587576
657.702196	-87.129722
657.846519	-81.173077
657.990904	-100.135008
658.135353	-80.423723
658.279866	-85.475026
658.424441	-80.993972
658.569081	-90.322248
658.713784	-91.342193
658.858550	-79.324700
659.003381	-80.077762
659.148274	-82.111491
659.293232	-81.894694
659.438253	-86.614808
659.583339	-84.080558
659.728488	-80.325394
659.873701	-84.950149
660.018978	-83.458207
660.164318	-99.503259
660.309723	-89.835104
660.455192	-91.169636
660.600725	-85.306669
660.746323	-78.026714
660.891984	-77.781122
661.037710	-75.895292
661.183500	-79.008759
661.329354	-89.296735
661.475272	-79.096177
661.621255	-80.390356
661.767303	-83.062213
661.913415	-76.048921
662.059591	-86.207094
662.205833	-80.878301
662.352138	-75.384012
662.498509	-87.051502
662.644944	-75.587960
662.791443	-87.095979
662.938008	-78.713696
663.084638	-90.516765
663.231332	-77.116210
663.378091	-98.279402
663.524915	-82.354566
663.671804	-80.851157
663.818759	-95.460074
663.965778	-82.773021
664.112863	-81.702745
664.260012	-85.344954
664.407227	-76.174362
664.554507	-79.505668
664.701853	-76.620531
664.849264	-80.019306
664.996740	-79.453810
665.144282	-80.119732
665.291889	-81.610192
665.439561	-82.417523
665.587300	-86.364515
665.735103	-84.779076
665.882973	-76.143551
666.030908	-79.691230
666.178909	-80.184965
666.326976	-76.438694
666.475109	-76.337382
666.623307	-74.253544
666.771571	-74.124904
666.919902	-80.219553
667.068298	-82.231076
667.216761	-93.841205
667.365289	-77.984015
667.513884	-80.630899
667.662545	-78.952809
667.811272	-79.508323
667.960065	-85.109464
668.108925	-78.436503
668.257851	-77.203870
668.406843	-88.076879
668.555902	-89.507231
668.705027	-78.750211
668.854219	-79.484641
669.003478	-77.766854
669.152803	-82.759909
669.302195	-83.370693
669.451653	-77.781422
669.601179	-81.332496
669.750771	-81.612669
669.900430	-77.198231
670.050156	-83.089959
670.199949	-81.865030
670.349808	-73.703854
670.499735	-77.925903
670.649729	-75.307296
670.799790	-84.411341
670.949918	-75.611595
671.100114	-78.862371
671.250377	-74.979016
671.400707	-79.635558
671.551104	-84.701003
671.701569	-87.732732
671.852101	-81.038686
672.002700	-78.599559
672.153368	-85.386355
672.304102	-76.107605
672.454905	-76.324991
672.605775	-84.926542
672.756713	-79.935347
672.907718	-87.852920
673.058791	-76.210656
673.209933	-76.185345
673.361142	-72.670428
673.512419	-78.419661
673.663764	-79.408491
673.815177	-75.551828
673.966658	-78.744189
674.118207	-75.141722
674.269825	-76.360647
674.421510	-79.347244
674.573264	-70.925646
674.725086	-70.551689
674.876977	-73.376397
675.028936	-69.703814
675.180963	-80.753826
675.333059	-74.511172
675.485224	-86.414068
675.637457	-74.765836
675.789758	-91.495699
675.942129	-79.091598
676.094568	-83.958440
676.247075	-73.321721
676.399652	-78.290552
676.552298	-80.932045
676.705012	-73.413620
676.857795	-74.804102
677.010648	-78.121242
677.163569	-74.455955
677.316560	-86.450421
677.469619	-81.584886
677.622748	-87.749774
677.775946	-72.970060
677.929214	-75.305119
678.082551	-76.339289
678.235957	-82.190278
678.389432	-82.015935
678.542977	-79.357453
678.696592	-75.901534
678.850276	-84.668353
679.004030	-82.936358
679.157853	-81.098923
679.311746	-76.419663
679.465709	-79.462002
679.619742	-73.041023
679.773844	-72.502461
679.928017	-78.152675
680.082259	-74.086503
680.236571	-75.591999
680.390954	-92.322981
680.545406	-83.534157
680.699929	-80.261437
680.854522	-74.631882
681.009185	-81.855917
681.163918	-77.957389
681.318722	-72.995195
681.473596	-73.247321
681.628540	-71.740425
681.783555	-69.161425
681.938641	-71.384683
682.093797	-74.839602
682.249023	-81.339491
682.404321	-76.708458
682.559689	-76.597546
682.715128	-75.961744
682.870637	-75.594092
683.026218	-86.974111
683.181869	-81.663760
683.337591	-87.666116
683.493385	-76.738735
683.649249	-92.956452
683.805185	-79.290512
683.961191	-73.170557
684.117269	-72.572347
684.273418	-70.994798
684.429639	-69.716481
684.585930	-78.332577
684.742294	-81.645044
684.898728	-77.975102
685.055234	-77.250624
685.211812	-72.707848
685.368461	-72.469518
685.525182	-69.320591
685.681975	-78.430126
685.838839	-83.004382
685.995775	-81.763398
686.152783	-73.763060
686.309863	-80.349033
686.467014	-81.839578
686.624238	-75.302000
686.781534	-79.644807
686.938902	-81.046615
687.096342	-72.916169
687.253854	-71.383476
687.411438	-76.963928
687.569095	-77.588738
687.726824	-78.550749
687.884626	-79.660853
688.042499	-80.160829
688.200446	-74.060577
688.358465	-73.917160
688.516556	-80.712576
688.674720	-77.159249
688.832957	-80.041294
688.991266	-75.571456
689.149649	-86.223508
689.308104	-84.046566
689.466632	-72.460044
689.625233	-75.775255
689.783906	-92.021935
689.942653	-77.193912
690.101473	-70.013475
690.260367	-72.317360
690.419333	-73.888814
690.578372	-69.509399
690.737485	-69.842982
690.896672	-73.941107
691.055931	-73.609743
691.215264	-79.900986
691.374671	-74.735419
691.534151	-76.133006
691.693704	-75.215314
691.853332	-83.489925
692.013033	-88.710870
692.172807	-86.284825
692.332656	-74.807855
692.492578	-75.376145
692.652575	-74.077122
692.812645	-76.102128
692.972789	-80.875660
693.133007	-77.273883
693.293300	-73.552838
693.453666	-70.417663
693.614107	-76.590762
693.774622	-79.403803
693.935211	-80.523908
694.095875	-74.136182
694.256613	-73.385546
694.417426	-75.407162
694.578313	-72.054215
694.739274	-85.030885
694.900311	-76.131188
695.061421	-82.754258
695.222607	-75.048219
695.383868	-74.208307
695.545203	-85.901550
695.706613	-99.747388
695.868098	-78.311550
696.029658	-73.151709
696.191293	-73.447538
696.353003	-78.201048
696.514789	-90.683088
696.676649	-75.880667
696.838585	-75.050020
697.000596	-74.353963
697.162682	-76.001530
697.324844	-96.401304
697.487081	-93.317480
697.649394	-76.790144
697.811782	-72.720957
697.974246	-81.610509
698.136786	-78.300489
698.299401	-80.162640
698.462092	-73.508903
698.624859	-78.424052
698.787702	-76.692947
698.950621	-73.329010
699.113616	-73.914483
699.276686	-82.289919
699.439833	-85.069648
699.603056	-76.476775
699.766355	-77.860933
699.929731	-94.304258
700.093183	-80.801876
700.256711	-75.190724
700.420315	-72.889755
700.583996	-77.235865
700.747754	-80.957903
700.911588	-74.015849
701.075499	-73.392903
701.239486	-75.809284
701.403550	-77.828531
701.567691	-74.473900
701.731909	-77.964357
701.896203	-78.760863
702.060575	-77.653702
702.225024	-72.009544
702.389549	-75.733263
702.554152	-74.894420
702.718832	-74.920292
702.883589	-71.183426
703.048424	-74.106295
703.213335	-75.153907
703.378324	-77.753683
703.543391	-82.085976
703.708535	-79.462132
703.873757	-88.674063
704.039056	-85.130561
704.204433	-75.458681
704.369887	-71.887608
704.535420	-72.149353
704.701030	-74.313762
704.866718	-72.083852
705.032484	-71.641258
705.198328	-69.743470
705.364250	-71.158911
705.530250	-88.720145
705.696328	-80.515758
705.862485	-72.996187
706.028720	-71.099322
706.195033	-78.425183
706.361424	-77.693268
706.527894	-77.495450
706.694442	-73.303850
706.861069	-72.073932
707.027775	-71.385427
707.194559	-73.155725
707.361422	-72.699503
707.528363	-72.415461
707.695384	-71.432998
707.862483	-74.515422
708.029661	-73.812798
708.196918	-73.422355
708.364254	-70.917694
708.531670	-71.227631
708.699164	-69.869755
708.866738	-70.539141
709.034391	-70.937466
709.202123	-73.772541
709.369935	-72.138936
709.537826	-69.103175
709.705796	-69.364257
709.873847	-72.958626
710.041976	-72.133504
710.210186	-69.225744
710.378475	-67.454092
710.546844	-67.446503
710.715292	-66.912041
710.883821	-69.024196
711.052429	-72.444651
711.221118	-77.753045
711.389887	-73.803995
711.558735	-70.787921
711.727664	-67.942925
711.896673	-68.082002
712.065763	-67.938930
712.234932	-67.829690
712.404183	-66.974086
712.573513	-70.801713
712.742924	-80.385590
712.912416	-78.730258
713.081988	-69.443654
713.251641	-68.438179
713.421375	-69.947427
713.591190	-69.795619
713.761085	-67.442438
713.931061	-67.445119
714.101119	-67.854212
714.271257	-65.196634
714.441476	-63.313180
714.611777	-65.078392
714.782159	-71.964259
714.952622	-70.716293
715.123166	-66.699948
715.293792	-65.317275
715.464499	-66.255514
715.635288	-68.514172
715.806158	-67.608628
715.977110	-67.665054
716.148143	-66.611034
716.319259	-66.406004
716.490456	-67.973978
716.661735	-70.561725
716.833096	-72.434921
717.004538	-67.128683
717.176063	-66.206349
717.347670	-64.573975
717.519359	-64.044705
717.691130	-63.094291
717.862984	-64.599305
718.034920	-67.309396
718.206938	-66.198625
718.379039	-65.204995
718.551222	-66.925546
718.723488	-71.095617
718.895836	-69.154547
719.068267	-64.769378
719.240781	-63.047235
719.413377	-63.464139
719.586057	-63.951530
719.758819	-63.151098
719.931664	-66.103622
720.104593	-68.522220
720.277604	-68.401838
720.450699	-66.469399
720.623876	-64.895689
720.797137	-62.298421
720.970482	-61.544254
721.143910	-63.464176
721.317421	-66.211635
721.491016	-69.566599
721.664694	-66.488546
721.838456	-68.152676
722.012302	-63.902999
722.186231	-61.393733
722.360244	-60.598143
722.534342	-63.559675
722.708523	-66.270622
722.882788	-65.287466
723.057137	-66.552028
723.231570	-66.221878
723.406088	-62.552222
723.580689	-60.688555
723.755375	-60.991445
723.930146	-61.649160
724.105000	-64.277457
724.279940	-65.337978
724.454963	-69.221292
724.630072	-66.799017
724.805265	-64.047996
724.980543	-63.340998
725.155905	-64.031787
725.331353	-63.374468
725.506885	-62.666251
725.682503	-63.037584
725.858205	-62.924653
726.033993	-61.720184
726.209865	-60.939734
726.385823	-62.795162
726.561866	-64.626776
726.737995	-65.650622
726.914209	-62.806244
727.090508	-63.087407
727.266893	-61.498984
727.443364	-60.372329
727.619920	-60.389334
727.796562	-62.465210
727.973290	-64.611313
728.150103	-64.057570
728.327003	-65.049865
728.503988	-62.612579
728.681060	-63.167542
728.858218	-63.917806
729.035461	-66.087188
729.212791	-63.256663
729.390208	-61.408182
729.567710	-60.905564
729.745299	-62.493462
729.922975	-62.081608
730.100737	-61.506864
730.278586	-61.832272
730.456521	-61.484348
730.634543	-62.770828
730.812652	-63.423161
730.990848	-63.815405
731.169130	-62.212325
731.347500	-61.494035
731.525957	-61.817239
731.704500	-62.112849
731.883131	-60.575141
732.061850	-60.214967
732.240655	-61.003081
732.419548	-63.483515
732.598528	-65.744442
732.777596	-64.899568
732.956751	-61.110768
733.135994	-59.396810
733.315325	-59.942859
733.494744	-62.495598
733.674250	-63.371890
733.853844	-61.211394
734.033526	-60.547339
734.213296	-61.610187
734.393154	-62.203169
734.573101	-61.293309
734.753135	-61.079717
734.933258	-62.716435
735.113469	-64.567146
735.293769	-63.520463
735.474157	-62.795707
735.654633	-60.467524
735.835198	-61.247859
736.015852	-62.973590
736.196594	-62.159276
736.377426	-59.764076
736.558346	-59.647309
736.739355	-61.781980
736.920453	-60.623457
737.101640	-59.786596
737.282916	-61.968334
737.464282	-66.304320
737.645736	-63.461467
737.827280	-61.798839
738.008914	-61.350686
738.190637	-61.301314
738.372449	-62.266753
738.554351	-64.631855
738.736342	-62.865187
738.918424	-59.367976
739.100595	-59.275536
739.282855	-62.623961
739.465206	-62.869565
739.647647	-60.313466
739.830178	-61.413596
740.012799	-63.593124
740.195510	-61.740369
740.378311	-60.777402
740.561203	-61.862536
740.744185	-62.693197
740.927258	-59.578168
741.110421	-59.893240
741.293674	-64.964879
741.477018	-65.725736
741.660453	-60.307110
741.843979	-60.493956
742.027596	-63.320434
742.211303	-64.793897
742.395102	-63.803068
742.578991	-63.359037
742.762972	-60.131330
742.947044	-58.819014
743.131207	-62.407390
743.315461	-63.296857
743.499807	-59.244060
743.684244	-58.466703
743.868773	-61.195888
744.053394	-65.039633
744.238106	-62.641142
744.422910	-62.303976
744.607805	-63.608534
744.792793	-64.601697
744.977872	-62.606269
745.163044	-60.322265
745.348307	-60.997103
745.533663	-63.151550
745.719111	-64.398102
745.904651	-60.315894
746.090283	-59.242068
746.276008	-63.187059
746.461826	-63.974198
746.647735	-61.662993
746.833738	-63.729133
747.019833	-72.209034
747.206021	-66.919225
747.392302	-63.796851
747.578676	-64.392523
747.765143	-60.663040
747.951703	-61.193044
748.138356	-66.857674
748.325102	-64.212025
748.511941	-59.175965
748.698874	-61.301062
748.885900	-66.898083
749.073019	-61.560977
749.260232	-61.106267
749.447539	-66.187399
749.634939	-67.971193
749.822433	-61.395050
750.010021	-61.379124
750.197703	-63.458229
750.385479	-67.239184
750.573348	-69.507464
750.761312	-62.433452
750.949370	-59.218618
751.137523	-63.303765
751.325769	-65.897813
751.514110	-59.694127
751.702545	-60.909461
751.891075	-66.527846
752.079700	-67.261464
752.268419	-63.256258
752.457233	-65.117656
752.646142	-66.769266
752.835145	-61.797132
753.024244	-62.774983
753.213437	-65.420718
753.402726	-63.063012
753.592110	-62.513962
753.781589	-64.106863
753.971163	-64.975995
754.160833	-64.751219
754.350598	-69.362862
754.540459	-70.482170
754.730415	-63.669732
754.920467	-62.313938
755.110615	-62.514453
755.300858	-61.892525
755.491198	-66.791718
755.681633	-69.803788
755.872164	-62.360988
756.062792	-59.694791
756.253515	-63.659676
756.444335	-62.023614
756.635252	-60.809273
756.826264	-67.176168
757.017373	-69.718333
757.208579	-69.191953
757.399881	-64.753938
757.591280	-61.913172
757.782776	-61.960978
757.974368	-67.550429
758.166058	-63.399330
758.357844	-61.364433
758.549728	-62.811031
758.741708	-71.419367
758.933786	-62.514830
759.125961	-59.214050
759.318233	-61.156867
759.510603	-60.523240
759.703071	-64.563982
759.895635	-74.651036
760.088298	-67.361428
760.281058	-60.815417
760.473916	-60.106703
760.666872	-61.888558
760.859926	-59.892817
761.053078	-63.810053
761.246328	-65.993279
761.439676	-60.878723
761.633122	-60.310210
761.826667	-63.266184
762.020310	-62.202946
762.214052	-61.994535
762.407892	-63.637560
762.601831	-58.861537
762.795868	-59.827515
762.990004	-64.310570
763.184239	-62.466585
763.378573	-60.193784
763.573006	-60.421977
763.767538	-59.949911
763.962169	-59.822921
764.156900	-64.134685
764.351729	-61.818613
764.546658	-59.708622
764.741687	-59.702008
764.936815	-60.253524
765.132042	-58.798166
765.327370	-59.196067
765.522797	-57.686013
765.718324	-58.765041
765.913950	-60.930137
766.109677	-60.696463
766.305504	-61.326633
766.501431	-58.696154
766.697458	-57.817544
766.893586	-58.504620
767.089814	-60.539497
767.286142	-62.309093
767.482571	-60.031883
767.679100	-59.441033
767.875730	-58.868649
768.072461	-57.749407
768.269293	-56.577282
768.466225	-58.263678
768.663259	-57.734557
768.860393	-58.626148
769.057629	-61.268977
769.254966	-57.615750
769.452404	-56.663366
769.649944	-58.337679
769.847585	-57.832733
770.045328	-55.090878
770.243172	-55.681802
770.441118	-57.460857
770.639166	-59.249567
770.837315	-60.529979
771.035567	-58.803078
771.233920	-56.598164
771.432376	-57.298504
771.630934	-55.930640
771.829594	-56.277963
772.028356	-56.092734
772.227220	-54.127867
772.426188	-56.760381
772.625257	-61.346420
772.824430	-56.495701
773.023705	-54.885480
773.223083	-56.631127
773.422563	-55.021997
773.622147	-54.800290
773.821834	-55.964930
774.021624	-56.212935
774.221517	-55.914974
774.421513	-56.269088
774.621613	-56.048001
774.821816	-54.872638
775.022122	-55.360818
775.222532	-56.599529
775.423046	-54.853912
775.623664	-56.973432
775.824385	-53.935375
776.025211	-53.038887
776.226140	-55.658190
776.427173	-55.701195
776.628311	-54.329010
776.829553	-56.448126
777.030899	-54.486328
777.232350	-53.451111
777.433905	-54.797845
777.635564	-53.528332
777.837328	-53.411470
778.039197	-54.779513
778.241171	-55.392990
778.443250	-55.257595
778.645433	-55.125932
778.847722	-55.104270
779.050116	-53.594040
779.252615	-52.854951
779.455219	-52.438334
779.657929	-52.673758
779.860744	-53.906447
780.063665	-54.117494
780.266691	-53.109596
780.469823	-53.909745
780.673061	-55.341226
780.876405	-54.059693
781.079855	-54.258887
781.283410	-53.525687
781.487072	-52.598558
781.690840	-52.486591
781.894715	-52.383122
782.098695	-52.464762
782.302783	-53.099350
782.506976	-53.075883
782.711277	-53.917327
782.915684	-54.564945
783.120198	-52.376103
783.324818	-52.088160
783.529546	-53.226798
783.734381	-51.751936
783.939322	-51.555129
784.144372	-51.626841
784.349528	-51.514566
784.554792	-52.779955
784.760163	-52.759294
784.965642	-51.808348
785.171228	-54.292561
785.376922	-52.108177
785.582724	-50.913656
785.788634	-52.552349
785.994651	-51.400052
786.200777	-51.982467
786.407011	-53.023443
786.613353	-51.252838
786.819804	-52.259943
787.026363	-51.095168
787.233030	-51.506798
787.439806	-51.214437
787.646691	-52.252383
787.853684	-52.306102
788.060786	-51.738556
788.267997	-51.216997
788.475317	-50.395307
788.682746	-49.791959
788.890285	-50.795298
789.097932	-50.397228
789.305689	-50.294395
789.513555	-51.908453
789.721531	-50.620654
789.929617	-51.672633
790.137812	-51.697744
790.346117	-50.069956
790.554531	-51.608025
790.763056	-51.426526
790.971691	-51.206860
791.180436	-51.545159
791.389291	-50.095804
791.598256	-49.513742
791.807332	-50.802810
792.016518	-49.898825
792.225815	-50.661732
792.435222	-50.217424
792.644740	-49.785522
792.854369	-50.999337
793.064109	-50.921905
793.273960	-50.397794
793.483922	-51.225163
793.693995	-49.450094
793.904180	-50.602306
794.114475	-49.007280
794.324882	-48.993017
794.535401	-50.035410
794.746031	-50.296082
794.956774	-49.703873
795.167627	-48.995810
795.378593	-49.293047
795.589671	-49.722961
795.800861	-49.675915
796.012162	-50.339477
796.223577	-49.463842
796.435103	-49.415508
796.646742	-50.508999
796.858493	-49.727956
797.070357	-50.631168
797.282334	-50.523760
797.494423	-48.000637
797.706626	-49.404773
797.918941	-47.993146
798.131369	-48.284251
798.343911	-49.259887
798.556566	-48.595716
798.769334	-49.270274
798.982215	-49.804810
799.195210	-48.384599
799.408319	-49.846790
799.621541	-48.806714
799.834877	-49.462680
800.048327	-49.382633
800.261890	-48.192996
800.475568	-49.795083
800.689360	-49.508957
800.903266	-49.056682
801.117287	-48.795111
801.331422	-47.896997
801.545671	-49.467958
801.760036	-48.960559
801.974514	-47.950687
802.189108	-48.755195
802.403816	-48.919033
802.618640	-49.455578
802.833578	-48.566947
803.048632	-48.914358
803.263800	-49.526203
803.479085	-48.977487
803.694484	-48.047772
803.909999	-47.441120
804.125630	-48.664166
804.341376	-49.386483
804.557239	-47.404099
804.773217	-48.538070
804.989311	-48.199813
805.205521	-48.730674
805.421847	-49.155829
805.638290	-47.347372
805.854849	-48.387502
806.071524	-48.256927
806.288316	-47.315694
806.505225	-47.939234
806.722250	-47.447522
806.939393	-48.400377
807.156652	-48.477044
807.374028	-47.062355
807.591521	-49.110290
807.809132	-47.939235
808.026859	-48.040701
808.244705	-48.422696
808.462667	-46.627485
808.680748	-49.274798
808.898946	-47.463725
809.117261	-47.078354
809.335695	-48.324004
809.554246	-47.732322
809.772916	-47.429955
809.991704	-48.374800
810.210610	-47.786747
810.429634	-48.739921
810.648777	-47.468549
810.868039	-46.516178
811.087419	-47.349363
811.306918	-47.540197
811.526535	-47.632683
811.746272	-48.043429
811.966127	-47.570282
812.186102	-47.632208
812.406196	-47.425338
812.626409	-47.766369
812.846742	-47.715794
813.067194	-47.505604
813.287766	-47.383482
813.508457	-47.979887
813.729269	-47.416921
813.950200	-47.238304
814.171251	-47.425092
814.392422	-47.374710
814.613714	-47.937287
814.835126	-47.245015
815.056658	-47.024695
815.278311	-46.988512
815.500084	-47.081183
815.721978	-47.224595
815.943993	-47.831071
816.166128	-46.102447
816.388385	-47.222029
816.610762	-47.975906
816.833261	-47.174017
817.055881	-47.770404
817.278623	-46.649392
817.501486	-46.828530
817.724471	-47.721198
817.947577	-46.422998
818.170805	-47.444563
818.394155	-47.967854
818.617627	-45.965372
818.841221	-46.936213
819.064937	-47.443465
819.288775	-47.295958
819.512736	-47.207260
819.736819	-46.326154
819.961025	-46.797918
820.185354	-47.575858
820.409805	-46.955367
820.634379	-46.671985
820.859076	-47.048185
821.083897	-46.979859
821.308840	-46.393911
821.533907	-47.385815
821.759097	-46.828361
821.984411	-46.492091
822.209848	-46.983093
822.435409	-46.535665
822.661093	-46.277886
822.886902	-46.978443
823.112834	-45.958105
823.338891	-46.706354
823.565072	-46.832952
823.791377	-46.330011
824.017807	-46.706223
824.244361	-46.935684
824.471039	-45.034274
824.697843	-47.033318
824.924771	-45.916582
825.151824	-46.155817
825.379002	-46.513904
825.606306	-45.917339
825.833734	-46.017344
826.061288	-46.356480
826.288967	-45.508722
826.516772	-45.846358
826.744703	-46.667285
826.972759	-45.559280
827.200941	-46.231004
827.429249	-45.897018
827.657683	-45.564299
827.886243	-46.208296
828.114930	-45.821059
828.343743	-45.294474
828.572682	-45.759114
828.801748	-45.420454
829.030941	-45.788895
829.260260	-45.312015
829.489706	-46.002902
829.719280	-45.172053
829.948980	-44.950775
830.178808	-46.322147
830.408763	-44.513140
830.638845	-45.648667
830.869055	-45.504839
831.099393	-43.717664
831.329858	-46.651069
831.560451	-44.487326
831.791173	-44.830140
832.022022	-45.698128
832.252999	-43.990853
832.484105	-44.672729
832.715339	-45.707562
832.946702	-44.349558
833.178193	-44.457591
833.409813	-45.271054
833.641561	-44.340548
833.873439	-44.093919
834.105445	-44.877397
834.337581	-43.987993
834.569846	-43.815939
834.802241	-45.103628
835.034764	-43.257497
835.267418	-44.537810
835.500201	-44.829262
835.733114	-43.359878
835.966157	-44.149261
836.199329	-44.171953
836.432632	-43.608763
836.666065	-43.508141
836.899629	-44.464332
837.133323	-43.208972
837.367147	-43.750974
837.601102	-44.135425
837.835188	-42.915153
838.069405	-43.918020
838.303752	-43.989046
838.538231	-42.535238
838.772841	-43.163681
839.007582	-43.399401
839.242455	-43.057514
839.477459	-42.623823
839.712595	-43.572205
839.947863	-42.652806
840.183263	-42.059628
840.418794	-44.019211
840.654458	-42.415243
840.890254	-42.069161
841.126182	-43.396852
841.362242	-42.116179
841.598435	-42.543938
841.834761	-42.664399
842.071220	-42.538016
842.307811	-41.834399
842.544536	-42.308864
842.781393	-42.893307
843.018384	-41.425543
843.255508	-42.359900
843.492765	-41.956002
843.730156	-41.613633
843.967681	-41.915316
844.205339	-42.106424
844.443132	-41.569890
844.681058	-41.363342
844.919118	-41.967014
845.157313	-41.334786
845.395642	-41.298620
845.634105	-41.733451
845.872703	-41.101238
846.111436	-41.083800
846.350303	-41.514632
846.589306	-41.306326
846.828443	-40.924278
847.067716	-40.741368
847.307124	-41.411483
847.546667	-40.334295
847.786345	-41.111087
848.026160	-40.969679
848.266110	-40.723293
848.506195	-40.701254
848.746417	-40.441583
848.986775	-40.759822
849.227269	-40.259008
849.467899	-41.039073
849.708666	-40.628304
849.949569	-40.490202
850.190609	-40.499651
850.431785	-40.097880
850.673099	-40.468330
850.914549	-40.117608
851.156137	-40.575599
851.397861	-40.097295
851.639723	-40.189276
851.881723	-40.046990
852.123860	-39.556656
852.366135	-40.010710
852.608547	-40.047702
852.851098	-39.944661
853.093786	-39.727065
853.336613	-39.736437
853.579578	-39.763472
853.822681	-39.210216
854.065923	-39.662016
854.309304	-39.544720
854.552823	-39.632082
854.796481	-39.371702
855.040278	-39.143744
855.284215	-39.378275
855.528290	-39.247747
855.772505	-39.439756
856.016859	-38.999958
856.261353	-39.002258
856.505987	-39.432868
856.750760	-39.013734
856.995673	-39.384138
857.240727	-39.057745
857.485920	-39.277171
857.731254	-38.573791
857.976729	-38.906881
858.222343	-39.109644
858.468099	-38.965134
858.713995	-38.820283
858.960032	-38.401945
859.206211	-38.840582
859.452530	-38.527999
859.698991	-38.732457
859.945593	-38.417072
860.192336	-38.476555
860.439222	-38.622634
860.686248	-38.141924
860.933417	-38.619079
861.180728	-38.378568
861.428181	-38.539675
861.675776	-37.761466
861.923514	-38.112146
862.171394	-38.272448
862.419417	-38.426074
862.667582	-38.173459
862.915890	-37.930605
863.164342	-38.137082
863.412936	-37.996661
863.661674	-38.262139
863.910555	-37.629852
864.159579	-38.141770
864.408747	-37.926736
864.658059	-38.009277
864.907515	-37.501775
865.157114	-37.583798
865.406858	-37.761353
865.656746	-37.481319
865.906778	-37.847233
866.156955	-37.468246
866.407277	-38.056507
866.657743	-37.432358
866.908354	-37.736919
867.159110	-37.285490
867.410011	-37.477750
867.661057	-37.523441
867.912249	-37.155515
868.163586	-37.701091
868.415069	-37.073831
868.666697	-37.643090
868.918472	-37.102742
869.170392	-37.474091
869.422458	-37.034410
869.674671	-36.982739
869.927030	-37.233401
870.179536	-36.796588
870.432188	-37.305506
870.684987	-36.894770
870.937933	-37.300498
871.191026	-36.641432
871.444266	-37.192404
871.697653	-36.973633
871.951188	-36.834259
872.204870	-36.836384
872.458700	-36.634498
872.712677	-37.026119
872.966803	-36.552846
873.221076	-36.921034
873.475498	-36.530858
873.730068	-36.645694
873.984787	-36.590292
874.239654	-36.414609
874.494669	-36.507442
874.749834	-36.401421
875.005147	-36.681804
875.260610	-36.414252
875.516222	-36.443046
875.771983	-36.191893
876.027894	-36.613544
876.283954	-36.200055
876.540164	-36.409649
876.796524	-36.111317
877.053033	-36.394702
877.309693	-35.971128
877.566503	-36.090142
877.823464	-36.239485
878.080575	-36.007921
878.337837	-36.147980
878.595249	-35.862262
878.852813	-36.239456
879.110528	-35.685690
879.368393	-36.158783
879.626410	-35.804687
879.884579	-36.016656
880.142899	-35.870877
880.401371	-35.744607
880.659994	-35.771906
880.918770	-35.731676
881.177698	-35.787437
881.436778	-35.594651
881.696010	-35.691248
881.955395	-35.617744
882.214933	-35.641875
882.474623	-35.437299
882.734467	-35.806348
882.994463	-35.245181
883.254613	-35.735020
883.514916	-35.335869
883.775372	-35.468857
884.035982	-35.327224
884.296746	-35.267360
884.557664	-35.429987
884.818735	-35.064223
885.079961	-35.324348
885.341341	-35.220124
885.602876	-35.149420
885.864565	-35.267082
886.126409	-34.910882
886.388407	-35.183915
886.650561	-35.116766
886.912870	-34.898412
887.175334	-35.092806
887.437953	-34.661376
887.700728	-35.097697
887.963658	-34.739643
888.226745	-34.839260
888.489987	-34.775508
888.753385	-34.653303
889.016940	-34.929964
889.280651	-34.525416
889.544518	-34.691455
889.808543	-34.641790
890.072723	-34.486489
890.337061	-34.641761
890.601556	-34.421125
890.866208	-34.435731
891.131017	-34.454364
891.395984	-34.368624
891.661109	-34.406352
891.926391	-34.018272
892.191831	-34.615116
892.457429	-34.014777
892.723186	-34.337458
892.989100	-34.122639
893.255173	-34.040976
893.521405	-34.032693
893.787796	-34.014877
894.054345	-34.075998
894.321053	-33.739365
894.587921	-34.005442
894.854948	-33.853978
895.122134	-33.608331
895.389480	-33.902926
895.656986	-33.606967
895.924651	-33.527740
896.192477	-33.811524
896.460463	-33.400875
896.728609	-33.626407
896.996915	-33.280910
897.265382	-33.550222
897.534010	-33.260406
897.802799	-33.377901
898.071749	-33.326871
898.340860	-33.149487
898.610132	-33.126987
898.879566	-33.234713
899.149162	-32.927849
899.418919	-33.119413
899.688838	-32.938577
899.958919	-32.954909
900.229162	-32.929895
900.499568	-32.953191
900.770136	-32.795032
901.040867	-32.807544
901.311761	-32.789319
901.582817	-32.559911
901.854037	-32.777893
902.125420	-32.608006
902.396966	-32.593351
902.668676	-32.549545
902.940550	-32.615321
903.212587	-32.358127
903.484788	-32.540319
903.757153	-32.287492
904.029683	-32.467178
904.302377	-32.120495
904.575236	-32.434656
904.848259	-32.107539
905.121447	-32.301650
905.394800	-32.042514
905.668319	-32.233631
905.942002	-31.867529
906.215852	-32.259603
906.489866	-31.821074
906.764047	-32.061523
907.038393	-31.888558
907.312906	-31.866549
907.587584	-31.762894
907.862429	-32.015020
908.137441	-31.548474
908.412619	-31.923819
908.687964	-31.616010
908.963476	-31.595236
909.239155	-31.691870
909.515002	-31.583316
909.791015	-31.487858
910.067197	-31.519767
910.343546	-31.358946
910.620063	-31.587492
910.896748	-31.231494
911.173601	-31.391687
911.450623	-31.364539
911.727813	-31.182387
912.005171	-31.258295
912.282699	-31.231523
912.560395	-31.088373
912.838261	-31.239975
913.116296	-31.103797
913.394500	-31.039194
913.672874	-31.050283
913.951418	-31.076521
914.230131	-30.979692
914.509015	-30.994230
914.788068	-30.881852
915.067292	-30.919888
915.346687	-30.869209
915.626252	-30.846108
915.905988	-30.801343
916.185895	-30.745992
916.465973	-30.729712
916.746223	-30.636651
917.026644	-30.676408
917.307236	-30.665801
917.588000	-30.472423
917.868937	-30.568179
918.150045	-30.454208
918.431325	-30.509279
918.712778	-30.514626
918.994404	-30.277047
919.276202	-30.428575
919.558173	-30.273964
919.840317	-30.379007
920.122634	-30.309244
920.405125	-30.301567
920.687789	-30.116322
920.970627	-30.335784
921.253639	-30.019126
921.536824	-30.300523
921.820184	-30.075181
922.103718	-30.113380
922.387427	-29.928798
922.671310	-30.211441
922.955368	-29.715441
923.239601	-30.208602
923.524009	-29.792714
923.808592	-29.950807
924.093351	-29.738197
924.378285	-29.973815
924.663396	-29.525036
924.948682	-30.044052
925.234144	-29.541514
925.519782	-29.889346
925.805597	-29.500679
926.091589	-29.847776
926.377757	-29.391508
926.664102	-29.863205
926.950624	-29.411007
927.237323	-29.767732
927.524200	-29.361292
927.811255	-29.658135
928.098487	-29.320171
928.385897	-29.622733
928.673485	-29.303574
928.961251	-29.482380
929.249196	-29.261874
929.537319	-29.437233
929.825621	-29.132640
930.114102	-29.382121
930.402762	-29.090515
930.691601	-29.210503
930.980620	-29.179529
931.269818	-29.117542
931.559196	-28.981000
931.848753	-29.190894
932.138491	-28.892307
932.428409	-28.985027
932.718508	-29.064329
933.008787	-28.983904
933.299246	-28.824837
933.589887	-29.084701
933.880709	-28.789964
934.171712	-28.928266
934.462896	-28.993502
934.754262	-28.780093
935.045810	-28.956291
935.337539	-28.950127
935.629451	-28.784064
935.921545	-28.887903
936.213822	-28.880590
936.506281	-28.745727
936.798922	-28.905675
937.091747	-28.832496
937.384755	-28.771273
937.677946	-28.742988
937.971321	-28.871557
938.264879	-28.639106
938.558621	-28.855942
938.852547	-28.627189
939.146657	-28.810878
939.440952	-28.708442
939.735431	-28.748540
940.030095	-28.674744
940.324943	-28.724635
940.619977	-28.649934
940.915196	-28.757130
941.210600	-28.533953
941.506189	-28.785879
941.801965	-28.648364
942.097926	-28.659739
942.394074	-28.603475
942.690407	-28.755835
942.986927	-28.526881
943.283634	-28.583517
943.580527	-28.717118
943.877608	-28.396336
944.174875	-28.650713
944.472330	-28.638517
944.769972	-28.337181
945.067802	-28.595205
945.365820	-28.563066
945.664026	-28.299195
945.962420	-28.509313
946.261002	-28.449804
946.559773	-28.341200
946.858733	-28.324992
947.157881	-28.514498
947.457219	-28.149494
947.756746	-28.456777
948.056462	-28.276612
948.356368	-28.334689
948.656464	-28.216676
948.956749	-28.401651
949.257225	-28.193945
949.557891	-28.330996
949.858748	-28.213293
950.159796	-28.274074
950.461034	-28.308844
950.762463	-28.133846
951.064084	-28.316203
951.365896	-28.184523
951.667900	-28.224818
951.970095	-28.129465
952.272483	-28.356755
952.575063	-27.964830
952.877835	-28.257770
953.180799	-28.146361
953.483956	-28.105252
953.787307	-27.973222
954.090850	-28.360165
954.394586	-27.822442
954.698516	-28.132855
955.002640	-28.064200
955.306957	-27.989970
955.611469	-27.929295
955.916174	-28.074000
956.221074	-27.929581
956.526169	-27.848654
956.831458	-28.059497
957.136942	-27.855434
957.442622	-27.916254
957.748496	-27.864786
958.054567	-27.969195
958.360833	-27.779372
958.667294	-28.026977
958.973952	-27.746259
959.280806	-28.000679
959.587857	-27.831486
959.895104	-27.910742
960.202548	-27.892262
960.510189	-27.933488
960.818027	-27.905769
961.126062	-27.847825
961.434295	-28.088061
961.742726	-27.748758
962.051355	-28.023191
962.360182	-27.940707
962.669207	-27.997750
962.978431	-27.764212
963.287854	-28.160278
963.597475	-27.815586
963.907296	-27.968196
964.217315	-27.891785
964.527535	-28.088292
964.837954	-27.745077
965.148573	-27.939484
965.459392	-28.045419
965.770411	-27.690993
966.081630	-28.053948
966.393051	-27.735092
966.704672	-28.018130
967.016494	-27.650838
967.328517	-28.007131
967.640742	-27.696412
967.953169	-27.902246
968.265797	-27.705561
968.578627	-27.901950
968.891660	-27.622129
969.204895	-27.953194
969.518332	-27.618957
969.831972	-27.774087
970.145816	-27.787649
970.459862	-27.783312
970.774112	-27.541608
971.088565	-27.939901
971.403223	-27.629244
971.718084	-27.675979
972.033149	-27.684345
972.348419	-27.827102
972.663893	-27.564655
972.979572	-27.614100
973.295456	-27.767797
973.611546	-27.675828
973.927840	-27.384065
974.244340	-27.838200
974.561046	-27.510831
974.877958	-27.498898
975.195076	-27.544365
975.512401	-27.616374
975.829932	-27.321921
976.147670	-27.554133
976.465615	-27.361772
976.783767	-27.503911
977.102126	-27.188276
977.420693	-27.539748
977.739468	-27.184434
978.058451	-27.266702
978.377642	-27.360513
978.697041	-27.164257
979.016649	-27.151220
979.336466	-27.277356
979.656492	-27.171071
979.976727	-26.990467
980.297171	-27.246864
980.617825	-27.102981
980.938689	-27.075220
981.259763	-26.896391
981.581048	-27.350799
981.902542	-26.904809
982.224248	-26.872138
982.546164	-27.245140
982.868291	-26.915281
983.190630	-26.936247
983.513180	-26.956901
983.835942	-27.086153
984.158916	-26.843273
984.482101	-26.840576
984.805500	-27.087544
985.129110	-26.829109
985.452934	-26.737828
985.776970	-27.015270
986.101220	-26.806523
986.425683	-26.723160
986.750359	-26.838824
987.075250	-26.809565
987.400354	-26.695592
987.725673	-26.607513
988.051206	-26.894160
988.376954	-26.569618
988.702916	-26.548217
989.029094	-26.705654
989.355487	-26.613488
989.682095	-26.515284
990.008919	-26.467012
990.335959	-26.633514
990.663216	-26.429886
990.990688	-26.420620
991.318377	-26.473808
991.646283	-26.421203
991.974406	-26.378151
992.302746	-26.350418
992.631304	-26.331970
992.960079	-26.361341
993.289072	-26.252596
993.618283	-26.270911
993.947713	-26.267097
994.277361	-26.145561
994.607227	-26.255049
994.937313	-26.147628
995.267618	-26.087221
995.598142	-26.090189
995.928886	-26.123166
996.259849	-25.971855
996.591033	-25.988842
996.922437	-25.965863
997.254061	-25.889764
997.585906	-25.980267
997.917972	-25.639367
998.250260	-25.887174
998.582768	-25.849033
998.915498	-25.539440
999.248450	-25.699918
999.581624	-25.651305
999.915020	-25.572102
1000.248639	-25.494841
1000.582480	-25.458058
1000.916545	-25.460549
1001.250832	-25.435984
1001.585343	-25.222127
1001.920077	-25.384700
1002.255035	-25.288665
1002.590218	-25.062933
1002.925624	-25.336322
1003.261255	-25.077959
1003.597111	-25.011639
1003.933192	-25.117543
1004.269497	-25.010975
1004.606029	-24.995866
1004.942785	-24.831922
1005.279768	-24.921804
1005.616977	-24.967544
1005.954412	-24.705103
1006.292074	-24.772935
1006.629962	-24.802792
1006.968077	-24.693426
1007.306420	-24.693274
1007.644990	-24.563728
1007.983787	-24.668586
1008.322813	-24.580972
1008.662067	-24.505691
1009.001549	-24.514007
1009.341259	-24.435785
1009.681199	-24.531653
1010.021367	-24.333244
1010.361765	-24.378265
1010.702392	-24.394076
1011.043250	-24.293932
1011.384337	-24.285510
1011.725654	-24.229346
1012.067202	-24.311447
1012.408980	-24.176496
1012.750989	-24.111574
1013.093230	-24.184166
1013.435702	-24.199887
1013.778405	-24.013514
1014.121341	-24.010224
1014.464508	-24.138814
1014.807908	-24.007713
1015.151540	-23.904643
1015.495405	-23.952988
1015.839503	-23.973609
1016.183835	-23.838354
1016.528400	-23.850463
1016.873198	-23.820655
1017.218231	-23.766541
1017.563498	-23.752216
1017.908999	-23.677863
1018.254735	-23.688784
1018.600707	-23.624198
1018.946913	-23.574852
1019.293354	-23.504336
1019.640032	-23.537318
1019.986945	-23.490173
1020.334094	-23.375650
1020.681480	-23.343240
1021.029102	-23.328052
1021.376961	-23.396273
1021.725058	-23.204670
1022.073391	-23.098102
1022.421962	-23.208067
1022.770772	-23.231739
1023.119819	-23.030772
1023.469104	-22.968095
1023.818628	-23.053197
1024.168391	-22.949745
1024.518393	-22.965461
1024.868634	-22.909054
1025.219115	-22.753871
1025.569836	-22.782400
1025.920796	-22.921899
1026.271997	-22.720005
1026.623438	-22.540534
1026.975121	-22.743925
1027.327044	-22.670580
1027.679208	-22.496971
1028.031614	-22.581921
1028.384262	-22.579989
1028.737152	-22.343771
1029.090284	-22.389717
1029.443659	-22.550742
1029.797276	-22.351317
1030.151137	-22.209813
1030.505240	-22.248592
1030.859587	-22.344813
1031.214178	-22.260189
1031.569013	-22.135997
1031.924093	-22.083512
1032.279417	-22.102180
1032.634985	-22.191243
1032.990799	-22.083001
1033.346858	-21.981094
1033.703162	-21.924231
1034.059712	-22.027879
1034.416509	-22.036795
1034.773551	-21.884723
1035.130841	-21.870239
1035.488377	-21.878881
1035.846160	-21.882725
1036.204190	-21.851779
1036.562468	-21.819426
1036.920994	-21.758195
1037.279768	-21.755149
1037.638790	-21.777596
1037.998061	-21.695782
1038.357581	-21.715011
1038.717350	-21.704829
1039.077368	-21.619845
1039.437636	-21.581768
1039.798154	-21.635501
1040.158922	-21.630912
1040.519940	-21.551800
1040.881209	-21.493137
1041.242729	-21.415717
1041.604501	-21.535489
1041.966524	-21.584327
1042.328798	-21.391293
1042.691325	-21.243946
1043.054103	-21.376703
1043.417135	-21.506743
1043.780419	-21.322739
1044.143956	-21.193233
1044.507746	-21.191332
1044.871791	-21.309135
1045.236088	-21.291646
1045.600641	-21.127126
1045.965447	-21.081976
1046.330508	-21.104682
1046.695824	-21.147888
1047.061395	-21.038994
1047.427222	-21.004093
1047.793304	-20.965375
1048.159642	-20.933482
1048.526237	-20.943580
1048.893088	-20.887238
1049.260196	-20.811173
1049.627561	-20.764321
1049.995183	-20.822917
1050.363063	-20.766706
1050.731201	-20.650244
1051.099597	-20.620497
1051.468251	-20.673049
1051.837164	-20.675051
1052.206336	-20.533923
1052.575767	-20.465496
1052.945458	-20.511461
1053.315409	-20.570645
1053.685619	-20.482216
1054.056090	-20.332530
1054.426821	-20.367233
1054.797814	-20.418304
1055.169067	-20.411900
1055.540582	-20.274676
1055.912359	-20.233524
1056.284398	-20.275891
1056.656698	-20.304216
1057.029262	-20.257222
1057.402088	-20.122006
1057.775177	-20.136291
1058.148530	-20.216692
1058.522146	-20.234941
1058.896027	-20.085055
1059.270171	-19.999443
1059.644580	-20.097241
1060.019254	-20.173350
1060.394193	-20.120290
1060.769397	-19.963731
1061.144867	-19.927583
1061.520602	-20.044344
1061.896604	-20.098913
1062.272872	-20.004867
1062.649407	-19.869613
1063.026210	-19.898938
1063.403279	-19.959914
1063.780616	-19.971679
1064.158221	-19.909257
1064.536094	-19.834408
1064.914235	-19.835121
1065.292645	-19.853877
1065.671325	-19.875153
1066.050273	-19.804052
1066.429491	-19.773546
1066.808979	-19.765739
1067.188738	-19.761634
1067.568766	-19.751604
1067.949066	-19.699684
1068.329636	-19.664093
1068.710478	-19.648101
1069.091592	-19.664602
1069.472977	-19.629364
1069.854635	-19.556261
1070.236565	-19.509657
1070.618768	-19.510094
1071.001243	-19.543081
1071.383993	-19.499232
1071.767016	-19.399517
1072.150313	-19.363573
1072.533884	-19.370387
1072.917730	-19.395199
1073.301850	-19.346642
1073.686246	-19.268977
1074.070917	-19.227675
1074.455864	-19.234275
1074.841087	-19.237352
1075.226586	-19.169077
1075.612362	-19.147898
1075.998415	-19.083552
1076.384745	-19.107093
1076.771353	-19.066465
1077.158238	-19.038997
1077.545401	-18.971562
1077.932843	-18.966043
1078.320564	-18.981193
1078.708564	-18.954205
1079.096842	-18.912470
1079.485401	-18.867602
1079.874240	-18.856135
1080.263358	-18.875568
1080.652757	-18.873504
1081.042438	-18.854471
1081.432399	-18.779258
1081.822641	-18.790806
1082.213166	-18.779658
1082.603972	-18.808535
1082.995061	-18.772731
1083.386433	-18.729417
1083.778087	-18.695372
1084.170025	-18.709064
1084.562246	-18.726729
1084.954751	-18.684074
1085.347541	-18.632765
1085.740615	-18.607767
1086.133973	-18.639157
1086.527617	-18.655728
1086.921546	-18.609373
1087.315761	-18.548094
1087.710262	-18.529031
1088.105050	-18.567552
1088.500124	-18.586503
1088.895485	-18.555593
1089.291134	-18.503786
1089.687070	-18.460576
1090.083294	-18.468032
1090.479806	-18.480904
1090.876607	-18.469179
1091.273696	-18.432432
1091.671075	-18.361686
1092.068744	-18.340665
1092.466702	-18.320952
1092.864950	-18.325128
1093.263489	-18.270715
1093.662319	-18.221446
1094.061440	-18.180197
1094.460852	-18.164075
1094.860555	-18.153681
1095.260551	-18.107381
1095.660840	-18.065200
1096.061421	-18.030148
1096.462295	-18.027428
1096.863462	-18.032740
1097.264923	-18.001800
1097.666678	-17.969605
1098.068727	-17.919721
1098.471071	-17.920763
1098.873710	-17.923654
1099.276644	-17.935757
1099.679874	-17.897567
1100.083400	-17.847838
1100.487222	-17.815087
1100.891340	-17.805606
1101.295756	-17.811765
1101.700468	-17.792844
1102.105478	-17.752863
1102.510787	-17.700041
1102.916393	-17.683041
1103.322298	-17.674919
1103.728502	-17.667149
1104.135005	-17.640644
1104.541807	-17.607009
1104.948909	-17.595732
1105.356312	-17.594316
1105.764015	-17.604683
1106.172019	-17.602210
1106.580324	-17.571901
1106.988931	-17.570278
1107.397840	-17.565515
1107.807051	-17.595722
1108.216564	-17.602056
1108.626380	-17.594365
1109.036500	-17.560208
1109.446923	-17.527991
1109.857649	-17.531226
1110.268680	-17.532989
1110.680016	-17.517344
1111.091657	-17.467521
1111.503602	-17.414559
1111.915854	-17.360428
1112.328411	-17.332015
1112.741275	-17.304159
1113.154445	-17.247997
1113.567922	-17.190498
1113.981706	-17.129438
1114.395798	-17.080439
1114.810198	-17.056215
1115.224906	-17.018916
1115.639923	-16.967738
1116.055249	-16.916887
1116.470884	-16.896986
1116.886829	-16.886086
1117.303084	-16.881496
1117.719650	-16.876776
1118.136526	-16.840674
1118.553713	-16.839971
1118.971212	-16.841748
1119.389022	-16.859475
1119.807145	-16.884644
1120.225580	-16.903643
1120.644328	-16.898190
1121.063389	-16.896044
1121.482763	-16.910190
1121.902452	-16.925116
1122.322454	-16.960944
1122.742771	-16.960493
1123.163404	-16.964857
1123.584351	-16.937153
1124.005614	-16.929950
1124.427193	-16.927580
1124.849089	-16.921570
1125.271301	-16.910226
1125.693830	-16.875420
1126.116677	-16.852075
1126.539842	-16.818984
1126.963324	-16.794779
1127.387126	-16.763770
1127.811246	-16.723419
1128.235685	-16.680676
1128.660444	-16.653171
1129.085522	-16.626684
1129.510922	-16.604066
1129.936641	-16.573590
1130.362682	-16.542868
1130.789044	-16.503427
1131.215728	-16.464855
1131.642734	-16.446059
1132.070063	-16.441844
1132.497714	-16.436555
1132.925689	-16.408058
1133.353987	-16.378505
1133.782610	-16.337577
1134.211556	-16.306313
1134.640827	-16.294631
1135.070424	-16.292861
1135.500345	-16.279795
1135.930593	-16.244496
1136.361166	-16.211970
1136.792067	-16.154312
1137.223294	-16.109988
1137.654848	-16.073552
1138.086730	-16.054851
1138.518940	-16.027719
1138.951479	-15.990137
1139.384346	-15.942958
1139.817543	-15.884357
1140.251069	-15.843613
1140.684925	-15.801906
1141.119111	-15.776711
1141.553628	-15.744917
1141.988475	-15.718076
1142.423655	-15.685051
1142.859166	-15.646102
1143.295009	-15.614872
1143.731185	-15.588733
1144.167694	-15.583692
1144.604536	-15.572646
1145.041711	-15.570093
1145.479221	-15.560571
1145.917065	-15.554812
1146.355245	-15.545877
1146.793759	-15.521736
1147.232609	-15.507021
1147.671795	-15.493394
1148.111317	-15.520365
1148.551177	-15.540768
1148.991373	-15.556548
1149.431907	-15.544959
1149.872779	-15.521999
1150.313989	-15.513107
1150.755538	-15.500205
1151.197426	-15.504108
1151.639653	-15.492357
1152.082220	-15.486653
1152.525128	-15.482663
1152.968376	-15.480819
1153.411966	-15.492727
1153.855897	-15.483997
1154.300169	-15.470625
1154.744784	-15.425685
1155.189742	-15.381680
1155.635042	-15.349821
1156.080687	-15.343913
1156.526674	-15.365285
1156.973007	-15.373759
1157.419683	-15.362677
1157.866705	-15.317716
1158.314072	-15.262923
1158.761786	-15.222962
1159.209845	-15.201074
1159.658251	-15.198647
1160.107004	-15.188804
1160.556104	-15.169147
1161.005553	-15.137057
1161.455349	-15.102367
1161.905494	-15.084674
1162.355989	-15.059620
1162.806832	-15.038351
1163.258026	-15.000047
1163.709570	-14.958762
1164.161464	-14.932323
1164.613710	-14.916625
1165.066307	-14.915006
1165.519256	-14.898373
1165.972558	-14.866736
1166.426212	-14.823207
1166.880219	-14.778236
1167.334580	-14.765803
1167.789295	-14.755828
1168.244364	-14.759286
1168.699788	-14.738897
1169.155567	-14.701689
1169.611702	-14.674331
1170.068193	-14.648792
1170.525041	-14.659095
1170.982245	-14.662096
1171.439807	-14.653693
1171.897726	-14.628184
1172.356004	-14.586968
1172.814640	-14.577739
1173.273635	-14.581488
1173.732989	-14.610371
1174.192703	-14.623101
1174.652778	-14.604775
1175.113213	-14.573841
1175.574009	-14.538205
1176.035167	-14.529573
1176.496687	-14.546413
1176.958569	-14.562698
1177.420814	-14.581681
1177.883422	-14.565502
1178.346394	-14.543605
1178.809730	-14.503331
1179.273430	-14.470662
1179.737496	-14.459444
1180.201927	-14.463157
1180.666723	-14.481853
1181.131886	-14.488859
1181.597416	-14.458657
1182.063312	-14.410542
1182.529576	-14.339657
1182.996209	-14.302366
1183.463209	-14.300930
1183.930579	-14.321857
1184.398317	-14.345136
1184.866426	-14.306108
1185.334904	-14.240008
1185.803754	-14.161083
1186.272974	-14.117599
1186.742566	-14.131750
1187.212529	-14.154849
1187.682865	-14.161743
1188.153574	-14.124845
1188.624656	-14.049980
1189.096112	-13.994211
1189.567942	-13.975926
1190.040147	-13.986690
1190.512726	-14.014699
1190.985681	-13.998306
1191.459012	-13.960216
1191.932720	-13.911755
1192.406804	-13.875680
1192.881265	-13.883952
1193.356104	-13.892606
1193.831322	-13.899731
1194.306918	-13.884560
1194.782893	-13.847396
1195.259248	-13.823152
1195.735982	-13.816372
1196.213097	-13.819105
1196.690593	-13.834155
1197.168471	-13.821825
1197.646730	-13.804748
1198.125371	-13.789094
1198.604395	-13.772413
1199.083803	-13.783467
1199.563594	-13.782340
1200.043769	-13.780038
1200.524329	-13.773505
1201.005273	-13.752704
1201.486604	-13.751018
1201.968320	-13.748283
1202.450422	-13.742823
1202.932912	-13.746611
1203.415789	-13.729540
1203.899054	-13.722184
1204.382707	-13.717322
1204.866748	-13.705220
1205.351179	-13.706714
1205.836000	-13.695141
1206.321211	-13.681855
1206.806812	-13.675387
1207.292805	-13.660350
1207.779189	-13.652392
1208.265965	-13.648833
1208.753134	-13.630160
1209.240696	-13.617736
1209.728651	-13.603718
1210.217000	-13.583724
1210.705744	-13.577776
1211.194883	-13.565471
1211.684417	-13.543948
1212.174347	-13.533598
1212.664673	-13.507604
1213.155396	-13.485633
1213.646516	-13.478043
1214.138034	-13.454429
1214.629951	-13.441841
1215.122266	-13.423250
1215.614980	-13.388703
1216.108095	-13.373976
1216.601609	-13.351506
1217.095524	-13.330403
1217.589841	-13.321262
1218.084559	-13.290894
1218.579679	-13.266708
1219.075202	-13.242305
1219.571128	-13.217806
1220.067458	-13.203719
1220.564191	-13.187531
1221.061330	-13.161870
1221.558874	-13.140028
1222.056823	-13.114440
1222.555178	-13.091497
1223.053940	-13.083781
1223.553109	-13.062792
1224.052686	-13.046774
1224.552671	-13.028092
1225.053065	-13.001277
1225.553867	-12.990176
1226.055079	-12.981092
1226.556702	-12.963657
1227.058735	-12.956372
1227.561179	-12.938827
1228.064035	-12.918547
1228.567303	-12.914925
1229.070983	-12.904564
1229.575077	-12.896107
1230.079585	-12.890566
1230.584506	-12.877490
1231.089842	-12.864497
1231.595594	-12.861369
1232.101761	-12.856402
1232.608345	-12.849505
1233.115345	-12.848001
1233.622762	-12.836574
1234.130597	-12.825689
1234.638851	-12.826658
1235.147523	-12.821423
1235.656615	-12.815551
1236.166126	-12.815063
1236.676058	-12.803024
1237.186411	-12.794414
1237.697185	-12.794902
1238.208381	-12.788398
1238.719999	-12.783771
1239.232040	-12.779821
1239.744505	-12.766784
1240.257394	-12.759759
1240.770708	-12.758523
1241.284446	-12.749439
1241.798610	-12.743874
1242.313201	-12.737568
1242.828218	-12.723199
1243.343662	-12.716140
1243.859534	-12.712919
1244.375834	-12.702149
1244.892563	-12.695567
1245.409721	-12.685552
1245.927309	-12.670709
1246.445327	-12.664008
1246.963777	-12.660585
1247.482657	-12.646092
1248.001970	-12.634809
1248.521716	-12.629037
1249.041894	-12.610565
1249.562506	-12.604201
1250.083553	-12.598012
1250.605034	-12.581722
1251.126950	-12.571573
1251.649302	-12.560174
1252.172091	-12.544179
1252.695316	-12.538158
1253.218979	-12.528488
1253.743079	-12.510089
1254.267619	-12.498070
1254.792597	-12.488995
1255.318015	-12.471537
1255.843874	-12.461848
1256.370173	-12.455902
1256.896913	-12.433520
1257.424095	-12.417947
1257.951720	-12.413128
1258.479787	-12.398143
1259.008298	-12.384469
1259.537254	-12.376339
1260.066654	-12.356518
1260.596499	-12.340791
1261.126790	-12.337787
1261.657527	-12.327224
1262.188711	-12.309122
1262.720342	-12.299814
1263.252422	-12.286928
1263.784950	-12.272242
1264.317928	-12.271557
1264.851355	-12.262975
1265.385232	-12.243311
1265.919560	-12.234868
1266.454340	-12.230429
1266.989572	-12.219423
1267.525256	-12.215444
1268.061394	-12.210221
1268.597985	-12.194277
1269.135031	-12.185374
1269.672531	-12.187562
1270.210487	-12.181658
1270.748899	-12.171783
1271.287768	-12.168523
1271.827094	-12.159206
1272.366877	-12.150544
1272.907119	-12.153647
1273.447820	-12.152404
1273.988981	-12.138488
1274.530601	-12.131986
1275.072683	-12.132544
1275.615226	-12.125254
1276.158230	-12.121339
1276.701697	-12.123154
1277.245627	-12.110159
1277.790021	-12.099703
1278.334879	-12.102934
1278.880202	-12.099727
1279.425991	-12.091001
1279.972245	-12.088011
1280.518966	-12.078407
1281.066155	-12.068106
1281.613811	-12.070232
1282.161936	-12.072200
1282.710529	-12.056169
1283.259593	-12.044673
1283.809126	-12.047059
1284.359131	-12.041320
1284.909607	-12.032763
1285.460555	-12.032317
1286.011976	-12.023502
1286.563870	-12.007718
1287.116237	-12.007923
1287.669080	-12.012509
1288.222397	-11.998998
1288.776191	-11.986544
1289.330460	-11.984134
1289.885207	-11.978958
1290.440431	-11.971421
1290.996133	-11.970715
1291.552314	-11.962616
1292.108975	-11.945977
1292.666115	-11.941660
1293.223737	-11.947355
1293.781839	-11.937380
1294.340424	-11.921893
1294.899491	-11.917009
1295.459041	-11.913352
1296.019075	-11.906000
1296.579593	-11.900579
1297.140597	-11.894674
1297.702086	-11.880354
1298.264061	-11.871231
1298.826524	-11.873918
1299.389474	-11.867810
1299.952912	-11.851526
1300.516839	-11.844138
1301.081255	-11.842025
1301.646162	-11.833279
1302.211559	-11.825997
1302.777448	-11.823164
1303.343829	-11.810905
1303.910702	-11.797712
1304.478069	-11.800854
1305.045930	-11.801290
1305.614285	-11.782178
1306.183136	-11.772718
1306.752483	-11.777107
1307.322326	-11.772232
1307.892666	-11.761470
1308.463504	-11.757761
1309.034841	-11.756318
1309.606677	-11.746522
1310.179012	-11.743287
1310.751849	-11.748227
1311.325186	-11.740757
1311.899025	-11.728118
1312.473366	-11.729637
1313.048211	-11.737353
1313.623559	-11.728962
1314.199412	-11.719395
1314.775770	-11.722330
1315.352634	-11.725139
1315.930004	-11.718223
1316.507881	-11.717618
1317.086266	-11.718147
1317.665159	-11.713541
1318.244562	-11.709419
1318.824474	-11.714797
1319.404897	-11.715611
1319.985831	-11.706442
1320.567276	-11.703192
1321.149234	-11.712334
1321.731706	-11.711872
1322.314691	-11.703632
1322.898190	-11.702060
1323.482205	-11.709085
1324.066736	-11.708479
1324.651783	-11.703030
1325.237347	-11.705995
1325.823430	-11.710319
1326.410031	-11.705913
1326.997151	-11.706245
1327.584791	-11.713521
1328.172952	-11.714731
1328.761634	-11.708354
1329.350839	-11.710507
1329.940566	-11.722732
1330.530817	-11.722263
1331.121592	-11.713189
1331.712891	-11.719290
1332.304716	-11.730504
1332.897068	-11.728494
1333.489946	-11.722760
1334.083352	-11.726906
1334.677287	-11.735642
1335.271750	-11.734182
1335.866744	-11.730951
1336.462268	-11.736310
1337.058323	-11.739402
1337.654910	-11.737937
1338.252029	-11.739364
1338.849682	-11.742339
1339.447869	-11.744200
1340.046591	-11.741104
1340.645848	-11.743000
1341.245641	-11.751258
1341.845972	-11.748743
1342.446840	-11.741529
1343.048246	-11.749078
1343.650191	-11.755392
1344.252677	-11.751679
1344.855702	-11.746711
1345.459269	-11.750015
1346.063379	-11.759148
1346.668030	-11.757320
1347.273226	-11.747584
1347.878965	-11.752776
1348.485250	-11.761939
1349.092080	-11.757685
1349.699456	-11.752884
1350.307380	-11.755001
1350.915851	-11.762001
1351.524871	-11.761911
1352.134441	-11.754946
1352.744560	-11.757427
1353.355231	-11.764982
1353.966453	-11.762344
1354.578227	-11.758602
1355.190555	-11.763160
1355.803436	-11.766190
1356.416872	-11.765402
1357.030863	-11.762475
1357.645411	-11.767686
1358.260515	-11.771388
1358.876177	-11.768983
1359.492397	-11.767883
1360.109176	-11.773639
1360.726516	-11.777605
1361.344416	-11.774747
1361.962877	-11.775236
1362.581901	-11.780480
1363.201487	-11.786034
1363.821637	-11.784369
1364.442352	-11.784835
1365.063632	-11.787476
1365.685478	-11.796680
1366.307891	-11.797979
1366.930871	-11.793880
1367.554420	-11.801446
1368.178538	-11.808876
1368.803226	-11.810478
1369.428485	-11.810610
1370.054315	-11.814614
1370.680717	-11.825385
1371.307693	-11.827692
1371.935242	-11.828254
1372.563366	-11.833682
1373.192065	-11.842594
1373.821341	-11.849258
1374.451193	-11.847645
1375.081623	-11.856010
1375.712632	-11.865795
1376.344221	-11.872334
1376.976389	-11.874169
1377.609139	-11.879348
1378.242470	-11.892853
1378.876384	-11.900955
1379.510881	-11.904172
1380.145963	-11.909212
1380.781629	-11.920781
1381.417881	-11.933210
1382.054720	-11.939522
1382.692147	-11.941214
1383.330161	-11.951947
1383.968765	-11.967769
1384.607959	-11.974986
1385.247743	-11.980535
1385.888119	-11.988996
1386.529087	-12.003026
1387.170648	-12.017574
1387.812804	-12.025470
1388.455554	-12.031244
1389.098899	-12.045527
1389.742842	-12.063730
1390.387381	-12.073822
1391.032519	-12.080597
1391.678256	-12.092358
1392.324592	-12.111927
1392.971529	-12.126365
1393.619068	-12.133975
1394.267208	-12.142815
1394.915952	-12.160886
1395.565300	-12.180031
1396.215253	-12.189980
1396.865812	-12.197996
1397.516977	-12.212301
1398.168749	-12.233590
1398.821130	-12.252751
1399.474120	-12.260566
1400.127719	-12.268644
1400.781930	-12.293498
1401.436752	-12.317712
1402.092186	-12.327705
1402.748234	-12.337503
1403.404897	-12.355110
1404.062174	-12.379412
1404.720067	-12.401777
1405.378577	-12.412210
1406.037705	-12.423051
1406.697451	-12.445961
1407.357817	-12.472033
1408.018803	-12.489700
1408.680410	-12.499881
1409.342639	-12.512652
1410.005492	-12.538274
1410.668968	-12.564975
1411.333068	-12.576328
1411.997795	-12.584611
1412.663147	-12.607388
1413.329127	-12.638760
1413.995736	-12.655818
1414.662973	-12.663050
1415.330840	-12.681411
1415.999339	-12.712628
1416.668469	-12.736113
1417.338232	-12.744479
1418.008628	-12.756008
1418.679659	-12.786229
1419.351325	-12.818782
1420.023628	-12.830155
1420.696568	-12.838368
1421.370145	-12.865995
1422.044362	-12.900701
1422.719219	-12.919768
1423.394717	-12.928517
1424.070856	-12.945088
1424.747638	-12.974698
1425.425064	-13.003719
1426.103134	-13.017463
1426.781850	-13.024580
1427.461212	-13.049616
1428.141221	-13.088917
1428.821878	-13.110314
1429.503185	-13.114798
1430.185141	-13.135594
1430.867749	-13.173372
1431.551008	-13.199613
1432.234920	-13.206751
1432.919486	-13.216575
1433.604707	-13.243798
1434.290583	-13.275425
1434.977116	-13.292598
1435.664307	-13.301479
1436.352156	-13.323097
1437.040664	-13.359975
1437.729833	-13.391558
1438.419663	-13.407374
1439.110156	-13.424945
1439.801312	-13.457985
1440.493132	-13.491135
1441.185617	-13.507921
1441.878768	-13.514436
1442.572586	-13.532874
1443.267072	-13.565220
1443.962228	-13.590843
1444.658053	-13.601272
1445.354549	-13.613745
1446.051717	-13.643851
1446.749558	-13.691501
1447.448073	-13.734477
1448.147263	-13.751492
1448.847128	-13.764562
1449.547671	-13.806044
1450.248891	-13.860022
1450.950789	-13.887752
1451.653368	-13.885768
1452.356627	-13.886262
1453.060568	-13.913328
1453.765192	-13.953742
1454.470500	-13.974181
1455.176492	-13.971493
1455.883170	-13.980491
1456.590534	-14.027855
1457.298586	-14.093262
1458.007327	-14.136257
1458.716758	-14.156003
1459.426880	-14.187861
1460.137693	-14.248390
1460.849199	-14.310562
1461.561398	-14.342141
1462.274293	-14.342638
1462.987883	-14.340572
1463.702170	-14.358470
1464.417155	-14.384133
1465.132838	-14.388518
1465.849222	-14.372180
1466.566306	-14.366694
1467.284093	-14.390474
1468.002582	-14.436042
1468.721775	-14.486454
1469.441674	-14.534679
1470.162278	-14.592187
1470.883590	-14.671332
1471.605609	-14.763519
1472.328338	-14.849504
1473.051777	-14.924088
1473.775928	-14.991961
1474.500790	-15.050414
1475.226367	-15.089604
1475.952657	-15.110186
1476.679663	-15.120395
1477.407386	-15.126457
1478.135826	-15.129155
1478.864985	-15.124588
1479.594863	-15.120730
1480.325463	-15.140888
1481.056784	-15.193751
1481.788828	-15.265385
1482.521597	-15.349269
1483.255090	-15.458504
1483.989309	-15.603627
1484.724256	-15.781317
1485.459931	-15.974936
1486.196336	-16.163668
1486.933471	-16.341395
1487.671337	-16.516558
1488.409937	-16.676300
1489.149270	-16.779762
1489.889337	-16.805799
1490.630141	-16.768670
1491.371682	-16.681826
1492.113961	-16.540601
1492.856979	-16.342336
1493.600738	-16.102203
1494.345238	-15.851082
1495.090481	-15.612398
1495.836467	-15.383521
1496.583198	-15.161008
1497.330675	-14.958707
1498.078899	-14.791349
1498.827872	-14.658176
1499.577593	-14.552121
1500.328065	-14.465290
1501.079289	-14.396814
1501.831265	-14.353421
1502.583995	-14.334817
1503.337480	-14.325356
1504.091721	-14.313346
1504.846719	-14.297339
1505.602475	-14.273717
1506.358991	-14.230546
1507.116268	-14.150266
1507.874306	-14.018550
1508.633108	-13.833046
1509.392673	-13.595729
1510.153004	-13.299987
1510.914101	-12.946156
1511.675965	-12.554154
1512.438599	-12.144663
1513.202002	-11.726882
1513.966176	-11.310578
1514.731122	-10.912763
1515.496842	-10.550045
1516.263336	-10.234269
1517.030607	-9.969021
1517.798654	-9.756491
1518.567479	-9.606412
1519.337083	-9.530295
1520.107468	-9.533768
1520.878634	-9.619132
1521.650584	-9.790284
1522.423317	-10.057117
1523.196836	-10.437406
1523.971141	-10.947909
1524.746233	-11.602450
1525.522115	-12.424245
1526.298786	-13.457357
1527.076249	-14.773977
1527.854504	-16.488864
1528.633553	-18.798502
1529.413397	-22.136101
1530.194037	-27.770098
1530.975474	-35.918674
1531.757709	-26.585859
1532.540745	-21.149136
1533.324581	-17.765774
1534.109220	-15.333239
1534.894662	-13.447404
1535.680909	-11.928436
1536.467961	-10.678760
1537.255821	-9.633059
1538.044489	-8.748750
1538.833967	-7.998345
1539.624256	-7.364827
1540.415357	-6.837673
1541.207271	-6.404007
1542.000000	-6.050941
1542.793545	-5.774166
1543.587907	-5.573439
1544.383087	-5.444221
1545.179088	-5.378821
1545.975909	-5.371599
1546.773552	-5.422252
1547.572019	-5.532708
1548.371311	-5.699402
1549.171428	-5.914674
1549.972373	-6.174164
1550.774147	-6.479198
1551.576751	-6.832367
1552.380185	-7.230263
1553.184453	-7.663265
1553.989554	-8.128506
1554.795490	-8.632175
1555.602263	-9.176636
1556.409873	-9.756013
1557.218322	-10.362080
1558.027612	-10.993970
1558.837743	-11.660108
1559.648717	-12.358622
1560.460536	-13.069460
1561.273200	-13.777858
1562.086710	-14.481070
1562.901069	-15.165258
1563.716278	-15.793170
1564.532337	-16.323710
1565.349249	-16.740545
1566.167014	-17.042400
1566.985634	-17.210916
1567.805111	-17.237127
1568.625444	-17.159478
1569.446637	-17.022126
1570.268690	-16.835931
1571.091605	-16.607833
1571.915382	-16.366206
1572.740024	-16.136286
1573.565532	-15.919830
1574.391907	-15.703111
1575.219150	-15.491494
1576.047262	-15.300805
1576.876246	-15.130588
1577.706103	-14.964077
1578.536833	-14.797622
1579.368439	-14.642133
1580.200922	-14.503147
1581.034282	-14.370359
1581.868522	-14.234626
1582.703643	-14.105203
1583.539646	-13.994352
1584.376532	-13.894980
1585.214304	-13.799153
1586.052962	-13.715108
1586.892508	-13.652771
1587.732943	-13.610384
1588.574269	-13.578908
1589.416487	-13.562306
1590.259599	-13.572738
1591.103605	-13.606329
1591.948508	-13.652121
1592.794309	-13.715607
1593.641009	-13.805792
1594.488609	-13.917712
1595.337112	-14.040534
1596.186518	-14.176316
1597.036829	-14.335486
1597.888047	-14.513120
1598.740172	-14.693210
1599.593207	-14.880800
1600.447153	-15.086672
1601.302010	-15.301310
1602.157782	-15.510698
1603.014469	-15.718625
1603.872072	-15.934392
1604.730593	-16.148925
1605.590034	-16.346086
1606.450397	-16.532099
1607.311681	-16.718056
1608.173890	-16.888908
1609.037024	-17.033032
1609.901085	-17.162136
1610.766075	-17.283462
1611.631995	-17.381311
1612.498846	-17.452991
1613.366630	-17.512142
1614.235349	-17.562691
1615.105004	-17.592426
1615.975596	-17.601558
1616.847128	-17.609762
1617.719600	-17.610116
1618.593014	-17.594867
1619.467372	-17.572741
1620.342675	-17.552506
1621.218924	-17.526981
1622.096122	-17.492640
1622.974270	-17.458497
1623.853369	-17.427807
1624.733420	-17.390593
1625.614427	-17.346946
1626.496389	-17.307365
1627.379308	-17.264158
1628.263187	-17.209250
1629.148026	-17.151894
1630.033828	-17.092564
1630.920593	-17.020484
1631.808324	-16.938081
1632.697022	-16.852789
1633.586688	-16.758813
1634.477324	-16.650822
1635.368932	-16.536006
1636.261514	-16.420086
1637.155070	-16.294521
1638.049602	-16.161841
1638.945113	-16.033116
1639.841603	-15.904549
1640.739075	-15.771921
1641.637529	-15.643894
1642.536968	-15.523569
1643.437393	-15.404321
1644.338806	-15.288454
1645.241209	-15.182130
1646.144602	-15.081580
1647.048988	-14.981643
1647.954368	-14.888208
1648.860744	-14.802738
1649.768118	-14.714887
1650.676491	-14.627929
1651.585865	-14.547469
1652.496241	-14.463076
1653.407621	-14.376659
1654.320008	-14.296012
1655.233401	-14.214396
1656.147804	-14.131522
1657.063218	-14.052575
1657.979645	-13.978060
1658.897085	-13.903927
1659.815542	-13.832958
1660.735016	-13.769700
1661.655509	-13.707491
1662.577023	-13.647651
1663.499560	-13.595689
1664.423121	-13.545551
1665.347709	-13.495676
1666.273324	-13.451320
1667.199969	-13.408010
1668.127645	-13.363180
1669.056353	-13.322004
1669.986097	-13.282290
1670.916877	-13.241287
1671.848695	-13.202795
1672.781553	-13.168537
1673.715452	-13.133743
1674.650395	-13.100565
1675.586383	-13.073219
1676.523418	-13.045205
1677.461501	-13.017880
1678.400635	-12.996397
1679.340821	-12.973849
1680.282061	-12.951113
1681.224357	-12.933745
1682.167710	-12.915383
1683.112122	-12.896143
1684.057595	-12.881579
1685.004132	-12.866213
1685.951732	-12.849609
1686.900400	-12.837382
1687.850135	-12.824910
1688.800940	-12.811158
1689.752818	-12.801818
1690.705768	-12.792552
1691.659795	-12.781639
1692.614898	-12.774847
1693.571081	-12.767729
1694.528345	-12.758620
1695.486691	-12.753253
1696.446122	-12.747217
1697.406640	-12.739278
1698.368245	-12.734997
1699.330941	-12.729646
1700.294729	-12.723245
1701.259611	-12.720276
1702.225588	-12.715768
1703.192664	-12.710998
1704.160838	-12.709123
1705.130114	-12.705415
1706.100493	-12.702205
1707.071977	-12.700794
1708.044568	-12.697123
1709.018268	-12.694770
1709.993079	-12.693094
1710.969003	-12.689774
1711.946041	-12.688642
1712.924196	-12.687662
1713.903469	-12.685699
1714.883862	-12.685938
1715.865378	-12.685712
1716.848017	-12.684958
1717.831783	-12.686187
1718.816677	-12.686707
1719.802701	-12.687481
1720.789857	-12.689709
1721.778147	-12.690833
1722.767573	-12.693198
1723.758136	-12.696327
1724.749840	-12.698709
1725.742685	-12.703082
1726.736673	-12.707262
1727.731808	-12.711526
1728.728090	-12.718115
1729.725521	-12.723828
1730.724105	-12.730731
1731.723842	-12.739153
1732.724735	-12.746049
1733.726785	-12.755020
1734.729995	-12.764271
1735.734366	-12.772750
1736.739902	-12.783627
1737.746603	-12.793517
1738.754472	-12.803729
1739.763510	-12.815038
1740.773721	-12.824820
1741.785105	-12.835931
1742.797665	-12.846442
1743.811403	-12.856170
1744.826321	-12.866990
1745.842422	-12.876168
1746.859706	-12.886006
1747.878177	-12.896119
1748.897835	-12.905219
1749.918685	-12.915654
1750.940726	-12.925499
1751.963963	-12.935584
1752.988395	-12.946460
1754.014027	-12.956474
1755.040860	-12.967195
1756.068895	-12.977462
1757.098135	-12.987425
1758.128583	-12.998266
1759.160240	-13.008758
1760.193109	-13.020335
1761.227191	-13.032174
1762.262488	-13.044003
1763.299004	-13.056494
1764.336740	-13.068266
1765.375697	-13.080774
1766.415880	-13.093275
1767.457288	-13.105669
1768.499926	-13.118636
1769.543794	-13.130815
1770.588895	-13.143396
1771.635231	-13.155494
1772.682805	-13.167611
1773.731619	-13.180073
1774.781674	-13.192089
1775.832973	-13.204752
1776.885519	-13.216757
1777.939312	-13.228967
1778.994357	-13.240478
1780.050654	-13.251608
1781.108207	-13.263256
1782.167017	-13.274501
1783.227087	-13.287274
1784.288418	-13.299800
1785.351013	-13.313104
1786.414875	-13.326482
1787.480006	-13.339183
1788.546407	-13.352730
1789.614082	-13.365457
1790.683032	-13.379513
1791.753259	-13.393750
1792.824767	-13.408883
1793.897557	-13.425052
1794.971632	-13.440656
1796.046994	-13.457175
1797.123645	-13.472480
1798.201588	-13.488183
1799.280824	-13.503612
1800.361357	-13.519164
1801.443188	-13.535649
1802.526320	-13.551694
1803.610756	-13.568338
1804.696497	-13.583791
1805.783546	-13.599266
1806.871906	-13.614223
1807.961578	-13.629116
1809.052565	-13.644283
1810.144870	-13.658926
1811.238494	-13.673802
1812.333441	-13.687533
1813.429713	-13.701139
1814.527311	-13.713720
1815.626239	-13.726146
1816.726499	-13.738528
1817.828094	-13.750717
1818.931025	-13.763227
1820.035295	-13.774929
1821.140906	-13.786340
1822.247862	-13.796627
1823.356165	-13.806844
1824.465816	-13.816783
1825.576819	-13.827033
1826.689175	-13.837440
1827.802888	-13.847885
1828.917960	-13.858022
1830.034394	-13.867404
1831.152191	-13.876294
1832.271354	-13.884341
1833.391887	-13.892627
1834.513790	-13.900399
1835.637068	-13.908808
1836.761722	-13.916874
1837.887755	-13.925469
1839.015169	-13.933346
1840.143968	-13.941103
1841.274153	-13.948441
1842.405727	-13.955648
1843.538693	-13.962766
1844.673053	-13.969741
1845.808810	-13.976754
1846.945966	-13.983332
1848.084525	-13.989837
1849.224488	-13.995874
1850.365858	-14.001878
1851.508638	-14.007459
1852.652831	-14.012976
1853.798438	-14.018207
1854.945463	-14.023107
1856.093909	-14.027833
1857.243777	-14.031942
1858.395071	-14.035980
1859.547794	-14.039508
1860.701947	-14.042985
1861.857533	-14.045769
1863.014556	-14.048234
1864.173018	-14.049988
1865.332922	-14.051291
1866.494270	-14.051965
1867.657065	-14.052141
1868.821309	-14.051851
1869.987006	-14.051063
1871.154158	-14.050328
1872.322768	-14.049027
1873.492839	-14.047492
1874.664373	-14.044626
1875.837373	-14.041180
1877.011841	-14.036505
1878.187782	-14.031769
1879.365197	-14.026401
1880.544089	-14.021042
1881.724460	-14.014828
1882.906315	-14.007979
1884.089655	-13.999889
1885.274483	-13.991008
1886.460803	-13.981321
1887.648616	-13.971229
1888.837927	-13.960828
1890.028736	-13.950238
1891.221049	-13.939310
1892.414866	-13.927815
1893.610192	-13.915943
1894.807028	-13.904234
1896.005379	-13.892958
1897.205246	-13.881979
1898.406633	-13.871172
1899.609542	-13.860242
1900.813977	-13.848964
1902.019940	-13.837195
1903.227434	-13.825321
1904.436462	-13.813607
1905.647028	-13.802141
1906.859133	-13.790647
1908.072781	-13.778937
1909.287976	-13.766904
1910.504719	-13.754749
1911.723013	-13.742649
1912.942863	-13.730715
1914.164270	-13.718737
1915.387238	-13.706615
1916.611770	-13.694088
1917.837868	-13.681202
1919.065536	-13.668044
1920.294777	-13.655000
1921.525594	-13.642043
1922.757989	-13.628976
1923.991967	-13.615199
1925.227529	-13.600672
1926.464679	-13.585466
1927.703420	-13.569986
1928.943755	-13.554202
1930.185688	-13.537993
1931.429221	-13.521218
1932.674356	-13.504074
1933.921099	-13.486700
1935.169451	-13.469143
1936.419415	-13.451335
1937.670996	-13.433286
1938.924195	-13.414936
1940.179017	-13.396198
1941.435463	-13.377207
1942.693538	-13.358240
1943.953245	-13.339390
1945.214586	-13.320592
1946.477566	-13.301593
1947.742186	-13.282114
1949.008451	-13.262105
1950.276363	-13.242001
1951.545926	-13.222089
1952.817143	-13.202474
1954.090017	-13.182955
1955.364551	-13.163574
1956.640749	-13.144356
1957.918615	-13.125625
1959.198150	-13.107513
1960.479359	-13.090066
1961.762244	-13.073060
1963.046810	-13.056533
1964.333059	-13.040723
1965.620995	-13.026017
1966.910621	-13.012100
1968.201940	-12.998479
1969.494956	-12.984921
1970.789672	-12.971528
1972.086091	-12.958313
1973.384217	-12.945599
1974.684053	-12.933317
1975.985602	-12.921003
1977.288869	-12.908049
1978.593855	-12.894513
1979.900566	-12.880559
1981.209003	-12.866603
1982.519171	-12.853026
1983.831073	-12.839978
1985.144712	-12.826707
1986.460093	-12.812418
1987.777217	-12.797116
1989.096089	-12.781681
1990.416713	-12.766619
1991.739092	-12.751927
1993.063228	-12.737263
1994.389127	-12.722451
1995.716791	-12.707572
1997.046223	-12.692628
1998.377428	-12.677384
1999.710409	-12.661844
2001.045169	-12.646321
2002.381713	-12.631078
2003.720043	-12.616127
2005.060163	-12.601133
2006.402077	-12.586085
2007.745788	-12.571312
2009.091301	-12.557303
2010.438618	-12.544278
2011.787743	-12.532071
2013.138680	-12.520128
2014.491433	-12.508341
2015.846005	-12.496999
2017.202399	-12.486632
2018.560621	-12.477628
2019.920673	-12.470123
2021.282558	-12.463548
2022.646281	-12.457169
2024.011846	-12.450845
2025.379256	-12.445217
2026.748515	-12.440825
2028.119626	-12.437548
2029.492594	-12.434792
2030.867422	-12.431988
2032.244114	-12.428851
2033.622673	-12.425616
2035.003104	-12.422629
2036.385411	-12.419848
2037.769597	-12.416825
2039.155665	-12.413157
2040.543621	-12.409119
2041.933467	-12.405129
2043.325208	-12.400999
2044.718847	-12.396272
2046.114389	-12.390993
2047.511837	-12.385446
2048.911195	-12.379751
2050.312467	-12.373805
2051.715657	-12.367821
2053.120769	-12.362275
2054.527807	-12.357240
2055.936775	-12.352542
2057.347677	-12.348055
2058.760516	-12.343634
2060.175297	-12.339354
2061.592025	-12.335641
2063.010701	-12.332839
2064.431332	-12.330824
2065.853921	-12.329212
2067.278472	-12.328143
2068.704988	-12.327892
2070.133475	-12.328441
2071.563936	-12.329867
2072.996375	-12.332173
2074.430796	-12.335229
2075.867204	-12.339270
2077.305603	-12.344584
2078.745996	-12.350864
2080.188389	-12.357744
2081.632784	-12.365311
2083.079187	-12.373649
2084.527601	-12.382493
2085.978030	-12.391682
2087.430480	-12.401606
2088.884954	-12.412230
2090.341455	-12.423336
2091.799990	-12.434696
2093.260561	-12.445875
2094.723173	-12.456754
2096.187831	-12.467408
2097.654538	-12.477668
2099.123300	-12.487251
2100.594119	-12.496232
2102.067001	-12.504855
2103.541950	-12.513197
2105.018971	-12.521295
2106.498067	-12.529026
2107.979243	-12.536185
2109.462503	-12.543065
2110.947853	-12.550225
2112.435295	-12.557995
2113.924836	-12.566462
2115.416478	-12.575503
2116.910227	-12.584769
2118.406087	-12.594413
2119.904063	-12.605029
2121.404158	-12.616900
2122.906378	-12.629820
2124.410727	-12.643382
2125.917210	-12.657835
2127.425831	-12.673470
2128.936594	-12.689949
2130.449505	-12.707034
2131.964567	-12.724722
2133.481786	-12.743455
2135.001166	-12.764172
2136.522711	-12.787192
2138.046427	-12.811731
2139.572317	-12.837012
2141.100388	-12.863049
2142.630642	-12.889639
2144.163085	-12.916216
2145.697722	-12.942885
2147.234558	-12.969889
2148.773596	-12.996311
2150.314842	-13.021391
2151.858301	-13.045865
2153.403977	-13.070340
2154.951875	-13.094661
2156.502000	-13.118725
2158.054357	-13.143201
2159.608950	-13.168772
2161.165785	-13.195677
2162.724866	-13.223830
2164.286198	-13.252744
2165.849786	-13.282250
2167.415635	-13.313195
2168.983749	-13.346202
2170.554134	-13.379789
2172.126795	-13.412242
2173.701737	-13.443736
2175.278964	-13.474811
2176.858481	-13.505073
2178.440294	-13.533997
2180.024408	-13.561667
2181.610827	-13.587961
2183.199557	-13.612617
2184.790602	-13.636419
2186.383968	-13.660480
2187.979660	-13.684452
2189.577683	-13.707837
2191.178041	-13.731875
2192.780741	-13.758514
2194.385787	-13.788452
2195.993185	-13.821231
2197.602939	-13.857046
2199.215054	-13.897211
2200.829537	-13.942372
2202.446392	-13.991302
2204.065624	-14.042751
2205.687239	-14.097925
2207.311242	-14.157817
2208.937638	-14.220496
2210.566433	-14.283834
2212.197631	-14.347733
2213.831239	-14.412849
2215.467261	-14.478507
2217.105703	-14.543615
2218.746570	-14.607708
2220.389867	-14.670604
2222.035601	-14.731570
2223.683776	-14.790228
2225.334398	-14.846681
2226.987472	-14.899363
2228.643004	-14.947228
2230.300999	-14.992379
2231.961463	-15.035383
2233.624402	-15.074052
2235.289820	-15.108550
2236.957723	-15.142030
2238.628118	-15.175407
2240.301009	-15.207286
2241.976402	-15.239214
2243.654303	-15.274511
2245.334717	-15.312790
2247.017650	-15.353588
2248.703108	-15.398435
2250.391096	-15.448800
2252.081620	-15.505110
2253.774686	-15.566793
2255.470300	-15.633406
2257.168467	-15.704589
2258.869193	-15.779139
2260.572484	-15.856694
2262.278345	-15.936624
2263.986783	-16.017497
2265.697804	-16.099423
2267.411412	-16.182804
2269.127615	-16.266277
2270.846417	-16.347894
2272.567826	-16.426081
2274.291846	-16.501127
2276.018484	-16.573042
2277.747745	-16.641308
2279.479637	-16.706420
2281.214164	-16.768197
2282.951333	-16.826533
2284.691149	-16.882863
2286.433619	-16.939016
2288.178750	-16.995945
2289.926546	-17.053277
2291.677014	-17.112539
2293.430161	-17.176022
2295.185992	-17.242504
2296.944513	-17.311786
2298.705732	-17.385279
2300.469653	-17.462666
2302.236283	-17.541510
2304.005629	-17.625125
2305.777696	-17.710804
2307.552492	-17.803651
2309.330022	-17.890377
2311.110292	-17.991856
2312.893310	-18.080149
2314.679080	-18.185565
2316.467611	-18.274236
2318.258907	-18.380667
2320.052976	-18.475636
2321.849824	-18.572269
2323.649457	-18.673567
2325.451883	-18.764475
2327.257106	-18.865780
2329.065135	-18.960596
2330.875975	-19.056135
2332.689633	-19.144671
2334.506116	-19.235763
2336.325430	-19.328565
2338.147581	-19.405991
2339.972578	-19.490763
2341.800425	-19.570348
2343.631130	-19.642243
2345.464700	-19.718858
2347.301141	-19.788620
2349.140461	-19.862957
2350.982665	-19.938111
2352.827760	-20.011514
2354.675754	-20.095669
2356.526653	-20.179492
2358.380464	-20.269413
2360.237195	-20.369581
2362.096851	-20.466371
2363.959440	-20.573137
2365.824968	-20.685061
2367.693444	-20.791177
2369.564873	-20.910307
2371.439263	-21.029629
2373.316620	-21.146593
2375.196953	-21.271842
2377.080267	-21.398834
2378.966570	-21.519884
2380.855869	-21.645189
2382.748171	-21.766587
2384.643484	-21.891641
2386.541815	-22.015923
2388.443170	-22.133073
2390.347557	-22.251703
2392.254984	-22.370950
2394.165457	-22.485619
2396.078984	-22.596356
2397.995572	-22.702472
2399.915229	-22.803990
2401.837961	-22.909015
2403.763777	-22.996141
2405.692684	-23.082500
2407.624689	-23.170590
2409.559800	-23.250931
2411.498023	-23.319495
2413.439368	-23.403449
2415.383840	-23.485488
2417.331449	-23.574787
2419.282201	-23.663087
2421.236104	-23.759934
2423.193165	-23.880646
2425.153393	-24.008443
2427.116795	-24.104273
2429.083378	-24.238248
2431.053151	-24.407130
2433.026121	-24.520008
2435.002297	-24.632527
2436.981685	-24.818826
2438.964293	-24.968590
2440.950131	-25.070401
2442.939204	-25.239496
2444.931522	-25.421936
2446.927092	-25.537661
2448.925923	-25.670976
2450.928022	-25.859054
2452.933397	-25.997897
2454.942056	-26.103721
2456.954008	-26.276334
2458.969260	-26.428977
2460.987821	-26.512171
2463.009699	-26.654071
2465.034902	-26.797590
2467.063437	-26.852459
2469.095315	-26.957057
2471.130542	-27.074138
2473.169127	-27.110829
2475.211078	-27.196550
2477.256404	-27.286703
2479.305112	-27.316875
2481.357212	-27.402787
2483.412713	-27.502278
2485.471621	-27.570016
2487.533946	-27.687500
2489.599696	-27.828769
2491.668880	-27.945329
2493.741507	-28.086479
2495.817585	-28.245035
2497.897122	-28.400612
2499.980127	-28.564586
2502.066609	-28.717296
2504.156578	-28.885090
2506.250040	-29.080347
2508.347006	-29.247124
2510.447483	-29.416108
2512.551482	-29.622096
2514.659010	-29.798211
2516.770076	-29.973146
2518.884690	-30.171041
2521.002861	-30.344740
2523.124597	-30.514628
2525.249907	-30.704620
2527.378801	-30.864962
2529.511287	-31.003576
2531.647375	-31.153657
2533.787074	-31.270969
2535.930393	-31.363340
2538.077340	-31.456711
2540.227927	-31.495614
2542.382160	-31.545374
2544.540051	-31.612334
2546.701608	-31.610221
2548.866840	-31.651598
2551.035757	-31.711732
2553.208369	-31.781812
2555.384684	-31.880013
2557.564713	-31.957600
2559.748465	-32.097825
2561.935948	-32.278707
2564.127174	-32.391750
2566.322152	-32.531921
2568.520890	-32.731168
2570.723399	-32.896003
2572.929689	-33.041526
2575.139769	-33.232624
2577.353649	-33.476373
2579.571340	-33.683787
2581.792849	-33.868971
2584.018189	-34.128711
2586.247368	-34.380998
2588.480396	-34.595140
2590.717284	-34.884609
2592.958041	-35.147343
2595.202678	-35.362527
2597.451204	-35.656300
2599.703630	-35.896215
2601.959966	-36.098235
2604.220222	-36.294759
2606.484408	-36.389332
2608.752535	-36.515395
2611.024612	-36.561336
2613.300651	-36.551202
2615.580661	-36.557288
2617.864653	-36.556797
2620.152638	-36.540641
2622.444625	-36.496627
2624.740626	-36.561743
2627.040651	-36.632970
2629.344710	-36.653591
2631.652814	-36.761127
2633.964974	-36.868647
2636.281200	-36.946550
2638.601504	-37.055683
2640.925896	-37.142972
2643.254386	-37.229166
2645.586987	-37.352059
2647.923707	-37.544464
2650.264559	-37.726405
2652.609554	-37.869338
2654.958702	-38.138939
2657.312015	-38.365355
2659.669503	-38.630113
2662.031178	-38.930970
2664.397051	-39.227407
2666.767132	-39.643544
2669.141434	-39.977405
2671.519968	-40.406522
2673.902745	-40.787251
2676.289776	-41.308479
2678.681072	-41.611449
2681.076646	-41.788800
2683.476508	-42.221809
2685.880671	-42.264573
2688.289145	-42.332055
2690.701942	-42.362167
2693.119075	-42.437403
2695.540554	-42.400237
2697.966391	-42.307193
2700.396599	-42.550040
2702.831189	-42.444580
2705.270172	-42.551068
2707.713561	-42.566056
2710.161368	-42.572365
2712.613605	-42.565882
2715.070283	-42.369075
2717.531416	-42.495790
2719.997014	-42.403659
2722.467090	-42.411760
2724.941657	-42.362191
2727.420726	-42.552057
2729.904310	-42.422808
2732.392421	-42.590848
2734.885072	-42.735981
2737.382275	-42.725173
2739.884042	-43.138164
2742.390387	-43.237120
2744.901321	-43.735472
2747.416857	-44.033745
2749.937008	-44.539407
2752.461787	-45.055378
2754.991206	-45.544327
2757.525279	-46.105231
2760.064017	-46.430642
2762.607434	-46.933429
2765.155544	-47.135349
2767.708358	-47.664579
2770.265890	-47.571896
2772.828153	-48.103833
2775.395160	-48.098286
2777.966924	-48.768737
2780.543459	-48.845870
2783.124778	-49.596153
2785.710894	-49.574878
2788.301821	-50.037689
2790.897572	-49.930155
2793.498160	-50.132293
2796.103599	-49.776620
2798.713903	-49.974924
2801.329085	-49.637585
2803.949159	-49.578012
2806.574139	-49.139834
2809.204038	-49.015765
2811.838871	-48.536746
2814.478650	-48.535182
2817.123391	-48.131512
2819.773107	-48.295414
2822.427812	-48.151015
2825.087521	-48.474559
2827.752247	-48.535381
2830.422005	-49.025723
2833.096808	-49.353148
2835.776672	-49.766801
2838.461611	-50.079319
2841.151638	-50.526966
2843.846769	-50.657409
2846.547019	-51.100930
2849.252401	-50.919321
2851.962930	-51.322372
2854.678621	-51.223589
2857.399489	-51.751144
2860.125549	-51.895707
2862.856815	-52.584180
2865.593302	-53.002477
2868.335026	-53.710731
2871.082002	-54.011718
2873.834244	-54.753105
2876.591767	-55.358835
2879.354588	-56.402976
2882.122721	-57.303009
2884.896181	-58.462739
2887.674984	-59.430689
2890.459146	-59.344422
2893.248681	-59.233537
2896.043606	-58.367547
2898.843937	-57.570601
2901.649687	-57.035430
2904.460875	-56.079945
2907.277515	-56.254021
2910.099623	-55.399561
2912.927215	-56.244471
2915.760308	-55.475478
2918.598916	-56.521912
2921.443057	-56.316509
2924.292747	-57.055081
2927.148002	-57.070937
2930.008837	-57.288227
2932.875270	-57.313625
2935.747318	-57.047330
2938.624995	-56.864179
2941.508320	-57.195374
2944.397308	-56.467993
2947.291977	-58.007150
2950.192343	-56.453288
2953.098423	-57.646045
2956.010234	-56.598048
2958.927792	-57.024138
2961.851116	-56.824785
2964.780221	-57.182029
2967.715126	-57.624344
2970.655847	-58.585236
2973.602402	-58.948453
2976.554808	-60.717949
2979.513083	-61.318140
2982.477243	-63.398137
2985.447308	-65.719532
2988.423293	-64.968183
2991.405218	-67.457460
2994.393099	-66.262211
2997.386955	-64.957039
