# 2022-03-21_16.44.10
# shape = sech2
# FWHM_ps = 0.1
# carrier_nm = 1542
# frep_MHz = 12126
# pow_mW = 8000
# GDD = 0.0
# propa_len = 0.11333333333333334
# untap_len = 0.01
# taper_len = 0.05333333333333333
# waist_len = 0.02
# uptap_len = 0.02
# untap_scale = 1.0
# waist_scale = 0.26666666666666666
# workingDir = NL_20110305_12 (Spirou)
# axis = slow
# window_ps = 10.0
# steps = 200
# points = 21700
# 
# wavelength [nm]	 power spectral density [dB]
600.043425	-71.472413
600.163550	-71.442679
600.283723	-71.413518
600.403943	-71.381087
600.524212	-71.344384
600.644529	-71.303272
600.764895	-71.258366
600.885308	-71.211254
601.005770	-71.164628
601.126280	-71.121566
601.246839	-71.084903
601.367446	-71.056659
601.488101	-71.037718
601.608804	-71.027773
601.729557	-71.025416
601.850357	-71.028086
601.971206	-71.032637
602.092104	-71.035767
602.213050	-71.034673
602.334045	-71.027482
602.455089	-71.013597
602.576181	-70.993633
602.697322	-70.969406
602.818511	-70.943722
602.939749	-70.919934
603.061036	-70.901237
603.182372	-70.889972
603.303757	-70.887448
603.425191	-70.893789
603.546673	-70.907686
603.668204	-70.926188
603.789785	-70.945514
603.911414	-70.961892
604.033092	-70.972095
604.154820	-70.973880
604.276596	-70.966408
604.398422	-70.950332
604.520297	-70.927987
604.642220	-70.903318
604.764193	-70.880876
604.886216	-70.864167
605.008287	-70.855494
605.130408	-70.856240
605.252578	-70.867018
605.374798	-70.887269
605.497066	-70.914748
605.619385	-70.945990
605.741752	-70.977172
605.864169	-71.005001
605.986636	-71.027177
606.109152	-71.043039
606.231718	-71.053701
606.354333	-71.061452
606.476998	-71.069341
606.599712	-71.081118
606.722476	-71.100965
606.845290	-71.132888
606.968154	-71.179696
607.091067	-71.242024
607.214030	-71.318406
607.337043	-71.406424
607.460106	-71.503056
607.583219	-71.604123
607.706381	-71.704705
607.829594	-71.800570
607.952856	-71.889181
608.076169	-71.969696
608.199531	-72.042810
608.322944	-72.110846
608.446407	-72.177293
608.569920	-72.245921
608.693483	-72.319868
608.817096	-72.401142
608.940759	-72.490731
609.064473	-72.588140
609.188237	-72.690293
609.312051	-72.792068
609.435916	-72.887600
609.559831	-72.971656
609.683796	-73.039904
609.807812	-73.089385
609.931878	-73.119411
610.055995	-73.131981
610.180162	-73.131200
610.304380	-73.122324
610.428648	-73.111260
610.552967	-73.103841
610.677337	-73.103978
610.801757	-73.112598
610.926228	-73.127874
611.050750	-73.146675
611.175323	-73.164577
611.299946	-73.175841
611.424620	-73.174434
611.549345	-73.155794
611.674121	-73.117622
611.798948	-73.059895
611.923826	-72.985119
612.048755	-72.898264
612.173734	-72.805478
612.298765	-72.712438
612.423847	-72.623423
612.548980	-72.541041
612.674165	-72.466382
612.799400	-72.398805
612.924687	-72.335816
613.050025	-72.272573
613.175414	-72.203073
613.300854	-72.122528
613.426346	-72.028471
613.551889	-71.919694
613.677484	-71.796304
613.803130	-71.660718
613.928827	-71.517744
614.054576	-71.373261
614.180377	-71.232988
614.306229	-71.101794
614.432132	-70.983486
614.558087	-70.880401
614.684094	-70.793266
614.810153	-70.721115
614.936263	-70.661743
615.062425	-70.611421
615.188639	-70.565144
615.314904	-70.517964
615.441222	-70.466254
615.567591	-70.408152
615.694012	-70.343222
615.820486	-70.272086
615.947011	-70.196740
616.073588	-70.121162
616.200217	-70.050491
616.326898	-69.989385
616.453632	-69.941136
616.580417	-69.908271
616.707255	-69.892561
616.834144	-69.894701
616.961086	-69.913720
617.088081	-69.946480
617.215127	-69.988654
617.342226	-70.036348
617.469378	-70.085831
617.596581	-70.133112
617.723837	-70.175562
617.851146	-70.212676
617.978507	-70.245460
618.105920	-70.275956
618.233386	-70.307378
618.360905	-70.344119
618.488476	-70.391497
618.616100	-70.454483
618.743777	-70.536634
618.871506	-70.640401
618.999288	-70.768000
619.127123	-70.920617
619.255011	-71.096975
619.382951	-71.293288
619.510945	-71.505304
619.638991	-71.729688
619.767090	-71.962649
619.895243	-72.198934
620.023448	-72.433468
620.151706	-72.664141
620.280017	-72.892555
620.408382	-73.122115
620.536799	-73.356841
620.665270	-73.602362
620.793794	-73.866561
620.922371	-74.158194
621.051002	-74.484831
621.179686	-74.852446
621.308423	-75.265959
621.437213	-75.729142
621.566057	-76.243731
621.694954	-76.808509
621.823905	-77.418922
621.952909	-78.068151
622.081967	-78.747814
622.211079	-79.445439
622.340244	-80.144945
622.469462	-80.832909
622.598735	-81.506599
622.728061	-82.174783
622.857441	-82.852514
622.986874	-83.561069
623.116361	-84.336872
623.245903	-85.236144
623.375498	-86.330487
623.505147	-87.705080
623.634850	-89.486599
623.764606	-91.916198
623.894417	-95.548945
624.024282	-102.106285
624.154201	-108.047243
624.284174	-98.221039
624.414202	-93.364369
624.544283	-90.322792
624.674419	-88.171489
624.804609	-86.562798
624.934853	-85.324933
625.065151	-84.357664
625.195504	-83.597529
625.325911	-83.001240
625.456373	-82.535466
625.586889	-82.170431
625.717460	-81.876157
625.848085	-81.626997
625.978764	-81.404299
626.109498	-81.194132
626.240287	-80.983501
626.371131	-80.762582
626.502029	-80.532169
626.632982	-80.302030
626.763989	-80.082772
626.895052	-79.881642
627.026169	-79.706838
627.157341	-79.570118
627.288568	-79.482116
627.419850	-79.447598
627.551187	-79.467779
627.682579	-79.542835
627.814026	-79.671527
627.945528	-79.849673
628.077085	-80.070023
628.208697	-80.323252
628.340364	-80.599756
628.472087	-80.888306
628.603865	-81.175258
628.735698	-81.447315
628.867586	-81.696986
628.999530	-81.927305
629.131529	-82.146386
629.263584	-82.361982
629.395694	-82.585156
629.527859	-82.836281
629.660080	-83.136446
629.792357	-83.499768
629.924689	-83.934133
630.057077	-84.445155
630.189520	-85.032621
630.322019	-85.682928
630.454574	-86.356842
630.587184	-86.978838
630.719851	-87.438939
630.852573	-87.619917
630.985351	-87.454217
631.118185	-86.966748
631.251075	-86.253942
631.384021	-85.426323
631.517023	-84.570408
631.650081	-83.737733
631.783195	-82.950116
631.916365	-82.208937
632.049592	-81.507808
632.182874	-80.839374
632.316213	-80.197039
632.449608	-79.573231
632.583059	-78.959905
632.716567	-78.352774
632.850131	-77.754199
632.983751	-77.168735
633.117428	-76.599132
633.251161	-76.047210
633.384951	-75.517815
633.518797	-75.016958
633.652700	-74.547692
633.786660	-74.110658
633.920676	-73.706779
634.054749	-73.337058
634.188879	-73.000780
634.323065	-72.694647
634.457308	-72.414744
634.591608	-72.157974
634.725965	-71.921449
634.860379	-71.700813
634.994850	-71.491374
635.129377	-71.289015
635.263962	-71.090928
635.398604	-70.895243
635.533303	-70.700586
635.668058	-70.506105
635.802872	-70.312727
635.937742	-70.123424
636.072669	-69.940486
636.207654	-69.765708
636.342696	-69.601806
636.477796	-69.452189
636.612953	-69.319407
636.748167	-69.205009
636.883439	-69.109921
637.018768	-69.034672
637.154155	-68.979597
637.289599	-68.943981
637.425101	-68.925428
637.560660	-68.921421
637.696277	-68.930424
637.831952	-68.950401
637.967685	-68.977292
638.103475	-69.006818
638.239324	-69.036148
638.375230	-69.063865
638.511194	-69.089099
638.647215	-69.111085
638.783295	-69.129507
638.919433	-69.146008
639.055629	-69.163872
639.191883	-69.186557
639.328195	-69.216914
639.464565	-69.258325
639.600994	-69.315500
639.737481	-69.392770
639.874025	-69.492739
640.010629	-69.617305
640.147290	-69.769215
640.284010	-69.951775
640.420789	-70.166887
640.557625	-70.414358
640.694521	-70.693312
640.831474	-71.003881
640.968487	-71.346903
641.105558	-71.721626
641.242687	-72.124721
641.379876	-72.552325
641.517123	-73.002831
641.654429	-73.475133
641.791793	-73.966016
641.929216	-74.471539
642.066699	-74.991825
642.204240	-75.529727
642.341840	-76.087302
642.479499	-76.666211
642.617217	-77.271756
642.754994	-77.914286
642.892830	-78.606472
643.030726	-79.359670
643.168680	-80.185749
643.306694	-81.100390
643.444767	-82.121127
643.582899	-83.252794
643.721091	-84.470275
643.859342	-85.697179
643.997652	-86.751976
644.136022	-87.313240
644.274451	-87.108983
644.412940	-86.229071
644.551488	-85.000528
644.690096	-83.687936
644.828763	-82.429646
644.967490	-81.284269
645.106277	-80.263341
645.245124	-79.356452
645.384030	-78.547960
645.522997	-77.824437
645.662023	-77.174841
645.801109	-76.587822
645.940255	-76.051400
646.079460	-75.555195
646.218726	-75.091172
646.358052	-74.652380
646.497438	-74.231838
646.636884	-73.822467
646.776391	-73.420889
646.915957	-73.027009
647.055584	-72.640140
647.195271	-72.258039
647.335019	-71.880200
647.474826	-71.509677
647.614695	-71.150460
647.754623	-70.803944
647.894612	-70.470345
648.034662	-70.151632
648.174772	-69.850774
648.314943	-69.569647
648.455174	-69.309092
648.595466	-69.069028
648.735819	-68.848867
648.876233	-68.649143
649.016707	-68.470403
649.157242	-68.311361
649.297838	-68.170098
649.438495	-68.045534
649.579213	-67.936373
649.719992	-67.840887
649.860832	-67.757143
650.001733	-67.683007
650.142695	-67.616263
650.283718	-67.555347
650.424803	-67.498961
650.565949	-67.445973
650.707156	-67.395276
650.848424	-67.345629
650.989754	-67.297039
651.131145	-67.250185
651.272597	-67.205631
651.414111	-67.164567
651.555687	-67.128982
651.697324	-67.100764
651.839022	-67.081114
651.980782	-67.071277
652.122604	-67.073297
652.264488	-67.089693
652.406433	-67.122297
652.548441	-67.172010
652.690510	-67.239601
652.832640	-67.326054
652.974833	-67.432027
653.117088	-67.558073
653.259405	-67.704032
653.401784	-67.869425
653.544224	-68.054440
653.686727	-68.258542
653.829293	-68.479834
653.971920	-68.716668
654.114609	-68.968735
654.257361	-69.235871
654.400175	-69.516263
654.543052	-69.806521
654.685991	-70.105160
654.828992	-70.414134
654.972056	-70.735095
655.115183	-71.067097
655.258372	-71.410195
655.401623	-71.767037
655.544937	-72.142363
655.688314	-72.540984
655.831754	-72.965975
655.975256	-73.421125
656.118822	-73.914008
656.262450	-74.453536
656.406141	-75.045270
656.549894	-75.692389
656.693711	-76.400947
656.837591	-77.178758
656.981534	-78.024063
657.125540	-78.918127
657.269610	-79.822291
657.413742	-80.668274
657.557938	-81.343555
657.702196	-81.704003
657.846519	-81.649547
657.990904	-81.197465
658.135353	-80.459357
658.279866	-79.571344
658.424441	-78.644383
658.569081	-77.747238
658.713784	-76.910402
658.858550	-76.140809
659.003381	-75.439860
659.148274	-74.809392
659.293232	-74.246604
659.438253	-73.743075
659.583339	-73.291451
659.728488	-72.886552
659.873701	-72.522993
660.018978	-72.195879
660.164318	-71.901417
660.309723	-71.635051
660.455192	-71.391996
660.600725	-71.169102
660.746323	-70.962687
660.891984	-70.769499
661.037710	-70.589652
661.183500	-70.422428
661.329354	-70.265442
661.475272	-70.118047
661.621255	-69.981294
661.767303	-69.855985
661.913415	-69.743681
662.059591	-69.645808
662.205833	-69.562809
662.352138	-69.495684
662.498509	-69.447077
662.644944	-69.419136
662.791443	-69.413130
662.938008	-69.430800
663.084638	-69.473864
663.231332	-69.542601
663.378091	-69.637545
663.524915	-69.761042
663.671804	-69.914862
663.818759	-70.098569
663.965778	-70.311003
664.112863	-70.553141
664.260012	-70.826160
664.407227	-71.129705
664.554507	-71.462072
664.701853	-71.820882
664.849264	-72.203723
664.996740	-72.607591
665.144282	-73.028790
665.291889	-73.461310
665.439561	-73.896562
665.587300	-74.327474
665.735103	-74.748333
665.882973	-75.149393
666.030908	-75.517643
666.178909	-75.844081
666.326976	-76.123740
666.475109	-76.349995
666.623307	-76.517730
666.771571	-76.628278
666.919902	-76.685117
667.068298	-76.687273
667.216761	-76.634290
667.365289	-76.534416
667.513884	-76.394321
667.662545	-76.213558
667.811272	-75.993282
667.960065	-75.739060
668.108925	-75.456803
668.257851	-75.150746
668.406843	-74.824873
668.555902	-74.483874
668.705027	-74.132976
668.854219	-73.777327
669.003478	-73.421637
669.152803	-73.069188
669.302195	-72.723150
669.451653	-72.387820
669.601179	-72.065885
669.750771	-71.757828
669.900430	-71.465987
670.050156	-71.193296
670.199949	-70.940510
670.349808	-70.707948
670.499735	-70.496242
670.649729	-70.306073
670.799790	-70.137673
670.949918	-69.992076
671.100114	-69.869669
671.250377	-69.769974
671.400707	-69.692607
671.551104	-69.637313
671.701569	-69.603583
671.852101	-69.591139
672.002700	-69.599054
672.153368	-69.625945
672.304102	-69.670923
672.454905	-69.732844
672.605775	-69.809811
672.756713	-69.899647
672.907718	-70.000605
673.058791	-70.111556
673.209933	-70.230893
673.361142	-70.355641
673.512419	-70.483277
673.663764	-70.612184
673.815177	-70.739916
673.966658	-70.864649
674.118207	-70.984730
674.269825	-71.097773
674.421510	-71.201774
674.573264	-71.295488
674.725086	-71.378447
674.876977	-71.449439
675.028936	-71.507494
675.180963	-71.553261
675.333059	-71.585804
675.485224	-71.603553
675.637457	-71.607500
675.789758	-71.599442
675.942129	-71.579621
676.094568	-71.547645
676.247075	-71.504117
676.399652	-71.450678
676.552298	-71.388736
676.705012	-71.318544
676.857795	-71.240739
677.010648	-71.155750
677.163569	-71.064047
677.316560	-70.967657
677.469619	-70.868307
677.622748	-70.765655
677.775946	-70.659000
677.929214	-70.549922
678.082551	-70.440533
678.235957	-70.331298
678.389432	-70.221579
678.542977	-70.112177
678.696592	-70.004457
678.850276	-69.898509
679.004030	-69.794076
679.157853	-69.692069
679.311746	-69.593628
679.465709	-69.499291
679.619742	-69.408669
679.773844	-69.320926
679.928017	-69.235826
680.082259	-69.153203
680.236571	-69.072920
680.390954	-68.995021
680.545406	-68.918979
680.699929	-68.843970
680.854522	-68.769385
681.009185	-68.694613
681.163918	-68.618921
681.318722	-68.542023
681.473596	-68.464417
681.628540	-68.386097
681.783555	-68.307337
681.938641	-68.228150
682.093797	-68.148808
682.249023	-68.070001
682.404321	-67.992834
682.559689	-67.917579
682.715128	-67.844632
682.870637	-67.774688
683.026218	-67.708970
683.181869	-67.648068
683.337591	-67.592159
683.493385	-67.541446
683.649249	-67.496283
683.805185	-67.457313
683.961191	-67.425717
684.117269	-67.402281
684.273418	-67.386037
684.429639	-67.377152
684.585930	-67.377293
684.742294	-67.388349
684.898728	-67.410091
685.055234	-67.441960
685.211812	-67.485914
685.368461	-67.545382
685.525182	-67.620716
685.681975	-67.711561
685.838839	-67.820328
685.995775	-67.950902
686.152783	-68.105112
686.309863	-68.284291
686.467014	-68.490720
686.624238	-68.726708
686.781534	-68.995181
686.938902	-69.298695
687.096342	-69.639232
687.253854	-70.018812
687.411438	-70.439700
687.569095	-70.902223
687.726824	-71.405339
687.884626	-71.947302
688.042499	-72.524587
688.200446	-73.126627
688.358465	-73.732937
688.516556	-74.313623
688.674720	-74.824869
688.832957	-75.207391
688.991266	-75.399119
689.149649	-75.357574
689.308104	-75.076027
689.466632	-74.585128
689.625233	-73.940352
689.783906	-73.203080
689.942653	-72.424645
690.101473	-71.641124
690.260367	-70.875797
690.419333	-70.142205
690.578372	-69.447106
690.737485	-68.793504
690.896672	-68.182207
691.055931	-67.611751
691.215264	-67.080237
691.374671	-66.585640
691.534151	-66.125691
691.693704	-65.698152
691.853332	-65.300857
692.013033	-64.931779
692.172807	-64.589052
692.332656	-64.270972
692.492578	-63.975659
692.652575	-63.701723
692.812645	-63.448819
692.972789	-63.215830
693.133007	-63.001783
693.293300	-62.805674
693.453666	-62.627042
693.614107	-62.465736
693.774622	-62.321222
693.935211	-62.192867
694.095875	-62.080076
694.256613	-61.982576
694.417426	-61.899295
694.578313	-61.829416
694.739274	-61.772596
694.900311	-61.728213
695.061421	-61.695605
695.222607	-61.674217
695.383868	-61.663208
695.545203	-61.661668
695.706613	-61.669937
695.868098	-61.688553
696.029658	-61.716600
696.191293	-61.752906
696.353003	-61.798533
696.514789	-61.854851
696.676649	-61.920925
696.838585	-61.995655
697.000596	-62.079616
697.162682	-62.173849
697.324844	-62.278556
697.487081	-62.392630
697.649394	-62.515611
697.811782	-62.648373
697.974246	-62.791520
698.136786	-62.944277
698.299401	-63.105719
698.462092	-63.275387
698.624859	-63.454026
698.787702	-63.642097
698.950621	-63.839415
699.113616	-64.044924
699.276686	-64.257717
699.439833	-64.478874
699.603056	-64.709536
699.766355	-64.948551
699.929731	-65.194655
700.093183	-65.448345
700.256711	-65.710330
700.420315	-65.981332
700.583996	-66.260022
700.747754	-66.544712
700.911588	-66.835694
701.075499	-67.134102
701.239486	-67.439259
701.403550	-67.749608
701.567691	-68.064012
701.731909	-68.382148
701.896203	-68.703488
702.060575	-69.026143
702.225024	-69.347897
702.389549	-69.667463
702.554152	-69.982011
702.718832	-70.287114
702.883589	-70.577505
703.048424	-70.847320
703.213335	-71.091164
703.378324	-71.303413
703.543391	-71.477027
703.708535	-71.602788
703.873757	-71.674100
704.039056	-71.688943
704.204433	-71.645599
704.369887	-71.542550
704.535420	-71.381006
704.701030	-71.164838
704.866718	-70.900285
705.032484	-70.596167
705.198328	-70.259076
705.364250	-69.896731
705.530250	-69.515666
705.696328	-69.122956
705.862485	-68.723439
706.028720	-68.322261
706.195033	-67.922878
706.361424	-67.527978
706.527894	-67.140281
706.694442	-66.761586
706.861069	-66.393186
707.027775	-66.035670
707.194559	-65.689181
707.361422	-65.354402
707.528363	-65.032205
707.695384	-64.723546
707.862483	-64.427517
708.029661	-64.144527
708.196918	-63.876256
708.364254	-63.622460
708.531670	-63.382619
708.699164	-63.156934
708.866738	-62.945526
709.034391	-62.748724
709.202123	-62.565779
709.369935	-62.395456
709.537826	-62.237778
709.705796	-62.092488
709.873847	-61.958965
710.041976	-61.836323
710.210186	-61.724462
710.378475	-61.624348
710.546844	-61.535527
710.715292	-61.457444
710.883821	-61.390272
711.052429	-61.334030
711.221118	-61.288876
711.389887	-61.254791
711.558735	-61.231461
711.727664	-61.218916
711.896673	-61.216738
712.065763	-61.224562
712.234932	-61.241961
712.404183	-61.269136
712.573513	-61.304949
712.742924	-61.348124
712.912416	-61.398244
713.081988	-61.455449
713.251641	-61.518373
713.421375	-61.585721
713.591190	-61.657012
713.761085	-61.731876
713.931061	-61.810087
714.101119	-61.890599
714.271257	-61.972205
714.441476	-62.054406
714.611777	-62.136590
714.782159	-62.217598
714.952622	-62.295099
715.123166	-62.367460
715.293792	-62.433827
715.464499	-62.493353
715.635288	-62.543680
715.806158	-62.583367
715.977110	-62.611435
716.148143	-62.627527
716.319259	-62.630796
716.490456	-62.620445
716.661735	-62.596463
716.833096	-62.559427
717.004538	-62.510078
717.176063	-62.448306
717.347670	-62.375194
717.519359	-62.292093
717.691130	-62.200092
717.862984	-62.100143
718.034920	-61.993415
718.206938	-61.880647
718.379039	-61.762224
718.551222	-61.639304
718.723488	-61.513085
718.895836	-61.384470
719.068267	-61.253889
719.240781	-61.122532
719.413377	-60.991770
719.586057	-60.862951
719.758819	-60.736147
719.931664	-60.612744
720.104593	-60.493594
720.277604	-60.379211
720.450699	-60.269676
720.623876	-60.165556
720.797137	-60.067495
720.970482	-59.975898
721.143910	-59.890198
721.317421	-59.810210
721.491016	-59.737072
721.664694	-59.670849
721.838456	-59.610790
722.012302	-59.557368
722.186231	-59.510937
722.360244	-59.471937
722.534342	-59.440843
722.708523	-59.417826
722.882788	-59.402598
723.057137	-59.395739
723.231570	-59.397205
723.406088	-59.406293
723.580689	-59.422880
723.755375	-59.446722
723.930146	-59.478011
724.105000	-59.516298
724.279940	-59.561579
724.454963	-59.613747
724.630072	-59.673365
724.805265	-59.740821
724.980543	-59.816718
725.155905	-59.900629
725.331353	-59.992724
725.506885	-60.093932
725.682503	-60.204160
725.858205	-60.322856
726.033993	-60.449759
726.209865	-60.584845
726.385823	-60.727535
726.561866	-60.877162
726.737995	-61.033931
726.914209	-61.198173
727.090508	-61.370570
727.266893	-61.552162
727.443364	-61.743847
727.619920	-61.945931
727.796562	-62.159137
727.973290	-62.385474
728.150103	-62.626166
728.327003	-62.880587
728.503988	-63.149480
728.681060	-63.434049
728.858218	-63.736327
729.035461	-64.055970
729.212791	-64.393788
729.390208	-64.751916
729.567710	-65.132397
729.745299	-65.536679
729.922975	-65.966451
730.100737	-66.423700
730.278586	-66.910814
730.456521	-67.431859
730.634543	-67.991945
730.812652	-68.595774
730.990848	-69.248153
731.169130	-69.958353
731.347500	-70.735978
731.525957	-71.593069
731.704500	-72.540951
731.883131	-73.595991
732.061850	-74.777081
732.240655	-76.097302
732.419548	-77.546210
732.598528	-79.053967
732.777596	-80.398752
732.956751	-81.133854
733.135994	-80.853964
733.315325	-79.709241
733.494744	-78.186302
733.674250	-76.628986
733.853844	-75.171012
734.033526	-73.850210
734.213296	-72.660143
734.393154	-71.583508
734.573101	-70.604840
734.753135	-69.711237
734.933258	-68.892757
735.113469	-68.139444
735.293769	-67.443164
735.474157	-66.796378
735.654633	-66.193147
735.835198	-65.629654
736.015852	-65.101912
736.196594	-64.604930
736.377426	-64.135397
736.558346	-63.692352
736.739355	-63.273231
736.920453	-62.875635
737.101640	-62.499005
737.282916	-62.142313
737.464282	-61.803692
737.645736	-61.482213
737.827280	-61.176946
738.008914	-60.887005
738.190637	-60.610857
738.372449	-60.347070
738.554351	-60.095335
738.736342	-59.854772
738.918424	-59.625521
739.100595	-59.407020
739.282855	-59.199137
739.465206	-59.002210
739.647647	-58.816158
739.830178	-58.640467
740.012799	-58.475121
740.195510	-58.319933
740.378311	-58.174750
740.561203	-58.038633
740.744185	-57.911204
740.927258	-57.792569
741.110421	-57.682736
741.293674	-57.582018
741.477018	-57.490450
741.660453	-57.408536
741.843979	-57.336640
742.027596	-57.275151
742.211303	-57.223941
742.395102	-57.183002
742.578991	-57.151767
742.762972	-57.129817
742.947044	-57.116495
743.131207	-57.111399
743.315461	-57.113994
743.499807	-57.124273
743.684244	-57.142947
743.868773	-57.170437
744.053394	-57.206972
744.238106	-57.252842
744.422910	-57.309088
744.607805	-57.375678
744.792793	-57.452046
744.977872	-57.537941
745.163044	-57.632518
745.348307	-57.734865
745.533663	-57.844178
745.719111	-57.959511
745.904651	-58.080570
746.090283	-58.207232
746.276008	-58.338696
746.461826	-58.474646
746.647735	-58.614294
746.833738	-58.757505
747.019833	-58.902397
747.206021	-59.047843
747.392302	-59.192133
747.578676	-59.332246
747.765143	-59.466177
747.951703	-59.592034
748.138356	-59.707237
748.325102	-59.810050
748.511941	-59.898815
748.698874	-59.972724
748.885900	-60.030813
749.073019	-60.072119
749.260232	-60.095043
749.447539	-60.098848
749.634939	-60.082213
749.822433	-60.043793
750.010021	-59.983658
750.197703	-59.901666
750.385479	-59.798354
750.573348	-59.675332
750.761312	-59.534665
750.949370	-59.379065
751.137523	-59.210999
751.325769	-59.032891
751.514110	-58.847010
751.702545	-58.655331
751.891075	-58.459443
752.079700	-58.260455
752.268419	-58.058146
752.457233	-57.853335
752.646142	-57.646826
752.835145	-57.439104
753.024244	-57.231200
753.213437	-57.024236
753.402726	-56.819377
753.592110	-56.618080
753.781589	-56.421258
753.971163	-56.229524
754.160833	-56.043195
754.350598	-55.862234
754.540459	-55.686441
754.730415	-55.514940
754.920467	-55.347479
755.110615	-55.183309
755.300858	-55.022934
755.491198	-54.867055
755.681633	-54.715983
755.872164	-54.570163
756.062792	-54.430164
756.253515	-54.296246
756.444335	-54.168553
756.635252	-54.047447
756.826264	-53.932625
757.017373	-53.824153
757.208579	-53.721972
757.399881	-53.626061
757.591280	-53.536399
757.782776	-53.453113
757.974368	-53.376838
758.166058	-53.307779
758.357844	-53.246016
758.549728	-53.191764
758.741708	-53.145124
758.933786	-53.106034
759.125961	-53.074330
759.318233	-53.049862
759.510603	-53.032348
759.703071	-53.021758
759.895635	-53.018186
760.088298	-53.021201
760.281058	-53.030903
760.473916	-53.046890
760.666872	-53.069152
760.859926	-53.097281
761.053078	-53.131292
761.246328	-53.170957
761.439676	-53.216009
761.633122	-53.266192
761.826667	-53.321297
762.020310	-53.380706
762.214052	-53.443853
762.407892	-53.510135
762.601831	-53.578763
762.795868	-53.648859
762.990004	-53.719318
763.184239	-53.789413
763.378573	-53.858189
763.573006	-53.924161
763.767538	-53.986191
763.962169	-54.042920
764.156900	-54.093233
764.351729	-54.135801
764.546658	-54.169509
764.741687	-54.193017
764.936815	-54.205470
765.132042	-54.205634
765.327370	-54.192895
765.522797	-54.166622
765.718324	-54.126820
765.913950	-54.073696
766.109677	-54.007390
766.305504	-53.928918
766.501431	-53.838664
766.697458	-53.737727
766.893586	-53.626767
767.089814	-53.506721
767.286142	-53.378119
767.482571	-53.241915
767.679100	-53.098774
767.875730	-52.949477
768.072461	-52.794998
768.269293	-52.636417
768.466225	-52.474602
768.663259	-52.310793
768.860393	-52.145890
769.057629	-51.980570
769.254966	-51.815292
769.452404	-51.650618
769.649944	-51.486691
769.847585	-51.323897
770.045328	-51.162242
770.243172	-51.002291
770.441118	-50.844508
770.639166	-50.689395
770.837315	-50.537301
771.035567	-50.388601
771.233920	-50.243539
771.432376	-50.102037
771.630934	-49.964264
771.829594	-49.830199
772.028356	-49.700161
772.227220	-49.574120
772.426188	-49.452290
772.625257	-49.335017
772.824430	-49.222695
773.023705	-49.115638
773.223083	-49.014059
773.422563	-48.918269
773.622147	-48.828304
773.821834	-48.744181
774.021624	-48.666273
774.221517	-48.594552
774.421513	-48.529123
774.621613	-48.470323
774.821816	-48.418481
775.022122	-48.373678
775.222532	-48.336175
775.423046	-48.306340
775.623664	-48.284299
775.824385	-48.269921
776.025211	-48.263394
776.226140	-48.264539
776.427173	-48.273610
776.628311	-48.290427
776.829553	-48.314925
777.030899	-48.347013
777.232350	-48.386568
777.433905	-48.433621
777.635564	-48.488076
777.837328	-48.549942
778.039197	-48.618827
778.241171	-48.694315
778.443250	-48.776222
778.645433	-48.863642
778.847722	-48.956014
779.050116	-49.052566
779.252615	-49.152760
779.455219	-49.255614
779.657929	-49.360587
779.860744	-49.467023
780.063665	-49.574181
780.266691	-49.681464
780.469823	-49.788151
780.673061	-49.893547
780.876405	-49.996767
781.079855	-50.096882
781.283410	-50.193030
781.487072	-50.284288
781.690840	-50.369971
781.894715	-50.449529
782.098695	-50.522336
782.302783	-50.587733
782.506976	-50.645313
782.711277	-50.694444
782.915684	-50.734783
783.120198	-50.765718
783.324818	-50.786560
783.529546	-50.796564
783.734381	-50.794932
783.939322	-50.780899
784.144372	-50.753898
784.349528	-50.713359
784.554792	-50.658903
784.760163	-50.590047
784.965642	-50.506164
785.171228	-50.406903
785.376922	-50.291921
785.582724	-50.160916
785.788634	-50.013804
785.994651	-49.850849
786.200777	-49.672615
786.407011	-49.480118
786.613353	-49.274379
786.819804	-49.057297
787.026363	-48.830624
787.233030	-48.596276
787.439806	-48.356167
787.646691	-48.112018
787.853684	-47.865618
788.060786	-47.618834
788.267997	-47.373515
788.475317	-47.131271
788.682746	-46.893489
788.890285	-46.661587
789.097932	-46.436869
789.305689	-46.220472
789.513555	-46.013294
789.721531	-45.816130
789.929617	-45.629545
790.137812	-45.454233
790.346117	-45.290766
790.554531	-45.139545
790.763056	-45.000943
790.971691	-44.875212
791.180436	-44.762683
791.389291	-44.663535
791.598256	-44.577798
791.807332	-44.505401
792.016518	-44.446252
792.225815	-44.400211
792.435222	-44.367132
792.644740	-44.346682
792.854369	-44.338672
793.064109	-44.342618
793.273960	-44.358274
793.483922	-44.385197
793.693995	-44.422809
793.904180	-44.470362
794.114475	-44.527057
794.324882	-44.592260
794.535401	-44.665162
794.746031	-44.744881
794.956774	-44.830391
795.167627	-44.920736
795.378593	-45.014822
795.589671	-45.111637
795.800861	-45.210136
796.012162	-45.309134
796.223577	-45.407695
796.435103	-45.505009
796.646742	-45.600242
796.858493	-45.692441
797.070357	-45.780777
797.282334	-45.864315
797.494423	-45.942446
797.706626	-46.014630
797.918941	-46.080062
798.131369	-46.137989
798.343911	-46.187614
798.556566	-46.228392
798.769334	-46.259647
798.982215	-46.280786
799.195210	-46.291182
799.408319	-46.290657
799.621541	-46.278804
799.834877	-46.255278
800.048327	-46.219564
800.261890	-46.171288
800.475568	-46.110212
800.689360	-46.036527
800.903266	-45.950266
801.117287	-45.851366
801.331422	-45.740261
801.545671	-45.617385
801.760036	-45.483440
801.974514	-45.338711
802.189108	-45.183724
802.403816	-45.018759
802.618640	-44.844774
802.833578	-44.662840
803.048632	-44.473936
803.263800	-44.278990
803.479085	-44.078812
803.694484	-43.874176
803.909999	-43.665802
804.125630	-43.454243
804.341376	-43.240151
804.557239	-43.024369
804.773217	-42.807667
804.989311	-42.590862
805.205521	-42.374398
805.421847	-42.158784
805.638290	-41.944497
805.854849	-41.732226
806.071524	-41.522509
806.288316	-41.315856
806.505225	-41.112756
806.722250	-40.913648
806.939393	-40.718956
807.156652	-40.529051
807.374028	-40.344273
807.591521	-40.165013
807.809132	-39.991622
808.026859	-39.824496
808.244705	-39.664077
808.462667	-39.510696
808.680748	-39.364728
808.898946	-39.226343
809.117261	-39.095713
809.335695	-38.972810
809.554246	-38.857626
809.772916	-38.750139
809.991704	-38.650381
810.210610	-38.558346
810.429634	-38.473879
810.648777	-38.396716
810.868039	-38.326382
811.087419	-38.262392
811.306918	-38.204226
811.526535	-38.151331
811.746272	-38.103130
811.966127	-38.058968
812.186102	-38.018158
812.406196	-37.979934
812.626409	-37.943411
812.846742	-37.907627
813.067194	-37.871781
813.287766	-37.835208
813.508457	-37.797457
813.729269	-37.758108
813.950200	-37.716810
814.171251	-37.673354
814.392422	-37.627699
814.613714	-37.580002
814.835126	-37.530667
815.056658	-37.480183
815.278311	-37.429178
815.500084	-37.378321
815.721978	-37.328318
815.943993	-37.279933
816.166128	-37.234004
816.388385	-37.191424
816.610762	-37.152968
816.833261	-37.119438
817.055881	-37.091461
817.278623	-37.069625
817.501486	-37.054441
817.724471	-37.046423
817.947577	-37.045973
818.170805	-37.053411
818.394155	-37.068865
818.617627	-37.092278
818.841221	-37.123470
819.064937	-37.162026
819.288775	-37.207482
819.512736	-37.259261
819.736819	-37.316661
819.961025	-37.378776
820.185354	-37.444453
820.409805	-37.512329
820.634379	-37.580877
820.859076	-37.648463
821.083897	-37.713414
821.308840	-37.773985
821.533907	-37.828524
821.759097	-37.875293
821.984411	-37.912508
822.209848	-37.938464
822.435409	-37.951555
822.661093	-37.950511
822.886902	-37.934438
823.112834	-37.902864
823.338891	-37.855630
823.565072	-37.792883
823.791377	-37.715238
824.017807	-37.623538
824.244361	-37.518952
824.471039	-37.402984
824.697843	-37.277451
824.924771	-37.144365
825.151824	-37.005663
825.379002	-36.863315
825.606306	-36.719206
825.833734	-36.575113
826.061288	-36.432699
826.288967	-36.293542
826.516772	-36.159168
826.744703	-36.030807
826.972759	-35.909411
827.200941	-35.795638
827.429249	-35.689986
827.657683	-35.592810
827.886243	-35.504284
828.114930	-35.424379
828.343743	-35.352831
828.572682	-35.289137
828.801748	-35.232596
829.030941	-35.182260
829.260260	-35.136975
829.489706	-35.095486
829.719280	-35.056440
829.948980	-35.018426
830.178808	-34.979901
830.408763	-34.939345
830.638845	-34.895281
830.869055	-34.846446
831.099393	-34.791814
831.329858	-34.730571
831.560451	-34.662305
831.791173	-34.586827
832.022022	-34.504336
832.252999	-34.415341
832.484105	-34.320672
832.715339	-34.221384
832.946702	-34.118827
833.178193	-34.014440
833.409813	-33.909792
833.641561	-33.806379
833.873439	-33.705640
834.105445	-33.608950
834.337581	-33.517481
834.569846	-33.432296
834.802241	-33.354201
835.034764	-33.283837
835.267418	-33.221637
835.500201	-33.167804
835.733114	-33.122362
835.966157	-33.085068
836.199329	-33.055533
836.432632	-33.033206
836.666065	-33.017327
836.899629	-33.006991
837.133323	-33.001119
837.367147	-32.998677
837.601102	-32.998580
837.835188	-32.999737
838.069405	-33.001007
838.303752	-33.001306
838.538231	-32.999676
838.772841	-32.995243
839.007582	-32.987342
839.242455	-32.975481
839.477459	-32.959375
839.712595	-32.938902
839.947863	-32.914089
840.183263	-32.885079
840.418794	-32.852288
840.654458	-32.816386
840.890254	-32.778081
841.126182	-32.737967
841.362242	-32.696533
841.598435	-32.654317
841.834761	-32.611901
842.071220	-32.569836
842.307811	-32.528510
842.544536	-32.488216
842.781393	-32.449064
843.018384	-32.411134
843.255508	-32.374492
843.492765	-32.339194
843.730156	-32.305287
843.967681	-32.272685
844.205339	-32.241175
844.443132	-32.210450
844.681058	-32.180285
844.919118	-32.150653
845.157313	-32.121522
845.395642	-32.092714
845.634105	-32.063829
845.872703	-32.034517
846.111436	-32.004532
846.350303	-31.973749
846.589306	-31.942028
846.828443	-31.909167
847.067716	-31.874812
847.307124	-31.838615
847.546667	-31.800306
847.786345	-31.759731
848.026160	-31.716664
848.266110	-31.670822
848.506195	-31.621943
848.746417	-31.569843
848.986775	-31.514303
849.227269	-31.455215
849.467899	-31.392673
849.708666	-31.326959
849.949569	-31.258543
850.190609	-31.188001
850.431785	-31.115956
850.673099	-31.043082
850.914549	-30.970202
851.156137	-30.898276
851.397861	-30.828285
851.639723	-30.760996
851.881723	-30.696997
852.123860	-30.636940
852.366135	-30.581461
852.608547	-30.530993
852.851098	-30.485628
853.093786	-30.445121
853.336613	-30.409004
853.579578	-30.376671
853.822681	-30.347432
854.065923	-30.320370
854.309304	-30.294295
854.552823	-30.267898
854.796481	-30.239983
855.040278	-30.209469
855.284215	-30.175362
855.528290	-30.136820
855.772505	-30.093339
856.016859	-30.044816
856.261353	-29.991558
856.505987	-29.934268
856.750760	-29.873828
856.995673	-29.811343
857.240727	-29.748225
857.485920	-29.686172
857.731254	-29.626792
857.976729	-29.571540
858.222343	-29.521692
858.468099	-29.478254
858.713995	-29.441958
858.960032	-29.413217
859.206211	-29.392059
859.452530	-29.378060
859.698991	-29.370425
859.945593	-29.368015
860.192336	-29.369347
860.439222	-29.372660
860.686248	-29.376170
860.933417	-29.378147
861.180728	-29.376859
861.428181	-29.370733
861.675776	-29.358541
861.923514	-29.339549
862.171394	-29.313640
862.419417	-29.281308
862.667582	-29.243554
862.915890	-29.201767
863.164342	-29.157663
863.412936	-29.113174
863.661674	-29.070235
863.910555	-29.030731
864.159579	-28.996329
864.408747	-28.968370
864.658059	-28.947782
864.907515	-28.935115
865.157114	-28.930471
865.406858	-28.933375
865.656746	-28.942766
865.906778	-28.957118
866.156955	-28.974650
866.407277	-28.993434
866.657743	-29.011514
866.908354	-29.026850
867.159110	-29.037488
867.410011	-29.041882
867.661057	-29.039108
867.912249	-29.028847
868.163586	-29.011322
868.415069	-28.987265
868.666697	-28.957949
868.918472	-28.925127
869.170392	-28.890834
869.422458	-28.857112
869.674671	-28.825819
869.927030	-28.798563
870.179536	-28.776641
870.432188	-28.760959
870.684987	-28.751991
870.937933	-28.749707
871.191026	-28.753549
871.444266	-28.762365
871.697653	-28.774557
871.951188	-28.788320
872.204870	-28.801751
872.458700	-28.813013
872.712677	-28.820407
872.966803	-28.822529
873.221076	-28.818357
873.475498	-28.807368
873.730068	-28.789632
873.984787	-28.765806
874.239654	-28.737003
874.494669	-28.704664
874.749834	-28.670496
875.005147	-28.636313
875.260610	-28.603897
875.516222	-28.574742
875.771983	-28.549954
876.027894	-28.530213
876.283954	-28.515870
876.540164	-28.506925
876.796524	-28.502889
877.053033	-28.502708
877.309693	-28.505032
877.566503	-28.508409
877.823464	-28.511374
878.080575	-28.512448
878.337837	-28.510304
878.595249	-28.503905
878.852813	-28.492630
879.110528	-28.476240
879.368393	-28.454815
879.626410	-28.428792
879.884579	-28.399080
880.142899	-28.366889
880.401371	-28.333450
880.659994	-28.299944
880.918770	-28.267614
881.177698	-28.237658
881.436778	-28.210924
881.696010	-28.187727
881.955395	-28.168075
882.214933	-28.151906
882.474623	-28.139010
882.734467	-28.128788
882.994463	-28.120295
883.254613	-28.112529
883.514916	-28.104479
883.775372	-28.095167
884.035982	-28.083622
884.296746	-28.069025
884.557664	-28.050873
884.818735	-28.028972
885.079961	-28.003299
885.341341	-27.974069
885.602876	-27.941909
885.864565	-27.907796
886.126409	-27.872897
886.388407	-27.838345
886.650561	-27.805168
886.912870	-27.774435
887.175334	-27.747190
887.437953	-27.724237
887.700728	-27.705926
887.963658	-27.692274
888.226745	-27.683053
888.489987	-27.677665
888.753385	-27.675080
889.016940	-27.673882
889.280651	-27.672468
889.544518	-27.669262
889.808543	-27.662911
890.072723	-27.652380
890.337061	-27.637039
890.601556	-27.616744
890.866208	-27.591944
891.131017	-27.563664
891.395984	-27.533369
891.661109	-27.502850
891.926391	-27.474117
892.191831	-27.449174
892.457429	-27.429693
892.723186	-27.416658
892.989100	-27.410406
893.255173	-27.410683
893.521405	-27.416507
893.787796	-27.426024
894.054345	-27.436780
894.321053	-27.446193
894.587921	-27.451886
894.854948	-27.451767
895.122134	-27.444229
895.389480	-27.428522
895.656986	-27.405035
895.924651	-27.375241
896.192477	-27.341378
896.460463	-27.306253
896.728609	-27.273047
896.996915	-27.244902
897.265382	-27.224239
897.534010	-27.212402
897.802799	-27.209745
898.071749	-27.215699
898.340860	-27.228649
898.610132	-27.245862
898.879566	-27.263821
899.149162	-27.278848
899.418919	-27.287655
899.688838	-27.287739
899.958919	-27.277736
900.229162	-27.257805
900.499568	-27.229710
900.770136	-27.196453
901.040867	-27.161703
901.311761	-27.129319
901.582817	-27.103054
901.854037	-27.086048
902.125420	-27.080230
902.396966	-27.085953
902.668676	-27.102025
902.940550	-27.125837
903.212587	-27.153612
903.484788	-27.180819
903.757153	-27.202694
904.029683	-27.215098
904.302377	-27.215245
904.575236	-27.202130
904.848259	-27.176791
905.121447	-27.142112
905.394800	-27.102385
905.668319	-27.062594
905.942002	-27.027562
906.215852	-27.001212
906.489866	-26.986052
906.764047	-26.983055
907.038393	-26.991566
907.312906	-27.008993
907.587584	-27.030941
907.862429	-27.052057
908.137441	-27.067048
908.412619	-27.071355
908.687964	-27.061843
908.963476	-27.037627
909.239155	-27.000352
909.515002	-26.953696
909.791015	-26.902576
910.067197	-26.852487
910.343546	-26.808707
910.620063	-26.775449
910.896748	-26.754972
911.173601	-26.747342
911.450623	-26.750583
911.727813	-26.761013
912.005171	-26.773624
912.282699	-26.782716
912.560395	-26.782865
912.838261	-26.769921
913.116296	-26.741962
913.394500	-26.699821
913.672874	-26.646777
913.951418	-26.587773
914.230131	-26.528586
914.509015	-26.475027
914.788068	-26.431890
915.067292	-26.402077
915.346687	-26.386318
915.626252	-26.383151
915.905988	-26.388978
916.185895	-26.398462
916.465973	-26.405613
916.746223	-26.404992
917.026644	-26.392490
917.307236	-26.365873
917.588000	-26.325400
917.868937	-26.273995
918.150045	-26.216514
918.431325	-26.158716
918.712778	-26.106239
918.994404	-26.063650
919.276202	-26.033600
919.558173	-26.016454
919.840317	-26.010315
920.122634	-26.011329
920.405125	-26.014330
920.687789	-26.013803
920.970627	-26.004801
921.253639	-25.983661
921.536824	-25.948858
921.820184	-25.901569
922.103718	-25.845392
922.387427	-25.785349
922.671310	-25.726887
922.955368	-25.675070
923.239601	-25.633669
923.524009	-25.604360
923.808592	-25.586587
924.093351	-25.577943
924.378285	-25.574631
924.663396	-25.571969
924.948682	-25.565126
925.234144	-25.550006
925.519782	-25.524181
925.805597	-25.487469
926.091589	-25.441821
926.377757	-25.390867
926.664102	-25.339142
926.950624	-25.291189
927.237323	-25.250717
927.524200	-25.220010
927.811255	-25.199612
928.098487	-25.188302
928.385897	-25.183410
928.673485	-25.181232
928.961251	-25.177553
929.249196	-25.168440
929.537319	-25.151220
929.825621	-25.125064
930.114102	-25.090962
930.402762	-25.051515
930.691601	-25.010533
930.980620	-24.972197
931.269818	-24.940123
931.559196	-24.916822
931.848753	-24.903479
932.138491	-24.899661
932.428409	-24.903197
932.718508	-24.910542
933.008787	-24.917472
933.299246	-24.919855
933.589887	-24.914449
933.880709	-24.899757
934.171712	-24.876308
934.462896	-24.846463
934.754262	-24.813937
935.045810	-24.783067
935.337539	-24.758000
935.629451	-24.741948
935.921545	-24.736611
936.213822	-24.741621
936.506281	-24.754385
936.798922	-24.770594
937.091747	-24.785169
937.384755	-24.793254
937.677946	-24.791280
937.971321	-24.777714
938.264879	-24.753515
938.558621	-24.722064
938.852547	-24.688336
939.146657	-24.657774
939.440952	-24.635306
939.735431	-24.624196
940.030095	-24.625036
940.324943	-24.635656
940.619977	-24.651717
940.915196	-24.667434
941.210600	-24.676758
941.506189	-24.674997
941.801965	-24.659998
942.097926	-24.632583
942.394074	-24.596673
942.690407	-24.558598
942.986927	-24.525337
943.283634	-24.502608
943.580527	-24.493799
943.877608	-24.499147
944.174875	-24.515449
944.472330	-24.536725
944.769972	-24.555648
945.067802	-24.565037
945.365820	-24.559782
945.664026	-24.538440
945.962420	-24.503898
946.261002	-24.462584
946.559773	-24.422837
946.858733	-24.392654
947.157881	-24.377631
947.457219	-24.379611
947.756746	-24.396427
948.056462	-24.422309
948.356368	-24.448822
948.656464	-24.466752
948.956749	-24.468642
949.257225	-24.451170
949.557891	-24.416371
949.858748	-24.370987
950.159796	-24.324459
950.461034	-24.286403
950.762463	-24.264081
951.064084	-24.260731
951.365896	-24.274683
951.667900	-24.299630
951.970095	-24.326165
952.272483	-24.344092
952.575063	-24.345105
952.877835	-24.325514
953.180799	-24.287561
953.483956	-24.238771
953.787307	-24.189703
954.090850	-24.150888
954.394586	-24.129936
954.698516	-24.129734
955.002640	-24.147799
955.306957	-24.176690
955.611469	-24.205687
955.916174	-24.223817
956.221074	-24.223063
956.526169	-24.200921
956.831458	-24.161438
957.136942	-24.113799
957.442622	-24.069414
957.748496	-24.038746
958.054567	-24.028437
958.360833	-24.039587
958.667294	-24.067395
958.973952	-24.102304
959.280806	-24.132493
959.587857	-24.147265
959.895104	-24.140410
960.202548	-24.112330
960.510189	-24.069935
960.818027	-24.024306
961.126062	-23.987137
961.434295	-23.967294
961.742726	-23.968503
962.051355	-23.988400
962.360182	-24.019094
962.669207	-24.049241
962.978431	-24.067443
963.287854	-24.065656
963.597475	-24.041849
963.907296	-24.001009
964.217315	-23.953268
964.527535	-23.910116
964.837954	-23.880989
965.148573	-23.870874
965.459392	-23.878816
965.770411	-23.898178
966.081630	-23.918776
966.393051	-23.929768
966.704672	-23.923058
967.016494	-23.896271
967.328517	-23.853293
967.640742	-23.802808
967.953169	-23.755447
968.265797	-23.720139
968.578627	-23.701574
968.891660	-23.699093
969.204895	-23.706804
969.518332	-23.715629
969.831972	-23.716366
970.145816	-23.702279
970.459862	-23.671329
970.774112	-23.627216
971.088565	-23.577767
971.403223	-23.531889
971.718084	-23.496807
972.033149	-23.475861
972.348419	-23.467867
972.663893	-23.467676
972.979572	-23.467642
973.295456	-23.460115
973.611546	-23.440152
973.927840	-23.407034
974.244340	-23.364457
974.561046	-23.319100
974.877958	-23.278036
975.195076	-23.246499
975.512401	-23.226619
975.829932	-23.216657
976.147670	-23.211600
976.465615	-23.205221
976.783767	-23.192124
977.102126	-23.169090
977.420693	-23.136358
977.739468	-23.097628
978.058451	-23.058511
978.377642	-23.024557
978.697041	-22.999450
979.016649	-22.983875
979.336466	-22.975633
979.656492	-22.970494
979.976727	-22.963373
980.297171	-22.950082
980.617825	-22.928787
980.938689	-22.900493
981.259763	-22.868840
981.581048	-22.838718
981.902542	-22.814346
982.224248	-22.798150
982.546164	-22.789958
982.868291	-22.786893
983.190630	-22.784543
983.513180	-22.778479
983.835942	-22.765541
984.158916	-22.745126
984.482101	-22.719452
984.805500	-22.692758
985.129110	-22.669851
985.452934	-22.654183
985.776970	-22.646735
986.101220	-22.645658
986.425683	-22.646730
986.750359	-22.644772
987.075250	-22.635692
987.400354	-22.618176
987.725673	-22.594210
988.051206	-22.568149
988.376954	-22.545239
988.702916	-22.529740
989.029094	-22.523055
989.355487	-22.523087
989.682095	-22.524933
990.008919	-22.522588
990.335959	-22.511561
990.663216	-22.490793
990.990688	-22.462929
991.318377	-22.433415
991.646283	-22.408312
991.974406	-22.391698
992.302746	-22.384126
992.631304	-22.382166
992.960079	-22.379492
993.289072	-22.369742
993.618283	-22.349179
993.947713	-22.318636
994.277361	-22.283075
994.607227	-22.249136
994.937313	-22.222846
995.267618	-22.206923
995.598142	-22.199299
995.928886	-22.194089
996.259849	-22.184056
996.591033	-22.163803
996.922437	-22.132341
997.254061	-22.093535
997.585906	-22.054627
997.917972	-22.022923
998.250260	-22.002256
998.582768	-21.991536
998.915498	-21.985169
999.248450	-21.975561
999.581624	-21.956405
999.915020	-21.925646
1000.248639	-21.886833
1000.582480	-21.847365
1000.916545	-21.815063
1001.250832	-21.794573
1001.585343	-21.785136
1001.920077	-21.781094
1002.255035	-21.774470
1002.590218	-21.758521
1002.925624	-21.731200
1003.261255	-21.696001
1003.597111	-21.660416
1003.933192	-21.632521
1004.269497	-21.616926
1004.606029	-21.612529
1004.942785	-21.613100
1005.279768	-21.610377
1005.616977	-21.597973
1005.954412	-21.574223
1006.292074	-21.543501
1006.629962	-21.513955
1006.968077	-21.493172
1007.306420	-21.484744
1007.644990	-21.486329
1007.983787	-21.490922
1008.322813	-21.490120
1008.662067	-21.478321
1009.001549	-21.455884
1009.341259	-21.428598
1009.681199	-21.404695
1010.021367	-21.390784
1010.361765	-21.388575
1010.702392	-21.394129
1011.043250	-21.399383
1011.384337	-21.396339
1011.725654	-21.381295
1012.067202	-21.356853
1012.408980	-21.330480
1012.750989	-21.310204
1013.093230	-21.300740
1013.435702	-21.301208
1013.778405	-21.305527
1014.121341	-21.305503
1014.464508	-21.294886
1014.807908	-21.272921
1015.151540	-21.244642
1015.495405	-21.218085
1015.839503	-21.199874
1016.183835	-21.191777
1016.528400	-21.190210
1016.873198	-21.187898
1017.218231	-21.177718
1017.563498	-21.156679
1017.908999	-21.127319
1018.254735	-21.096399
1018.600707	-21.071026
1018.946913	-21.054870
1019.293354	-21.046276
1019.640032	-21.039415
1019.986945	-21.027630
1020.334094	-21.006786
1020.681480	-20.977549
1021.029102	-20.945002
1021.376961	-20.915766
1021.725058	-20.894211
1022.073391	-20.880353
1022.421962	-20.870013
1022.770772	-20.857177
1023.119819	-20.837385
1023.469104	-20.810113
1023.818628	-20.779027
1024.168391	-20.749575
1024.518393	-20.726211
1024.868634	-20.710073
1025.219115	-20.698472
1025.569836	-20.686496
1025.920796	-20.669726
1026.271997	-20.646915
1026.623438	-20.620235
1026.975121	-20.593972
1027.327044	-20.572198
1027.679208	-20.556679
1028.031614	-20.545924
1028.384262	-20.536055
1028.737152	-20.523228
1029.090284	-20.505542
1029.443659	-20.484189
1029.797276	-20.462455
1030.151137	-20.443817
1030.505240	-20.430128
1030.859587	-20.420684
1031.214178	-20.412710
1031.569013	-20.402707
1031.924093	-20.388625
1032.279417	-20.370882
1032.634985	-20.352133
1032.990799	-20.335505
1033.346858	-20.322852
1033.703162	-20.313804
1034.059712	-20.305948
1034.416509	-20.296001
1034.773551	-20.281770
1035.130841	-20.263693
1035.488377	-20.244383
1035.846160	-20.227077
1036.204190	-20.213506
1036.562468	-20.202945
1036.920994	-20.192453
1037.279768	-20.178673
1037.638790	-20.159726
1037.998061	-20.136616
1038.357581	-20.112722
1038.717350	-20.091591
1039.077368	-20.074787
1039.437636	-20.060730
1039.798154	-20.045399
1040.158922	-20.024764
1040.519940	-19.997535
1040.881209	-19.966324
1041.242729	-19.935991
1041.604501	-19.910570
1041.966524	-19.890614
1042.328798	-19.872605
1042.691325	-19.850881
1043.054103	-19.821553
1043.417135	-19.785327
1043.780419	-19.747184
1044.143956	-19.713157
1044.507746	-19.686534
1044.871791	-19.665429
1045.236088	-19.643886
1045.600641	-19.615677
1045.965447	-19.578678
1046.330508	-19.536591
1046.695824	-19.496641
1047.061395	-19.464804
1047.427222	-19.441783
1047.793304	-19.422406
1048.159642	-19.398803
1048.526237	-19.365888
1048.893088	-19.325015
1049.260196	-19.283495
1049.627561	-19.249525
1049.995183	-19.226619
1050.363063	-19.210943
1050.731201	-19.193979
1051.099597	-19.168207
1051.468251	-19.132714
1051.837164	-19.093811
1052.206336	-19.060816
1052.575767	-19.039394
1052.945458	-19.027641
1053.315409	-19.017173
1053.685619	-18.999275
1054.056090	-18.970996
1054.426821	-18.937411
1054.797814	-18.907854
1055.169067	-18.889205
1055.540582	-18.880809
1055.912359	-18.875024
1056.284398	-18.862892
1056.656698	-18.840652
1057.029262	-18.812603
1057.402088	-18.787678
1057.775177	-18.772703
1058.148530	-18.767183
1058.522146	-18.763843
1058.896027	-18.754061
1059.270171	-18.734441
1059.644580	-18.709383
1060.019254	-18.687584
1060.394193	-18.675109
1060.769397	-18.670807
1061.144867	-18.667017
1061.520602	-18.655524
1061.896604	-18.634141
1062.272872	-18.608343
1062.649407	-18.586744
1063.026210	-18.574363
1063.403279	-18.568798
1063.780616	-18.561879
1064.158221	-18.546059
1064.536094	-18.520552
1064.914235	-18.491989
1065.292645	-18.468921
1065.671325	-18.455185
1066.050273	-18.446966
1066.429491	-18.435774
1066.808979	-18.415184
1067.188738	-18.386081
1067.568766	-18.355627
1067.949066	-18.331589
1068.329636	-18.316213
1068.710478	-18.304681
1069.091592	-18.288963
1069.472977	-18.264435
1069.854635	-18.233448
1070.236565	-18.203198
1070.618768	-18.179765
1071.001243	-18.163494
1071.383993	-18.148875
1071.767016	-18.129211
1072.150313	-18.102300
1072.533884	-18.072026
1072.917730	-18.044767
1073.301850	-18.024217
1073.686246	-18.008672
1074.070917	-17.992634
1074.455864	-17.971684
1074.841087	-17.946127
1075.226586	-17.920444
1075.612362	-17.899382
1075.998415	-17.883951
1076.384745	-17.870944
1076.771353	-17.855824
1077.158238	-17.836688
1077.545401	-17.815780
1077.932843	-17.797296
1078.320564	-17.783703
1078.708564	-17.773636
1079.096842	-17.763224
1079.485401	-17.749488
1079.874240	-17.733075
1080.263358	-17.717338
1080.652757	-17.705269
1081.042438	-17.696782
1081.432399	-17.688883
1081.822641	-17.678390
1082.213166	-17.664887
1082.603972	-17.650907
1082.995061	-17.639519
1083.386433	-17.631549
1083.778087	-17.624624
1084.170025	-17.615585
1084.562246	-17.603395
1084.954751	-17.590123
1085.347541	-17.578933
1085.740615	-17.571029
1086.133973	-17.564566
1086.527617	-17.556375
1086.921546	-17.544980
1087.315761	-17.532001
1087.710262	-17.520455
1088.105050	-17.511780
1088.500124	-17.504634
1088.895485	-17.496217
1089.291134	-17.484936
1089.687070	-17.471770
1090.083294	-17.458958
1090.479806	-17.447872
1090.876607	-17.437984
1091.273696	-17.427451
1091.671075	-17.415038
1092.068744	-17.400832
1092.466702	-17.385679
1092.864950	-17.370448
1093.263489	-17.355870
1093.662319	-17.342030
1094.061440	-17.328498
1094.460852	-17.314126
1094.860555	-17.297702
1095.260551	-17.279265
1095.660840	-17.260802
1096.061421	-17.244772
1096.462295	-17.231721
1096.863462	-17.219339
1097.264923	-17.204256
1097.666678	-17.185464
1098.068727	-17.166056
1098.471071	-17.150574
1098.873710	-17.140336
1099.276644	-17.131843
1099.679874	-17.119860
1100.083400	-17.102519
1100.487222	-17.083976
1100.891340	-17.070433
1101.295756	-17.063659
1101.700468	-17.058754
1102.105478	-17.048789
1102.510787	-17.031821
1102.916393	-17.013317
1103.322298	-17.000833
1103.728502	-16.995632
1104.135005	-16.990996
1104.541807	-16.979029
1104.948909	-16.959162
1105.356312	-16.938799
1105.764015	-16.925531
1106.172019	-16.918777
1106.580324	-16.910348
1106.988931	-16.893352
1107.397840	-16.869413
1107.807051	-16.846999
1108.216564	-16.832001
1108.626380	-16.821661
1109.036500	-16.808019
1109.446923	-16.786514
1109.857649	-16.760548
1110.268680	-16.737639
1110.680016	-16.721442
1111.091657	-16.708463
1111.503602	-16.692087
1111.915854	-16.669296
1112.328411	-16.643358
1112.741275	-16.620682
1113.154445	-16.604554
1113.567922	-16.591775
1113.981706	-16.575705
1114.395798	-16.552518
1114.810198	-16.525591
1115.224906	-16.502737
1115.639923	-16.487975
1116.055249	-16.476693
1116.470884	-16.459661
1116.886829	-16.433028
1117.303084	-16.403503
1117.719650	-16.381341
1118.136526	-16.368477
1118.553713	-16.355690
1118.971212	-16.332662
1119.389022	-16.300117
1119.807145	-16.269193
1120.225580	-16.248390
1120.644328	-16.233826
1121.063389	-16.213944
1121.482763	-16.183097
1121.902452	-16.147652
1122.322454	-16.117940
1122.742771	-16.096612
1123.163404	-16.076892
1123.584351	-16.051068
1124.005614	-16.018631
1124.427193	-15.985307
1124.849089	-15.956566
1125.271301	-15.933261
1125.693830	-15.912006
1126.116677	-15.888048
1126.539842	-15.858706
1126.963324	-15.826365
1127.387126	-15.797776
1127.811246	-15.777786
1128.235685	-15.762697
1128.660444	-15.742512
1129.085522	-15.712672
1129.510922	-15.681146
1129.936641	-15.660156
1130.362682	-15.650517
1130.789044	-15.639098
1131.215728	-15.615013
1131.642734	-15.584196
1132.070063	-15.562056
1132.497714	-15.553345
1132.925689	-15.545495
1133.353987	-15.525502
1133.782610	-15.497126
1134.211556	-15.474922
1134.640827	-15.463820
1135.070424	-15.453213
1135.500345	-15.432811
1135.930593	-15.406786
1136.361166	-15.386145
1136.792067	-15.371728
1137.223294	-15.353989
1137.654848	-15.328649
1138.086730	-15.303499
1138.518940	-15.285489
1138.951479	-15.268583
1139.384346	-15.242641
1139.817543	-15.210402
1140.251069	-15.184940
1140.684925	-15.169606
1141.119111	-15.151304
1141.553628	-15.119106
1141.988475	-15.081811
1142.423655	-15.056711
1142.859166	-15.043926
1143.295009	-15.025156
1143.731185	-14.990009
1144.167694	-14.952022
1144.604536	-14.929802
1145.041711	-14.919976
1145.479221	-14.901619
1145.917065	-14.867049
1146.355245	-14.833103
1146.793759	-14.816652
1147.232609	-14.810154
1147.671795	-14.792927
1148.111317	-14.761797
1148.551177	-14.735491
1148.991373	-14.726636
1149.431907	-14.723473
1149.872779	-14.707691
1150.313989	-14.681680
1150.755538	-14.664542
1151.197426	-14.663111
1151.639653	-14.662180
1152.082220	-14.647549
1152.525128	-14.627135
1152.968376	-14.618598
1153.411966	-14.622486
1153.855897	-14.621588
1154.300169	-14.607173
1154.744784	-14.591787
1155.189742	-14.589795
1155.635042	-14.595659
1156.080687	-14.592206
1156.526674	-14.576763
1156.973007	-14.564910
1157.419683	-14.566483
1157.866705	-14.570742
1158.314072	-14.562554
1158.761786	-14.545201
1159.209845	-14.535157
1159.658251	-14.536962
1160.107004	-14.536595
1160.556104	-14.522602
1161.005553	-14.503257
1161.455349	-14.493673
1161.905494	-14.492987
1162.355989	-14.486198
1162.806832	-14.466788
1163.258026	-14.446243
1163.709570	-14.436269
1164.161464	-14.431494
1164.613710	-14.418294
1165.066307	-14.395253
1165.519256	-14.374934
1165.972558	-14.364374
1166.426212	-14.355223
1166.880219	-14.337047
1167.334580	-14.313081
1167.789295	-14.294543
1168.244364	-14.283460
1168.699788	-14.270529
1169.155567	-14.249821
1169.611702	-14.227506
1170.068193	-14.211653
1170.525041	-14.200080
1170.982245	-14.184636
1171.439807	-14.163967
1171.897726	-14.144963
1172.356004	-14.131532
1172.814640	-14.119282
1173.273635	-14.102841
1173.732989	-14.084159
1174.192703	-14.068453
1174.652778	-14.056155
1175.113213	-14.042815
1175.574009	-14.026493
1176.035167	-14.010159
1176.496687	-13.996228
1176.958569	-13.983085
1177.420814	-13.968366
1177.883422	-13.952714
1178.346394	-13.937708
1178.809730	-13.923097
1179.273430	-13.907710
1179.737496	-13.892081
1180.201927	-13.877062
1180.666723	-13.861625
1181.131886	-13.844548
1181.597416	-13.827138
1182.063312	-13.811592
1182.529576	-13.796718
1182.996209	-13.779346
1183.463209	-13.759837
1183.930579	-13.742297
1184.398317	-13.727950
1184.866426	-13.712459
1185.334904	-13.692905
1185.803754	-13.673253
1186.272974	-13.658328
1186.742566	-13.645602
1187.212529	-13.628849
1187.682865	-13.608835
1188.153574	-13.592607
1188.624656	-13.581863
1189.096112	-13.569731
1189.567942	-13.551966
1190.040147	-13.534632
1190.512726	-13.524185
1190.985681	-13.516464
1191.459012	-13.503226
1191.932720	-13.486155
1192.406804	-13.474281
1192.881265	-13.468757
1193.356104	-13.460375
1193.831322	-13.445227
1194.306918	-13.431360
1194.782893	-13.425263
1195.259248	-13.420136
1195.735982	-13.407541
1196.213097	-13.391932
1196.690593	-13.383242
1197.168471	-13.379346
1197.646730	-13.369308
1198.125371	-13.352435
1198.604395	-13.339948
1199.083803	-13.335512
1199.563594	-13.328321
1200.043769	-13.311732
1200.524329	-13.295360
1201.005273	-13.288730
1201.486604	-13.284397
1201.968320	-13.270559
1202.450422	-13.252020
1202.932912	-13.242279
1203.415789	-13.239919
1203.899054	-13.230786
1204.382707	-13.212945
1204.866748	-13.200522
1205.351179	-13.198863
1205.836000	-13.194931
1206.321211	-13.180204
1206.806812	-13.166141
1207.292805	-13.163908
1207.779189	-13.164260
1208.265965	-13.153735
1208.753134	-13.138786
1209.240696	-13.134400
1209.728651	-13.136999
1210.217000	-13.130484
1210.705744	-13.115083
1211.194883	-13.106953
1211.684417	-13.109017
1212.174347	-13.105408
1212.664673	-13.090019
1213.155396	-13.077483
1213.646516	-13.076582
1214.138034	-13.074322
1214.629951	-13.059527
1215.122266	-13.043255
1215.614980	-13.038383
1216.108095	-13.036302
1216.601609	-13.022835
1217.095524	-13.004552
1217.589841	-12.996341
1218.084559	-12.994216
1218.579679	-12.982845
1219.075202	-12.964385
1219.571128	-12.954188
1220.067458	-12.952285
1220.564191	-12.943567
1221.061330	-12.926157
1221.558874	-12.914838
1222.056823	-12.913069
1222.555178	-12.906765
1223.053940	-12.890671
1223.553109	-12.878135
1224.052686	-12.875520
1224.552671	-12.870394
1225.053065	-12.855102
1225.553867	-12.840838
1226.055079	-12.836145
1226.556702	-12.830765
1227.058735	-12.815551
1227.561179	-12.799402
1228.064035	-12.792177
1228.567303	-12.785837
1229.070983	-12.770645
1229.575077	-12.753504
1230.079585	-12.744667
1230.584506	-12.738072
1231.089842	-12.723903
1231.595594	-12.707386
1232.101761	-12.698705
1232.608345	-12.693362
1233.115345	-12.681654
1233.622762	-12.667387
1234.130597	-12.660170
1234.638851	-12.656881
1235.147523	-12.648171
1235.656615	-12.636574
1236.166126	-12.630886
1236.676058	-12.629032
1237.186411	-12.622370
1237.697185	-12.612527
1238.208381	-12.607296
1238.719999	-12.605338
1239.232040	-12.599092
1239.744505	-12.589588
1240.257394	-12.583722
1240.770708	-12.580709
1241.284446	-12.574134
1241.798610	-12.564747
1242.313201	-12.558508
1242.828218	-12.555094
1243.343662	-12.549150
1243.859534	-12.541171
1244.375834	-12.536179
1244.892563	-12.534093
1245.409721	-12.530549
1245.927309	-12.525641
1246.445327	-12.523397
1246.963777	-12.523850
1247.482657	-12.523474
1248.001970	-12.521976
1248.521716	-12.522329
1249.041894	-12.524731
1249.562506	-12.526377
1250.083553	-12.526751
1250.605034	-12.527964
1251.126950	-12.530476
1251.649302	-12.532166
1252.172091	-12.532432
1252.695316	-12.532924
1253.218979	-12.534507
1253.743079	-12.535523
1254.267619	-12.535226
1254.792597	-12.535192
1255.318015	-12.536561
1255.843874	-12.537931
1256.370173	-12.538246
1256.896913	-12.539064
1257.424095	-12.541714
1257.951720	-12.544514
1258.479787	-12.546206
1259.008298	-12.548321
1259.537254	-12.552108
1260.066654	-12.555494
1260.596499	-12.557170
1261.126790	-12.558954
1261.657527	-12.561691
1262.188711	-12.563048
1262.720342	-12.562173
1263.252422	-12.561345
1263.784950	-12.560933
1264.317928	-12.558494
1264.851355	-12.554087
1265.385232	-12.550315
1265.919560	-12.546906
1266.454340	-12.541433
1266.989572	-12.534973
1267.525256	-12.529952
1268.061394	-12.525150
1268.597985	-12.518458
1269.135031	-12.511577
1269.672531	-12.506257
1270.210487	-12.500271
1270.748899	-12.492155
1271.287768	-12.484030
1271.827094	-12.476610
1272.366877	-12.467157
1272.907119	-12.455410
1273.447820	-12.443784
1273.988981	-12.431792
1274.530601	-12.417122
1275.072683	-12.400933
1275.615226	-12.385453
1276.158230	-12.369200
1276.701697	-12.350826
1277.245627	-12.332544
1277.790021	-12.315586
1278.334879	-12.297780
1278.880202	-12.278840
1279.425991	-12.261224
1279.972245	-12.244577
1280.518966	-12.226556
1281.066155	-12.207983
1281.613811	-12.190741
1282.161936	-12.173107
1282.710529	-12.153487
1283.259593	-12.133840
1283.809126	-12.114948
1284.359131	-12.094648
1284.909607	-12.072952
1285.460555	-12.052238
1286.011976	-12.032090
1286.563870	-12.010740
1287.116237	-11.989690
1287.669080	-11.970703
1288.222397	-11.952026
1288.776191	-11.932864
1289.330460	-11.915356
1289.885207	-11.899512
1290.440431	-11.883026
1290.996133	-11.866395
1291.552314	-11.851419
1292.108975	-11.836479
1292.666115	-11.820063
1293.223737	-11.804092
1293.781839	-11.789216
1294.340424	-11.773328
1294.899491	-11.756771
1295.459041	-11.741880
1296.019075	-11.727818
1296.579593	-11.712989
1297.140597	-11.699273
1297.702086	-11.687785
1298.264061	-11.676289
1298.826524	-11.664487
1299.389474	-11.654494
1299.952912	-11.645265
1300.516839	-11.634591
1301.081255	-11.623944
1301.646162	-11.614328
1302.211559	-11.603586
1302.777448	-11.591425
1303.343829	-11.580210
1303.910702	-11.569493
1304.478069	-11.557611
1305.045930	-11.546293
1305.614285	-11.536991
1306.183136	-11.527863
1306.752483	-11.518602
1307.322326	-11.511262
1307.892666	-11.505085
1308.463504	-11.497978
1309.034841	-11.491122
1309.606677	-11.485402
1310.179012	-11.478617
1310.751849	-11.470580
1311.325186	-11.463288
1311.899025	-11.456086
1312.473366	-11.447758
1313.048211	-11.440111
1313.623559	-11.434216
1314.199412	-11.428571
1314.775770	-11.423520
1315.352634	-11.420777
1315.930004	-11.419217
1316.507881	-11.417582
1317.086266	-11.417006
1317.665159	-11.417403
1318.244562	-11.416913
1318.824474	-11.415830
1319.404897	-11.415264
1319.985831	-11.414130
1320.567276	-11.412052
1321.149234	-11.410776
1321.731706	-11.410350
1322.314691	-11.409894
1322.898190	-11.410475
1323.482205	-11.412845
1324.066736	-11.415612
1324.651783	-11.418536
1325.237347	-11.422377
1325.823430	-11.426057
1326.410031	-11.428417
1326.997151	-11.430281
1327.584791	-11.431635
1328.172952	-11.431485
1328.761634	-11.430646
1329.350839	-11.430244
1329.940566	-11.429770
1330.530817	-11.429450
1331.121592	-11.430492
1331.712891	-11.432619
1332.304716	-11.434915
1332.897068	-11.437921
1333.489946	-11.441566
1334.083352	-11.444494
1334.677287	-11.446725
1335.271750	-11.448996
1335.866744	-11.450542
1336.462268	-11.451345
1337.058323	-11.452829
1337.654910	-11.455064
1338.252029	-11.457587
1338.849682	-11.461557
1339.447869	-11.467213
1340.046591	-11.473261
1340.645848	-11.479756
1341.245641	-11.487186
1341.845972	-11.493955
1342.446840	-11.499656
1343.048246	-11.505423
1343.650191	-11.510541
1344.252677	-11.514540
1344.855702	-11.519214
1345.459269	-11.524566
1346.063379	-11.529744
1346.668030	-11.536013
1347.273226	-11.543517
1347.878965	-11.550482
1348.485250	-11.557413
1349.092080	-11.564687
1349.699456	-11.570453
1350.307380	-11.575099
1350.915851	-11.580006
1351.524871	-11.584040
1352.134441	-11.587653
1352.744560	-11.592755
1353.355231	-11.598418
1353.966453	-11.604346
1354.578227	-11.611995
1355.190555	-11.620188
1355.803436	-11.627687
1356.416872	-11.635829
1357.030863	-11.643820
1357.645411	-11.650479
1358.260515	-11.657688
1358.876177	-11.665538
1359.492397	-11.672977
1360.109176	-11.681809
1360.726516	-11.692214
1361.344416	-11.702392
1361.962877	-11.713321
1362.581901	-11.724968
1363.201487	-11.735117
1363.821637	-11.744615
1364.442352	-11.754166
1365.063632	-11.762132
1365.685478	-11.769823
1366.307891	-11.778645
1366.930871	-11.787119
1367.554420	-11.796092
1368.178538	-11.806648
1368.803226	-11.816751
1369.428485	-11.826492
1370.054315	-11.836945
1370.680717	-11.846272
1371.307693	-11.854944
1371.935242	-11.864742
1372.563366	-11.874501
1373.192065	-11.884836
1373.821341	-11.897348
1374.451193	-11.910542
1375.081623	-11.924167
1375.712632	-11.939099
1376.344221	-11.953550
1376.976389	-11.967188
1377.609139	-11.981273
1378.242470	-11.994781
1378.876384	-12.008064
1379.510881	-12.022633
1380.145963	-12.037594
1380.781629	-12.052845
1381.417881	-12.069099
1382.054720	-12.084930
1382.692147	-12.099839
1383.330161	-12.114559
1383.968765	-12.128409
1384.607959	-12.141706
1385.247743	-12.155858
1385.888119	-12.170756
1386.529087	-12.186463
1387.170648	-12.203740
1387.812804	-12.221672
1388.455554	-12.239438
1389.098899	-12.257459
1389.742842	-12.275094
1390.387381	-12.292213
1391.032519	-12.310205
1391.678256	-12.329108
1392.324592	-12.348787
1392.971529	-12.370239
1393.619068	-12.392437
1394.267208	-12.414066
1394.915952	-12.435697
1395.565300	-12.456095
1396.215253	-12.474853
1396.865812	-12.494027
1397.516977	-12.513119
1398.168749	-12.532655
1398.821130	-12.554461
1399.474120	-12.576767
1400.127719	-12.599214
1400.781930	-12.622581
1401.436752	-12.644551
1402.092186	-12.665911
1402.748234	-12.688323
1403.404897	-12.710458
1404.062174	-12.734218
1404.720067	-12.760433
1405.378577	-12.786592
1406.037705	-12.813631
1406.697451	-12.840686
1407.357817	-12.865289
1408.018803	-12.889725
1408.680410	-12.913845
1409.342639	-12.937118
1410.005492	-12.962626
1410.668968	-12.988933
1411.333068	-13.014859
1411.997795	-13.041932
1412.663147	-13.067073
1413.329127	-13.090533
1413.995736	-13.114587
1414.662973	-13.137593
1415.330840	-13.162139
1415.999339	-13.189483
1416.668469	-13.216877
1417.338232	-13.245853
1418.008628	-13.274620
1418.679659	-13.300834
1419.351325	-13.327188
1420.023628	-13.352521
1420.696568	-13.377480
1421.370145	-13.404871
1422.044362	-13.431893
1422.719219	-13.458793
1423.394717	-13.485411
1424.070856	-13.508564
1424.747638	-13.530651
1425.425064	-13.552305
1426.103134	-13.573545
1426.781850	-13.597829
1427.461212	-13.623742
1428.141221	-13.650256
1428.821878	-13.677875
1429.503185	-13.703547
1430.185141	-13.728290
1430.867749	-13.753594
1431.551008	-13.778845
1432.234920	-13.806248
1432.919486	-13.834905
1433.604707	-13.862380
1434.290583	-13.888602
1434.977116	-13.911713
1435.664307	-13.931965
1436.352156	-13.952359
1437.040664	-13.973215
1437.729833	-13.996155
1438.419663	-14.021617
1439.110156	-14.046734
1439.801312	-14.071630
1440.493132	-14.095930
1441.185617	-14.119471
1441.878768	-14.145977
1442.572586	-14.175151
1443.267072	-14.206749
1443.962228	-14.240544
1444.658053	-14.271913
1445.354549	-14.301091
1446.051717	-14.328133
1446.749558	-14.352907
1447.448073	-14.379671
1448.147263	-14.406797
1448.847128	-14.433667
1449.547671	-14.459724
1450.248891	-14.480938
1450.950789	-14.500075
1451.653368	-14.518293
1452.356627	-14.536970
1453.060568	-14.559937
1453.765192	-14.584003
1454.470500	-14.608695
1455.176492	-14.633331
1455.883170	-14.656159
1456.590534	-14.682088
1457.298586	-14.712069
1458.007327	-14.746667
1458.716758	-14.786217
1459.426880	-14.824631
1460.137693	-14.860812
1460.849199	-14.893525
1461.561398	-14.921896
1462.274293	-14.949673
1462.987883	-14.973702
1463.702170	-14.991900
1464.417155	-15.001591
1465.132838	-14.998468
1465.849222	-14.986688
1466.566306	-14.968491
1467.284093	-14.947593
1468.002582	-14.927133
1468.721775	-14.903313
1469.441674	-14.876989
1470.162278	-14.848116
1470.883590	-14.819881
1471.605609	-14.799512
1472.328338	-14.787151
1473.051777	-14.783401
1473.775928	-14.783918
1474.500790	-14.784184
1475.226367	-14.786640
1475.952657	-14.791676
1476.679663	-14.803003
1477.407386	-14.818787
1478.135826	-14.831779
1478.864985	-14.837241
1479.594863	-14.829121
1480.325463	-14.808894
1481.056784	-14.778489
1481.788828	-14.736499
1482.521597	-14.680736
1483.255090	-14.604392
1483.989309	-14.506347
1484.724256	-14.390128
1485.459931	-14.261839
1486.196336	-14.128590
1486.933471	-13.991217
1487.671337	-13.849095
1488.409937	-13.702953
1489.149270	-13.556651
1489.889337	-13.418879
1490.630141	-13.295387
1491.371682	-13.187736
1492.113961	-13.094530
1492.856979	-13.013291
1493.600738	-12.947851
1494.345238	-12.903114
1495.090481	-12.882833
1495.836467	-12.886010
1496.583198	-12.905141
1497.330675	-12.935581
1498.078899	-12.973747
1498.827872	-13.019915
1499.577593	-13.071470
1500.328065	-13.118272
1501.079289	-13.148498
1501.831265	-13.148669
1502.583995	-13.113535
1503.337480	-13.040897
1504.091721	-12.928553
1504.846719	-12.773441
1505.602475	-12.570034
1506.358991	-12.321471
1507.116268	-12.036287
1507.874306	-11.729333
1508.633108	-11.413442
1509.392673	-11.095394
1510.153004	-10.781385
1510.914101	-10.477342
1511.675965	-10.195126
1512.438599	-9.945276
1513.202002	-9.734204
1513.966176	-9.563782
1514.731122	-9.433373
1515.496842	-9.347585
1516.263336	-9.312625
1517.030607	-9.335012
1517.798654	-9.417142
1518.567479	-9.558373
1519.337083	-9.762223
1520.107468	-10.034968
1520.878634	-10.387359
1521.650584	-10.826601
1522.423317	-11.358233
1523.196836	-11.990600
1523.971141	-12.737553
1524.746233	-13.623558
1525.522115	-14.672672
1526.298786	-15.911409
1527.076249	-17.355972
1527.854504	-18.992997
1528.633553	-20.678033
1529.413397	-21.915267
1530.194037	-21.921644
1530.975474	-20.628753
1531.757709	-18.800814
1532.540745	-16.984125
1533.324581	-15.359268
1534.109220	-13.949105
1534.894662	-12.735161
1535.680909	-11.686829
1536.467961	-10.779907
1537.255821	-9.996598
1538.044489	-9.324851
1538.833967	-8.753897
1539.624256	-8.272250
1540.415357	-7.871795
1541.207271	-7.546801
1542.000000	-7.294466
1542.793545	-7.110396
1543.587907	-6.989750
1544.383087	-6.928699
1545.179088	-6.924597
1545.975909	-6.975077
1546.773552	-7.075165
1547.572019	-7.220377
1548.371311	-7.407044
1549.171428	-7.632250
1549.972373	-7.890414
1550.774147	-8.173593
1551.576751	-8.475741
1552.380185	-8.792152
1553.184453	-9.116323
1553.989554	-9.436087
1554.795490	-9.740242
1555.602263	-10.024275
1556.409873	-10.286740
1557.218322	-10.522086
1558.027612	-10.721516
1558.837743	-10.885167
1559.648717	-11.021553
1560.460536	-11.137849
1561.273200	-11.233852
1562.086710	-11.311968
1562.901069	-11.384221
1563.716278	-11.463162
1564.532337	-11.552018
1565.349249	-11.648142
1566.167014	-11.755287
1566.985634	-11.882758
1567.805111	-12.034591
1568.625444	-12.206750
1569.446637	-12.395847
1570.268690	-12.606174
1571.091605	-12.840799
1571.915382	-13.095010
1572.740024	-13.359367
1573.565532	-13.631125
1574.391907	-13.911566
1575.219150	-14.197255
1576.047262	-14.477121
1576.876246	-14.741256
1577.706103	-14.985484
1578.536833	-15.204630
1579.368439	-15.388843
1580.200922	-15.527912
1581.034282	-15.619681
1581.868522	-15.664558
1582.703643	-15.661821
1583.539646	-15.609637
1584.376532	-15.513489
1585.214304	-15.381073
1586.052962	-15.218011
1586.892508	-15.027152
1587.732943	-14.817074
1588.574269	-14.598025
1589.416487	-14.374726
1590.259599	-14.146108
1591.103605	-13.915384
1591.948508	-13.690525
1592.794309	-13.474240
1593.641009	-13.262963
1594.488609	-13.056454
1595.337112	-12.862427
1596.186518	-12.683294
1597.036829	-12.513240
1597.888047	-12.347440
1598.740172	-12.192502
1599.593207	-12.052943
1600.447153	-11.924899
1601.302010	-11.801856
1602.157782	-11.687910
1603.014469	-11.587132
1603.872072	-11.496828
1604.730593	-11.410655
1605.590034	-11.331031
1606.450397	-11.261255
1607.311681	-11.200009
1608.173890	-11.142895
1609.037024	-11.091071
1609.901085	-11.045080
1610.766075	-11.003266
1611.631995	-10.964430
1612.498846	-10.930999
1613.366630	-10.901822
1614.235349	-10.874075
1615.105004	-10.848508
1615.975596	-10.828198
1616.847128	-10.810652
1617.719600	-10.792277
1618.593014	-10.774954
1619.467372	-10.761910
1620.342675	-10.751773
1621.218924	-10.743729
1622.096122	-10.739626
1622.974270	-10.736747
1623.853369	-10.730207
1624.733420	-10.723634
1625.614427	-10.724777
1626.496389	-10.730844
1627.379308	-10.734033
1628.263187	-10.735709
1629.148026	-10.741765
1630.033828	-10.750305
1630.920593	-10.757919
1631.808324	-10.766358
1632.697022	-10.776114
1633.586688	-10.784139
1634.477324	-10.792523
1635.368932	-10.804366
1636.261514	-10.816673
1637.155070	-10.826845
1638.049602	-10.838907
1638.945113	-10.853795
1639.841603	-10.868879
1640.739075	-10.886036
1641.637529	-10.907206
1642.536968	-10.927912
1643.437393	-10.948424
1644.338806	-10.974798
1645.241209	-11.004550
1646.144602	-11.031392
1647.048988	-11.060105
1647.954368	-11.094550
1648.860744	-11.127227
1649.768118	-11.156939
1650.676491	-11.191748
1651.585865	-11.228857
1652.496241	-11.260638
1653.407621	-11.291758
1654.320008	-11.326312
1655.233401	-11.358817
1656.147804	-11.390177
1657.063218	-11.424421
1657.979645	-11.456968
1658.897085	-11.486954
1659.815542	-11.520663
1660.735016	-11.555057
1661.655509	-11.587051
1662.577023	-11.623256
1663.499560	-11.661894
1664.423121	-11.696348
1665.347709	-11.734065
1666.273324	-11.778231
1667.199969	-11.818100
1668.127645	-11.856656
1669.056353	-11.902172
1669.986097	-11.946379
1670.916877	-11.986730
1671.848695	-12.033010
1672.781553	-12.079200
1673.715452	-12.119927
1674.650395	-12.164987
1675.586383	-12.212309
1676.523418	-12.254153
1677.461501	-12.298836
1678.400635	-12.346314
1679.340821	-12.389100
1680.282061	-12.435741
1681.224357	-12.486506
1682.167710	-12.531785
1683.112122	-12.579874
1684.057595	-12.633188
1685.004132	-12.680365
1685.951732	-12.730433
1686.900400	-12.787138
1687.850135	-12.835880
1688.800940	-12.884351
1689.752818	-12.941115
1690.705768	-12.991952
1691.659795	-13.041325
1692.614898	-13.097497
1693.571081	-13.148420
1694.528345	-13.199479
1695.486691	-13.256834
1696.446122	-13.308105
1697.406640	-13.360596
1698.368245	-13.419538
1699.330941	-13.471629
1700.294729	-13.526736
1701.259611	-13.587386
1702.225588	-13.638839
1703.192664	-13.694497
1704.160838	-13.756574
1705.130114	-13.809177
1706.100493	-13.865357
1707.071977	-13.926114
1708.044568	-13.979955
1709.018268	-14.039851
1709.993079	-14.099350
1710.969003	-14.152434
1711.946041	-14.214485
1712.924196	-14.272827
1713.903469	-14.327054
1714.883862	-14.392146
1715.865378	-14.449573
1716.848017	-14.504833
1717.831783	-14.570746
1718.816677	-14.627066
1719.802701	-14.684803
1720.789857	-14.749864
1721.778147	-14.805843
1722.767573	-14.867354
1723.758136	-14.928809
1724.749840	-14.983725
1725.742685	-15.048562
1726.736673	-15.106284
1727.731808	-15.161912
1728.728090	-15.226897
1729.725521	-15.279515
1730.724105	-15.337361
1731.723842	-15.400167
1732.724735	-15.449703
1733.726785	-15.508725
1734.729995	-15.564706
1735.734366	-15.613789
1736.739902	-15.670610
1737.746603	-15.715636
1738.754472	-15.764049
1739.763510	-15.814648
1740.773721	-15.854308
1741.785105	-15.905196
1742.797665	-15.946784
1743.811403	-15.981784
1744.826321	-16.023366
1745.842422	-16.053346
1746.859706	-16.093925
1747.878177	-16.131154
1748.897835	-16.156073
1749.918685	-16.188020
1750.940726	-16.207709
1751.963963	-16.235009
1752.988395	-16.261712
1754.014027	-16.275150
1755.040860	-16.302014
1756.068895	-16.317531
1757.098135	-16.332290
1758.128583	-16.348517
1759.160240	-16.355215
1760.193109	-16.371538
1761.227191	-16.375316
1762.262488	-16.383390
1763.299004	-16.390542
1764.336740	-16.388604
1765.375697	-16.398392
1766.415880	-16.390429
1767.457288	-16.389742
1768.499926	-16.388651
1769.543794	-16.376028
1770.588895	-16.373956
1771.635231	-16.359218
1772.682805	-16.351185
1773.731619	-16.335105
1774.781674	-16.318428
1775.832973	-16.306566
1776.885519	-16.280315
1777.939312	-16.265236
1778.994357	-16.237501
1780.050654	-16.215880
1781.108207	-16.191395
1782.167017	-16.161394
1783.227087	-16.139926
1784.288418	-16.104184
1785.351013	-16.080351
1786.414875	-16.044251
1787.480006	-16.014068
1788.546407	-15.983710
1789.614082	-15.946924
1790.683032	-15.918596
1791.753259	-15.880506
1792.824767	-15.850261
1793.897557	-15.809378
1794.971632	-15.780693
1796.046994	-15.740618
1797.123645	-15.704833
1798.201588	-15.672850
1799.280824	-15.630000
1800.361357	-15.599202
1801.443188	-15.555155
1802.526320	-15.522264
1803.610756	-15.478508
1804.696497	-15.444406
1805.783546	-15.401098
1806.871906	-15.363301
1807.961578	-15.321883
1809.052565	-15.276973
1810.144870	-15.239486
1811.238494	-15.190011
1812.333441	-15.153067
1813.429713	-15.103171
1814.527311	-15.065781
1815.626239	-15.013633
1816.726499	-14.975688
1817.828094	-14.925271
1818.931025	-14.883123
1820.035295	-14.836538
1821.140906	-14.793150
1822.247862	-14.747758
1823.356165	-14.703111
1824.465816	-14.661302
1825.576819	-14.611870
1826.689175	-14.573830
1827.802888	-14.524797
1828.917960	-14.488687
1830.034394	-14.440853
1831.152191	-14.406639
1832.271354	-14.358261
1833.391887	-14.323738
1834.513790	-14.274773
1835.637068	-14.242098
1836.761722	-14.194950
1837.887755	-14.163402
1839.015169	-14.120084
1840.143968	-14.086949
1841.274153	-14.043548
1842.405727	-14.011155
1843.538693	-13.967656
1844.673053	-13.938320
1845.808810	-13.898470
1846.945966	-13.868785
1848.084525	-13.828553
1849.224488	-13.799039
1850.365858	-13.760261
1851.508638	-13.729586
1852.652831	-13.693320
1853.798438	-13.665849
1854.945463	-13.627458
1856.093909	-13.602056
1857.243777	-13.565955
1858.395071	-13.539611
1859.547794	-13.502157
1860.701947	-13.476963
1861.857533	-13.439316
1863.014556	-13.414567
1864.173018	-13.378062
1865.332922	-13.353345
1866.494270	-13.318415
1867.657065	-13.290732
1868.821309	-13.257555
1869.987006	-13.228224
1871.154158	-13.196338
1872.322768	-13.166034
1873.492839	-13.137770
1874.664373	-13.105411
1875.837373	-13.078641
1877.011841	-13.045151
1878.187782	-13.020606
1879.365197	-12.986394
1880.544089	-12.964135
1881.724460	-12.930953
1882.906315	-12.909004
1884.089655	-12.878995
1885.274483	-12.854522
1886.460803	-12.828449
1887.648616	-12.800999
1888.837927	-12.779065
1890.028736	-12.749272
1891.221049	-12.731226
1892.414866	-12.699845
1893.610192	-12.682545
1894.807028	-12.653342
1896.005379	-12.633391
1897.205246	-12.608621
1898.406633	-12.585647
1899.609542	-12.566332
1900.813977	-12.539770
1902.019940	-12.524599
1903.227434	-12.496746
1904.436462	-12.483002
1905.647028	-12.458128
1906.859133	-12.441594
1908.072781	-12.423742
1909.287976	-12.402009
1910.504719	-12.389457
1911.723013	-12.365498
1912.942863	-12.353204
1914.164270	-12.332127
1915.387238	-12.315787
1916.611770	-12.300400
1917.837868	-12.278929
1919.065536	-12.267825
1920.294777	-12.246388
1921.525594	-12.232727
1922.757989	-12.216117
1923.991967	-12.197026
1925.227529	-12.185056
1926.464679	-12.164263
1927.703420	-12.151576
1928.943755	-12.136552
1930.185688	-12.117949
1931.429221	-12.107420
1932.674356	-12.087780
1933.921099	-12.073865
1935.169451	-12.060853
1936.419415	-12.041385
1937.670996	-12.032756
1938.924195	-12.014314
1940.179017	-11.999697
1941.435463	-11.988458
1942.693538	-11.967262
1943.953245	-11.959903
1945.214586	-11.943905
1946.477566	-11.927217
1947.742186	-11.923571
1949.008451	-11.903252
1950.276363	-11.894624
1951.545926	-11.884868
1952.817143	-11.869297
1954.090017	-11.865015
1955.364551	-11.851841
1956.640749	-11.841981
1957.918615	-11.837784
1959.198150	-11.823438
1960.479359	-11.817780
1961.762244	-11.812084
1963.046810	-11.800731
1964.333059	-11.796730
1965.620995	-11.792287
1966.910621	-11.781270
1968.201940	-11.779297
1969.494956	-11.775273
1970.789672	-11.765617
1972.086091	-11.767477
1973.384217	-11.763635
1974.684053	-11.756631
1975.985602	-11.761231
1977.288869	-11.755095
1978.593855	-11.750631
1979.900566	-11.755037
1981.209003	-11.748988
1982.519171	-11.745687
1983.831073	-11.750606
1985.144712	-11.744080
1986.460093	-11.741361
1987.777217	-11.743562
1989.096089	-11.739303
1990.416713	-11.733901
1991.739092	-11.737044
1993.063228	-11.735099
1994.389127	-11.727672
1995.716791	-11.732550
1997.046223	-11.731889
1998.377428	-11.723588
1999.710409	-11.729349
2001.045169	-11.730155
2002.381713	-11.724895
2003.720043	-11.727924
2005.060163	-11.732092
2006.402077	-11.728587
2007.745788	-11.728737
2009.091301	-11.735943
2010.438618	-11.737982
2011.787743	-11.736382
2013.138680	-11.744601
2014.491433	-11.751878
2015.846005	-11.748879
2017.202399	-11.755921
2018.560621	-11.767120
2019.920673	-11.769473
2021.282558	-11.772303
2022.646281	-11.783450
2024.011846	-11.793112
2025.379256	-11.795604
2026.748515	-11.803133
2028.119626	-11.820150
2029.492594	-11.828047
2030.867422	-11.831821
2032.244114	-11.845883
2033.622673	-11.862747
2035.003104	-11.868823
2036.385411	-11.877370
2037.769597	-11.893815
2039.155665	-11.909749
2040.543621	-11.915020
2041.933467	-11.922947
2043.325208	-11.940074
2044.718847	-11.953966
2046.114389	-11.959547
2047.511837	-11.968186
2048.911195	-11.983664
2050.312467	-11.997843
2051.715657	-12.004186
2053.120769	-12.010788
2054.527807	-12.026761
2055.936775	-12.043579
2057.347677	-12.051249
2058.760516	-12.057810
2060.175297	-12.072170
2061.592025	-12.091320
2063.010701	-12.103791
2064.431332	-12.112377
2065.853921	-12.125954
2067.278472	-12.148570
2068.704988	-12.167202
2070.133475	-12.178620
2071.563936	-12.191980
2072.996375	-12.212516
2074.430796	-12.239141
2075.867204	-12.260728
2077.305603	-12.274932
2078.745996	-12.293008
2080.188389	-12.320530
2081.632784	-12.350819
2083.079187	-12.376466
2084.527601	-12.395634
2085.978030	-12.417603
2087.430480	-12.449849
2088.884954	-12.484181
2090.341455	-12.514495
2091.799990	-12.539289
2093.260561	-12.562972
2094.723173	-12.594097
2096.187831	-12.631458
2097.654538	-12.666149
2099.123300	-12.694892
2100.594119	-12.719840
2102.067001	-12.747733
2103.541950	-12.783310
2105.018971	-12.821572
2106.498067	-12.855581
2107.979243	-12.882277
2109.462503	-12.905083
2110.947853	-12.931979
2112.435295	-12.965492
2113.924836	-13.002843
2115.416478	-13.038201
2116.910227	-13.065648
2118.406087	-13.086817
2119.904063	-13.112887
2121.404158	-13.145459
2122.906378	-13.182923
2124.410727	-13.223479
2125.917210	-13.260835
2127.425831	-13.289053
2128.936594	-13.315781
2130.449505	-13.345463
2131.964567	-13.383047
2133.481786	-13.428876
2135.001166	-13.477885
2136.522711	-13.524096
2138.046427	-13.566694
2139.572317	-13.602117
2141.100388	-13.638849
2142.630642	-13.681265
2144.163085	-13.728496
2145.697722	-13.783237
2147.234558	-13.842919
2148.773596	-13.899765
2150.314842	-13.952760
2151.858301	-14.004271
2153.403977	-14.050558
2154.951875	-14.094372
2156.502000	-14.143459
2158.054357	-14.196923
2159.608950	-14.253677
2161.165785	-14.318382
2162.724866	-14.386580
2164.286198	-14.450962
2165.849786	-14.512212
2167.415635	-14.571264
2168.983749	-14.624426
2170.554134	-14.672485
2172.126795	-14.720076
2173.701737	-14.768124
2175.278964	-14.817068
2176.858481	-14.869937
2178.440294	-14.927912
2180.024408	-14.989850
2181.610827	-15.054357
2183.199557	-15.121221
2184.790602	-15.189907
2186.383968	-15.258715
2187.979660	-15.326360
2189.577683	-15.391339
2191.178041	-15.454680
2192.780741	-15.515230
2194.385787	-15.572363
2195.993185	-15.628894
2197.602939	-15.685386
2199.215054	-15.738968
2200.829537	-15.793618
2202.446392	-15.853052
2204.065624	-15.916044
2205.687239	-15.978831
2207.311242	-16.047654
2208.937638	-16.117249
2210.566433	-16.187952
2212.197631	-16.264769
2213.831239	-16.343032
2215.467261	-16.421116
2217.105703	-16.504185
2218.746570	-16.590785
2220.389867	-16.681857
2222.035601	-16.776063
2223.683776	-16.870941
2225.334398	-16.970289
2226.987472	-17.072347
2228.643004	-17.176175
2230.300999	-17.282869
2231.961463	-17.390296
2233.624402	-17.497533
2235.289820	-17.605485
2236.957723	-17.712396
2238.628118	-17.816061
2240.301009	-17.917325
2241.976402	-18.017537
2243.654303	-18.116187
2245.334717	-18.210456
2247.017650	-18.301562
2248.703108	-18.388618
2250.391096	-18.470394
2252.081620	-18.551792
2253.774686	-18.633696
2255.470300	-18.710933
2257.168467	-18.784211
2258.869193	-18.861010
2260.572484	-18.939430
2262.278345	-19.019243
2263.986783	-19.107009
2265.697804	-19.200545
2267.411412	-19.300175
2269.127615	-19.411537
2270.846417	-19.530447
2272.567826	-19.652939
2274.291846	-19.780921
2276.018484	-19.913566
2277.747745	-20.045793
2279.479637	-20.171539
2281.214164	-20.292436
2282.951333	-20.408376
2284.691149	-20.520149
2286.433619	-20.632630
2288.178750	-20.745954
2289.926546	-20.857465
2291.677014	-20.976001
2293.430161	-21.106108
2295.185992	-21.241933
2296.944513	-21.379899
2298.705732	-21.513337
2300.469653	-21.636932
2302.236283	-21.745849
2304.005629	-21.842869
2305.777696	-21.933378
2307.552492	-22.026589
2309.330022	-22.132264
2311.110292	-22.247508
2312.893310	-22.367316
2314.679080	-22.485150
2316.467611	-22.593718
2318.258907	-22.684717
2320.052976	-22.762737
2321.849824	-22.845429
2323.649457	-22.944133
2325.451883	-23.063959
2327.257106	-23.201423
2329.065135	-23.341942
2330.875975	-23.475701
2332.689633	-23.608392
2334.506116	-23.751694
2336.325430	-23.917006
2338.147581	-24.107236
2339.972578	-24.304305
2341.800425	-24.477100
2343.631130	-24.614585
2345.464700	-24.737655
2347.301141	-24.870354
2349.140461	-25.023877
2350.982665	-25.189207
2352.827760	-25.339544
2354.675754	-25.462314
2356.526653	-25.581571
2358.380464	-25.727724
2360.237195	-25.901967
2362.096851	-26.081512
2363.959440	-26.238004
2365.824968	-26.365564
2367.693444	-26.496340
2369.564873	-26.659084
2371.439263	-26.831816
2373.316620	-26.965638
2375.196953	-27.052462
2377.080267	-27.149079
2378.966570	-27.288296
2380.855869	-27.432162
2382.748171	-27.534920
2384.643484	-27.608346
2386.541815	-27.717263
2388.443170	-27.879485
2390.347557	-28.033609
2392.254984	-28.147016
2394.165457	-28.284983
2396.078984	-28.482966
2397.995572	-28.690355
2399.915229	-28.858729
2401.837961	-29.015124
2403.763777	-29.212709
2405.692684	-29.424901
2407.624689	-29.588783
2409.559800	-29.726086
2411.498023	-29.906210
2413.439368	-30.096236
2415.383840	-30.225995
2417.331449	-30.359200
2419.282201	-30.566702
2421.236104	-30.780647
2423.193165	-30.937687
2425.153393	-31.119117
2427.116795	-31.374686
2429.083378	-31.601049
2431.053151	-31.757114
2433.026121	-31.948205
2435.002297	-32.176800
2436.981685	-32.291199
2438.964293	-32.363587
2440.950131	-32.517225
2442.939204	-32.617753
2444.931522	-32.620125
2446.927092	-32.696841
2448.925923	-32.811668
2450.928022	-32.851121
2452.933397	-32.932858
2454.942056	-33.100150
2456.954008	-33.214793
2458.969260	-33.339908
2460.987821	-33.550686
2463.009699	-33.683618
2465.034902	-33.785468
2467.063437	-34.016825
2469.095315	-34.200809
2471.130542	-34.325964
2473.169127	-34.591839
2475.211078	-34.868745
2477.256404	-35.103614
2479.305112	-35.440014
2481.357212	-35.713870
2483.412713	-35.957664
2485.471621	-36.304942
2487.533946	-36.494518
2489.599696	-36.689469
2491.668880	-37.035500
2493.741507	-37.209069
2495.817585	-37.394962
2497.897122	-37.629622
2499.980127	-37.712626
2502.066609	-37.893374
2504.156578	-38.008914
2506.250040	-38.099160
2508.347006	-38.314851
2510.447483	-38.328782
2512.551482	-38.434159
2514.659010	-38.582612
2516.770076	-38.550618
2518.884690	-38.627943
2521.002861	-38.624566
2523.124597	-38.688905
2525.249907	-38.728993
2527.378801	-38.687775
2529.511287	-38.868031
2531.647375	-38.898027
2533.787074	-38.991642
2535.930393	-39.142892
2538.077340	-39.341423
2540.227927	-39.669289
2542.382160	-39.830019
2544.540051	-40.246374
2546.701608	-40.561077
2548.866840	-40.898126
2551.035757	-41.296056
2553.208369	-41.604023
2555.384684	-42.097061
2557.564713	-42.385999
2559.748465	-42.890472
2561.935948	-43.160424
2564.127174	-43.623815
2566.322152	-43.950152
2568.520890	-44.272958
2570.723399	-44.495260
2572.929689	-44.735288
2575.139769	-44.979507
2577.353649	-45.033012
2579.571340	-45.208426
2581.792849	-45.206660
2584.018189	-45.322764
2586.247368	-45.070083
2588.480396	-45.232383
2590.717284	-45.029645
2592.958041	-44.961905
2595.202678	-44.739204
2597.451204	-44.713532
2599.703630	-44.471650
2601.959966	-44.537321
2604.220222	-44.276202
2606.484408	-44.481202
2608.752535	-44.371164
2611.024612	-44.504136
2613.300651	-44.592131
2615.580661	-44.991186
2617.864653	-45.119384
2620.152638	-45.569025
2622.444625	-45.903903
2624.740626	-46.386005
2627.040651	-46.754349
2629.344710	-47.331073
2631.652814	-47.845474
2633.964974	-48.379648
2636.281200	-48.913935
2638.601504	-49.359693
2640.925896	-50.269288
2643.254386	-50.631504
2645.586987	-51.409879
2647.923707	-51.918288
2650.264559	-52.696047
2652.609554	-53.212175
2654.958702	-53.829699
2657.312015	-54.380537
2659.669503	-54.019325
2662.031178	-54.317369
2664.397051	-53.958050
2666.767132	-53.422960
2669.141434	-52.976613
2671.519968	-52.234271
2673.902745	-52.059519
2676.289776	-51.517142
2678.681072	-51.100272
2681.076646	-50.673994
2683.476508	-50.240809
2685.880671	-50.215759
2688.289145	-49.999747
2690.701942	-50.060391
2693.119075	-50.188334
2695.540554	-50.175565
2697.966391	-50.673890
2700.396599	-51.015117
2702.831189	-51.223601
2705.270172	-51.594651
2707.713561	-51.974626
2710.161368	-52.539894
2712.613605	-52.616105
2715.070283	-52.850988
2717.531416	-53.738824
2719.997014	-53.943910
2722.467090	-54.482463
2724.941657	-55.705172
2727.420726	-55.956933
2729.904310	-56.714618
2732.392421	-58.683397
2734.885072	-59.658706
2737.382275	-60.776682
2739.884042	-63.810970
2742.390387	-65.360764
2744.901321	-66.238585
2747.416857	-68.047484
2749.937008	-66.619210
2752.461787	-64.472226
2754.991206	-62.234982
2757.525279	-60.596012
2760.064017	-59.563373
2762.607434	-58.681943
2765.155544	-57.949920
2767.708358	-57.560138
2770.265890	-56.967108
2772.828153	-56.945191
2775.395160	-57.282551
2777.966924	-57.382572
2780.543459	-57.264820
2783.124778	-57.522375
2785.710894	-58.533361
2788.301821	-57.611393
2790.897572	-57.555731
2793.498160	-58.309517
2796.103599	-57.606344
2798.713903	-57.322335
2801.329085	-57.695658
2803.949159	-57.544807
2806.574139	-57.934817
2809.204038	-58.401278
2811.838871	-58.333615
2814.478650	-59.342434
2817.123391	-60.224496
2819.773107	-60.844880
2822.427812	-62.062939
2825.087521	-63.161655
2827.752247	-64.671111
2830.422005	-66.585137
2833.096808	-69.383931
2835.776672	-75.827683
2838.461611	-99.161956
2841.151638	-80.563742
2843.846769	-73.333842
2846.547019	-69.741188
2849.252401	-68.550354
2851.962930	-67.790632
2854.678621	-68.111197
2857.399489	-67.138093
2860.125549	-66.485347
2862.856815	-68.859864
2865.593302	-69.896137
2868.335026	-70.037304
2871.082002	-69.094736
2873.834244	-68.907049
2876.591767	-67.297812
2879.354588	-65.070697
2882.122721	-66.190683
2884.896181	-64.698043
2887.674984	-63.271188
2890.459146	-63.269602
2893.248681	-62.479997
2896.043606	-63.093909
2898.843937	-63.593274
2901.649687	-62.834915
2904.460875	-63.455169
2907.277515	-63.426937
2910.099623	-63.232429
2912.927215	-64.082791
2915.760308	-66.131476
2918.598916	-67.458204
2921.443057	-68.999349
2924.292747	-72.771429
2927.148002	-73.855631
2930.008837	-76.994322
2932.875270	-83.121206
2935.747318	-75.309847
2938.624995	-76.328672
2941.508320	-73.604756
2944.397308	-71.677923
2947.291977	-72.340619
2950.192343	-74.035996
2953.098423	-72.450126
2956.010234	-74.199290
2958.927792	-76.283757
2961.851116	-77.901463
2964.780221	-85.536825
2967.715126	-84.070593
2970.655847	-88.732466
2973.602402	-76.659180
2976.554808	-77.568238
2979.513083	-75.327328
2982.477243	-73.303967
2985.447308	-73.021730
2988.423293	-70.936445
2991.405218	-69.413698
2994.393099	-68.277104
2997.386955	-68.282021
