# 2022-03-21_14.23.55
# shape = sech2
# FWHM_ps = 0.1
# carrier_nm = 1542
# frep_MHz = 12126
# pow_mW = 8000
# GDD = 0.0
# propa_len = 0.1288888888888889
# untap_len = 0.01
# taper_len = 0.06888888888888889
# waist_len = 0.02
# uptap_len = 0.02
# untap_scale = 1.0
# waist_scale = 0.2666666666666667
# workingDir = NL_20110305_12 (Spirou)
# axis = slow
# window_ps = 10.0
# steps = 200
# points = 13000
# 
# wavelength [nm]	 power spectral density [dB]
1000.248639	-25.910998
1000.582480	-25.833701
1000.916545	-25.751299
1001.250832	-25.685676
1001.585343	-25.654089
1001.920077	-25.659881
1002.255035	-25.690818
1002.590218	-25.723569
1002.925624	-25.733222
1003.261255	-25.704560
1003.597111	-25.640236
1003.933192	-25.559232
1004.269497	-25.487395
1004.606029	-25.446109
1004.942785	-25.443630
1005.279768	-25.471650
1005.616977	-25.508033
1005.954412	-25.525855
1006.292074	-25.505787
1006.629962	-25.445933
1006.968077	-25.363066
1007.306420	-25.284012
1007.644990	-25.233156
1007.983787	-25.222413
1008.322813	-25.246266
1008.662067	-25.283534
1009.001549	-25.305888
1009.341259	-25.290795
1009.681199	-25.233223
1010.021367	-25.148502
1010.361765	-25.064008
1010.702392	-25.005933
1011.043250	-24.988451
1011.384337	-25.007808
1011.725654	-25.043539
1012.067202	-25.066834
1012.408980	-25.053801
1012.750989	-24.997868
1013.093230	-24.913429
1013.435702	-24.827644
1013.778405	-24.766639
1014.121341	-24.744685
1014.464508	-24.758075
1014.807908	-24.786368
1015.151540	-24.801315
1015.495405	-24.780001
1015.839503	-24.717292
1016.183835	-24.628759
1016.528400	-24.541167
1016.873198	-24.479055
1017.218231	-24.453963
1017.563498	-24.459871
1017.908999	-24.475623
1018.254735	-24.474830
1018.600707	-24.438973
1018.946913	-24.367853
1019.293354	-24.279732
1019.640032	-24.200166
1019.986945	-24.149348
1020.334094	-24.133225
1020.681480	-24.141339
1021.029102	-24.151364
1021.376961	-24.139731
1021.725058	-24.094017
1022.073391	-24.020518
1022.421962	-23.940520
1022.770772	-23.877605
1023.119819	-23.845972
1023.469104	-23.844324
1023.818628	-23.856914
1024.168391	-23.860951
1024.518393	-23.838257
1024.868634	-23.785065
1025.219115	-23.714780
1025.569836	-23.650390
1025.920796	-23.611265
1026.271997	-23.603149
1026.623438	-23.616164
1026.975121	-23.629980
1027.327044	-23.624345
1027.679208	-23.590078
1028.031614	-23.533767
1028.384262	-23.474074
1028.737152	-23.431814
1029.090284	-23.417983
1029.443659	-23.428177
1029.797276	-23.444668
1030.151137	-23.445996
1030.505240	-23.419830
1030.859587	-23.369813
1031.214178	-23.312656
1031.569013	-23.268405
1031.924093	-23.249118
1032.279417	-23.252730
1032.634985	-23.263985
1032.990799	-23.262100
1033.346858	-23.233332
1033.703162	-23.179655
1034.059712	-23.117536
1034.416509	-23.067540
1034.773551	-23.042417
1035.130841	-23.039795
1035.488377	-23.043759
1035.846160	-23.033790
1036.204190	-22.996379
1036.562468	-22.933846
1036.920994	-22.863058
1037.279768	-22.805294
1037.638790	-22.774019
1037.998061	-22.766828
1038.357581	-22.766736
1038.717350	-22.752087
1039.077368	-22.709650
1039.437636	-22.642834
1039.798154	-22.569279
1040.158922	-22.510032
1040.519940	-22.477585
1040.881209	-22.468709
1041.242729	-22.466295
1041.604501	-22.449091
1041.966524	-22.404793
1042.328798	-22.338313
1042.691325	-22.268555
1043.054103	-22.215951
1043.417135	-22.190627
1043.780419	-22.186846
1044.143956	-22.186385
1044.507746	-22.169439
1044.871791	-22.126696
1045.236088	-22.065727
1045.600641	-22.006021
1045.965447	-21.966272
1046.330508	-21.953064
1046.695824	-21.957085
1047.061395	-21.959139
1047.427222	-21.941882
1047.793304	-21.900778
1048.159642	-21.846970
1048.526237	-21.799700
1048.893088	-21.773771
1049.260196	-21.770558
1049.627561	-21.777322
1049.995183	-21.775414
1050.363063	-21.752551
1050.731201	-21.710583
1051.099597	-21.664129
1051.468251	-21.630164
1051.837164	-21.616795
1052.206336	-21.618212
1052.575767	-21.618479
1052.945458	-21.602319
1053.315409	-21.565596
1053.685619	-21.518308
1054.056090	-21.477096
1054.426821	-21.453679
1054.797814	-21.447114
1055.169067	-21.444157
1055.540582	-21.428174
1055.912359	-21.390906
1056.284398	-21.338562
1056.656698	-21.287346
1057.029262	-21.251882
1057.402088	-21.235690
1057.775177	-21.228941
1058.148530	-21.215159
1058.522146	-21.182508
1058.896027	-21.132107
1059.270171	-21.076805
1059.644580	-21.031787
1060.019254	-21.003966
1060.394193	-20.987786
1060.769397	-20.969810
1061.144867	-20.938501
1061.520602	-20.892230
1061.896604	-20.840251
1062.272872	-20.795408
1062.649407	-20.764633
1063.026210	-20.744164
1063.403279	-20.723137
1063.780616	-20.691955
1064.158221	-20.649966
1064.536094	-20.605503
1064.914235	-20.569613
1065.292645	-20.547741
1065.671325	-20.535438
1066.050273	-20.521423
1066.429491	-20.496093
1066.808979	-20.458983
1067.188738	-20.419389
1067.568766	-20.389240
1067.949066	-20.374209
1068.329636	-20.369420
1068.710478	-20.362637
1069.091592	-20.343305
1069.472977	-20.310427
1069.854635	-20.273777
1070.236565	-20.246452
1070.618768	-20.235242
1071.001243	-20.235658
1071.383993	-20.235229
1071.767016	-20.222834
1072.150313	-20.197024
1072.533884	-20.167113
1072.917730	-20.145826
1073.301850	-20.138990
1073.686246	-20.141197
1074.070917	-20.139781
1074.455864	-20.124810
1074.841087	-20.097147
1075.226586	-20.067376
1075.612362	-20.046902
1075.998415	-20.038140
1076.384745	-20.032515
1076.771353	-20.017070
1077.158238	-19.985756
1077.545401	-19.945197
1077.932843	-19.909798
1078.320564	-19.889550
1078.708564	-19.881444
1079.096842	-19.871286
1079.485401	-19.845164
1079.874240	-19.801779
1080.263358	-19.754415
1080.652757	-19.720557
1081.042438	-19.707361
1081.432399	-19.704966
1081.822641	-19.693759
1082.213166	-19.660093
1082.603972	-19.608244
1082.995061	-19.557180
1083.386433	-19.524796
1083.778087	-19.513240
1084.170025	-19.507125
1084.562246	-19.486027
1084.954751	-19.441655
1085.347541	-19.385078
1085.740615	-19.337084
1086.133973	-19.310890
1086.527617	-19.301864
1086.921546	-19.292422
1087.315761	-19.267395
1087.710262	-19.227245
1088.105050	-19.187001
1088.500124	-19.162520
1088.895485	-19.156999
1089.291134	-19.158884
1089.687070	-19.152475
1090.083294	-19.131996
1090.479806	-19.106138
1090.876607	-19.089104
1091.273696	-19.086931
1091.671075	-19.091852
1092.068744	-19.089360
1092.466702	-19.071523
1092.864950	-19.044207
1093.263489	-19.021133
1093.662319	-19.011065
1094.061440	-19.009401
1094.460852	-19.002499
1094.860555	-18.980334
1095.260551	-18.946272
1095.660840	-18.914347
1096.061421	-18.896583
1096.462295	-18.892374
1096.863462	-18.889219
1097.264923	-18.874446
1097.666678	-18.846865
1098.068727	-18.818125
1098.471071	-18.801738
1098.873710	-18.800706
1099.276644	-18.804552
1099.679874	-18.798760
1100.083400	-18.777597
1100.487222	-18.749150
1100.891340	-18.727107
1101.295756	-18.717364
1101.700468	-18.711970
1102.105478	-18.696031
1102.510787	-18.662032
1102.916393	-18.616720
1103.322298	-18.574482
1103.728502	-18.543004
1104.135005	-18.516341
1104.541807	-18.481192
1104.948909	-18.431055
1105.356312	-18.373137
1105.764015	-18.321359
1106.172019	-18.282872
1106.580324	-18.252209
1106.988931	-18.217999
1107.397840	-18.175251
1107.807051	-18.130699
1108.216564	-18.095841
1108.626380	-18.075790
1109.036500	-18.064661
1109.446923	-18.051871
1109.857649	-18.032667
1110.268680	-18.012263
1110.680016	-17.999911
1111.091657	-17.999098
1111.503602	-18.003527
1111.915854	-18.002951
1112.328411	-17.992685
1112.741275	-17.977877
1113.154445	-17.967043
1113.567922	-17.962229
1113.981706	-17.955960
1114.395798	-17.939307
1114.810198	-17.911560
1115.224906	-17.880822
1115.639923	-17.854235
1116.055249	-17.829610
1116.470884	-17.798372
1116.886829	-17.757107
1117.303084	-17.712679
1117.719650	-17.674405
1118.136526	-17.642670
1118.553713	-17.608925
1118.971212	-17.567382
1119.389022	-17.523694
1119.807145	-17.488937
1120.225580	-17.466331
1120.644328	-17.447168
1121.063389	-17.421515
1121.482763	-17.390658
1121.902452	-17.365619
1122.322454	-17.353209
1122.742771	-17.347940
1123.163404	-17.338640
1123.584351	-17.321487
1124.005614	-17.302888
1124.427193	-17.290242
1124.849089	-17.282759
1125.271301	-17.273303
1125.693830	-17.256805
1126.116677	-17.234374
1126.539842	-17.209793
1126.963324	-17.185050
1127.387126	-17.159751
1127.811246	-17.132471
1128.235685	-17.100696
1128.660444	-17.062060
1129.085522	-17.017988
1129.510922	-16.975293
1129.936641	-16.939524
1130.362682	-16.906773
1130.789044	-16.866473
1131.215728	-16.815698
1131.642734	-16.766393
1132.070063	-16.732825
1132.497714	-16.712639
1132.925689	-16.687603
1133.353987	-16.647388
1133.782610	-16.605820
1134.211556	-16.584506
1134.640827	-16.583449
1135.070424	-16.579256
1135.500345	-16.556045
1135.930593	-16.528768
1136.361166	-16.523000
1136.792067	-16.538259
1137.223294	-16.546933
1137.654848	-16.532975
1138.086730	-16.515252
1138.518940	-16.519324
1138.951479	-16.538345
1139.384346	-16.541387
1139.817543	-16.519643
1140.251069	-16.500903
1140.684925	-16.506600
1141.119111	-16.516003
1141.553628	-16.495014
1141.988475	-16.450515
1142.423655	-16.423558
1142.859166	-16.426430
1143.295009	-16.418997
1143.731185	-16.366181
1144.167694	-16.296113
1144.604536	-16.263443
1145.041711	-16.267574
1145.479221	-16.247573
1145.917065	-16.170211
1146.355245	-16.085443
1146.793759	-16.056998
1147.232609	-16.069555
1147.671795	-16.045585
1148.111317	-15.957219
1148.551177	-15.872193
1148.991373	-15.857816
1149.431907	-15.885260
1149.872779	-15.866414
1150.313989	-15.779857
1150.755538	-15.704362
1151.197426	-15.706093
1151.639653	-15.747416
1152.082220	-15.737489
1152.525128	-15.660384
1152.968376	-15.597229
1153.411966	-15.609571
1153.855897	-15.657220
1154.300169	-15.654469
1154.744784	-15.589335
1155.189742	-15.537265
1155.635042	-15.552582
1156.080687	-15.597608
1156.526674	-15.596407
1156.973007	-15.539740
1157.419683	-15.494028
1157.866705	-15.505833
1158.314072	-15.541849
1158.761786	-15.537001
1159.209845	-15.484158
1159.658251	-15.440871
1160.107004	-15.446811
1160.556104	-15.472168
1161.005553	-15.460815
1161.455349	-15.408534
1161.905494	-15.366387
1162.355989	-15.367209
1162.806832	-15.382184
1163.258026	-15.363104
1163.709570	-15.310833
1164.161464	-15.271487
1164.613710	-15.268994
1165.066307	-15.273621
1165.519256	-15.246802
1165.972558	-15.196657
1166.426212	-15.163062
1166.880219	-15.158401
1167.334580	-15.152613
1167.789295	-15.119570
1168.244364	-15.074608
1168.699788	-15.048244
1169.155567	-15.040773
1169.611702	-15.025247
1170.068193	-14.989450
1170.525041	-14.952055
1170.982245	-14.931364
1171.439807	-14.919123
1171.897726	-14.896542
1172.356004	-14.863171
1172.814640	-14.834538
1173.273635	-14.816487
1173.732989	-14.798704
1174.192703	-14.773415
1174.652778	-14.746512
1175.113213	-14.725601
1175.574009	-14.707618
1176.035167	-14.686123
1176.496687	-14.662866
1176.958569	-14.643466
1177.420814	-14.626927
1177.883422	-14.608007
1178.346394	-14.587138
1178.809730	-14.569819
1179.273430	-14.556349
1179.737496	-14.540962
1180.201927	-14.522217
1180.666723	-14.506025
1181.131886	-14.495360
1181.597416	-14.484519
1182.063312	-14.468639
1182.529576	-14.452574
1182.996209	-14.443026
1183.463209	-14.436645
1183.930579	-14.425123
1184.398317	-14.409363
1184.866426	-14.398465
1185.334904	-14.394651
1185.803754	-14.388839
1186.272974	-14.375177
1186.742566	-14.361129
1187.212529	-14.355504
1187.682865	-14.353771
1188.153574	-14.345064
1188.624656	-14.329793
1189.096112	-14.318965
1189.567942	-14.316153
1190.040147	-14.311571
1190.512726	-14.298139
1190.985681	-14.282983
1191.459012	-14.275352
1191.932720	-14.271471
1192.406804	-14.260773
1192.881265	-14.243280
1193.356104	-14.229541
1193.831322	-14.222949
1194.306918	-14.214337
1194.782893	-14.197079
1195.259248	-14.177846
1195.735982	-14.165472
1196.213097	-14.156390
1196.690593	-14.140757
1197.168471	-14.118642
1197.646730	-14.099654
1198.125371	-14.086957
1198.604395	-14.072339
1199.083803	-14.049961
1199.563594	-14.025769
1200.043769	-14.007556
1200.524329	-13.992311
1201.005273	-13.971600
1201.486604	-13.945425
1201.968320	-13.921768
1202.450422	-13.903558
1202.932912	-13.884391
1203.415789	-13.859502
1203.899054	-13.833370
1204.382707	-13.811694
1204.866748	-13.792420
1205.351179	-13.769832
1205.836000	-13.744293
1206.321211	-13.721240
1206.806812	-13.701872
1207.292805	-13.681632
1207.779189	-13.658316
1208.265965	-13.635930
1208.753134	-13.617583
1209.240696	-13.600202
1209.728651	-13.580027
1210.217000	-13.559158
1210.705744	-13.542018
1211.194883	-13.528002
1211.684417	-13.512256
1212.174347	-13.493706
1212.664673	-13.477020
1213.155396	-13.465018
1213.646516	-13.454162
1214.138034	-13.440136
1214.629951	-13.424629
1215.122266	-13.412559
1215.614980	-13.404417
1216.108095	-13.395604
1216.601609	-13.383659
1217.095524	-13.371683
1217.589841	-13.363310
1218.084559	-13.357346
1218.579679	-13.349697
1219.075202	-13.339661
1219.571128	-13.330629
1220.067458	-13.324674
1220.564191	-13.319599
1221.061330	-13.312454
1221.558874	-13.303912
1222.056823	-13.296956
1222.555178	-13.292009
1223.053940	-13.286608
1223.553109	-13.279203
1224.052686	-13.271340
1224.552671	-13.264735
1225.053065	-13.258613
1225.553867	-13.251256
1226.055079	-13.242825
1226.556702	-13.234426
1227.058735	-13.225872
1227.561179	-13.216525
1228.064035	-13.207001
1228.567303	-13.197501
1229.070983	-13.186772
1229.575077	-13.174227
1230.079585	-13.161944
1230.584506	-13.151317
1231.089842	-13.139764
1231.595594	-13.124625
1232.101761	-13.108584
1232.608345	-13.095849
1233.115345	-13.084347
1233.622762	-13.068583
1234.130597	-13.049718
1234.638851	-13.034204
1235.147523	-13.022485
1235.656615	-13.007509
1236.166126	-12.987402
1236.676058	-12.969317
1237.186411	-12.956584
1237.697185	-12.942263
1238.208381	-12.921672
1238.719999	-12.901438
1239.232040	-12.887404
1239.744505	-12.873356
1240.257394	-12.852648
1240.770708	-12.830802
1241.284446	-12.815410
1241.798610	-12.801733
1242.313201	-12.781620
1242.828218	-12.759024
1243.343662	-12.742566
1243.859534	-12.729250
1244.375834	-12.710473
1244.892563	-12.688800
1245.409721	-12.672676
1245.927309	-12.660175
1246.445327	-12.643337
1246.963777	-12.624222
1247.482657	-12.610353
1248.001970	-12.599431
1248.521716	-12.584529
1249.041894	-12.568459
1249.562506	-12.557941
1250.083553	-12.549218
1250.605034	-12.535622
1251.126950	-12.521997
1251.649302	-12.515033
1252.172091	-12.508717
1252.695316	-12.496037
1253.218979	-12.484038
1253.743079	-12.480056
1254.267619	-12.475983
1254.792597	-12.463956
1255.318015	-12.453103
1255.843874	-12.451632
1256.370173	-12.449513
1256.896913	-12.438304
1257.424095	-12.428799
1257.951720	-12.429644
1258.479787	-12.429311
1259.008298	-12.419227
1259.537254	-12.411409
1260.066654	-12.413980
1260.596499	-12.414331
1261.126790	-12.405022
1261.657527	-12.398825
1262.188711	-12.402070
1262.720342	-12.401426
1263.252422	-12.391917
1263.784950	-12.387098
1264.317928	-12.390081
1264.851355	-12.387061
1265.385232	-12.376817
1265.919560	-12.373123
1266.454340	-12.375032
1266.989572	-12.369060
1267.525256	-12.358381
1268.061394	-12.356045
1268.597985	-12.356569
1269.135031	-12.347788
1269.672531	-12.337621
1270.210487	-12.336757
1270.748899	-12.335088
1271.287768	-12.323673
1271.827094	-12.314393
1272.366877	-12.313869
1272.907119	-12.308499
1273.447820	-12.294324
1273.988981	-12.286028
1274.530601	-12.284183
1275.072683	-12.273717
1275.615226	-12.257338
1276.158230	-12.250029
1276.701697	-12.245538
1277.245627	-12.229915
1277.790021	-12.212921
1278.334879	-12.206972
1278.880202	-12.199249
1279.425991	-12.179898
1279.972245	-12.164554
1280.518966	-12.159825
1281.066155	-12.148417
1281.613811	-12.127390
1282.161936	-12.114843
1282.710529	-12.109655
1283.259593	-12.094034
1283.809126	-12.073362
1284.359131	-12.063578
1284.909607	-12.055633
1285.460555	-12.036489
1286.011976	-12.018563
1286.563870	-12.010964
1287.116237	-11.999189
1287.669080	-11.979164
1288.222397	-11.966481
1288.776191	-11.960128
1289.330460	-11.945093
1289.885207	-11.927782
1290.440431	-11.921054
1290.996133	-11.913861
1291.552314	-11.896886
1292.108975	-11.884534
1292.666115	-11.881213
1293.223737	-11.870396
1293.781839	-11.853177
1294.340424	-11.845813
1294.899491	-11.841663
1295.459041	-11.826420
1296.019075	-11.811844
1296.579593	-11.808284
1297.140597	-11.800417
1297.702086	-11.783545
1298.264061	-11.774822
1298.826524	-11.772826
1299.389474	-11.761058
1299.952912	-11.747260
1300.516839	-11.744955
1301.081255	-11.741179
1301.646162	-11.727492
1302.211559	-11.720051
1302.777448	-11.720792
1303.343829	-11.712727
1303.910702	-11.700745
1304.478069	-11.699837
1305.045930	-11.699041
1305.614285	-11.688084
1306.183136	-11.682183
1306.752483	-11.685183
1307.322326	-11.680601
1307.892666	-11.671830
1308.463504	-11.673437
1309.034841	-11.675542
1309.606677	-11.668282
1310.179012	-11.665862
1310.751849	-11.670942
1311.325186	-11.668054
1311.899025	-11.661997
1312.473366	-11.665884
1313.048211	-11.668182
1313.623559	-11.661397
1314.199412	-11.661153
1314.775770	-11.667465
1315.352634	-11.664476
1315.930004	-11.660151
1316.507881	-11.666722
1317.086266	-11.670038
1317.665159	-11.664709
1318.244562	-11.667476
1318.824474	-11.675187
1319.404897	-11.672486
1319.985831	-11.670151
1320.567276	-11.677678
1321.149234	-11.679387
1321.731706	-11.674069
1322.314691	-11.677892
1322.898190	-11.683427
1323.482205	-11.678805
1324.066736	-11.677949
1324.651783	-11.684853
1325.237347	-11.683464
1325.823430	-11.678721
1326.410031	-11.683558
1326.997151	-11.685567
1327.584791	-11.678785
1328.172952	-11.678693
1328.761634	-11.682063
1329.350839	-11.675688
1329.940566	-11.670543
1330.530817	-11.673213
1331.121592	-11.669301
1331.712891	-11.661375
1332.304716	-11.662035
1332.897068	-11.660956
1333.489946	-11.652451
1334.083352	-11.650424
1334.677287	-11.651421
1335.271750	-11.643703
1335.866744	-11.638389
1336.462268	-11.639961
1337.058323	-11.634222
1337.654910	-11.626066
1338.252029	-11.626882
1338.849682	-11.624544
1339.447869	-11.615574
1340.046591	-11.614408
1340.645848	-11.615136
1341.245641	-11.607249
1341.845972	-11.603134
1342.446840	-11.604693
1343.048246	-11.598485
1343.650191	-11.591455
1344.252677	-11.591709
1344.855702	-11.586985
1345.459269	-11.578186
1346.063379	-11.576617
1346.668030	-11.573503
1347.273226	-11.564374
1347.878965	-11.561296
1348.485250	-11.559714
1349.092080	-11.550986
1349.699456	-11.545982
1350.307380	-11.545244
1350.915851	-11.537422
1351.524871	-11.530469
1352.134441	-11.529924
1352.744560	-11.524131
1353.355231	-11.516468
1353.966453	-11.516056
1354.578227	-11.512960
1355.190555	-11.505897
1355.803436	-11.505358
1356.416872	-11.504277
1357.030863	-11.497854
1357.645411	-11.496595
1358.260515	-11.496617
1358.876177	-11.490725
1359.492397	-11.488753
1360.109176	-11.489934
1360.726516	-11.485245
1361.344416	-11.483033
1361.962877	-11.485522
1362.581901	-11.482377
1363.201487	-11.479650
1363.821637	-11.482495
1364.442352	-11.480421
1365.063632	-11.476747
1365.685478	-11.479026
1366.307891	-11.477865
1366.930871	-11.473872
1367.554420	-11.475751
1368.178538	-11.475658
1368.803226	-11.471938
1369.428485	-11.473596
1370.054315	-11.474149
1370.680717	-11.470429
1371.307693	-11.471633
1371.935242	-11.472707
1372.563366	-11.469246
1373.192065	-11.470690
1373.821341	-11.473213
1374.451193	-11.470993
1375.081623	-11.473177
1375.712632	-11.477096
1376.344221	-11.475726
1376.976389	-11.477721
1377.609139	-11.481780
1378.242470	-11.480247
1378.876384	-11.481477
1379.510881	-11.485345
1380.145963	-11.483808
1380.781629	-11.484673
1381.417881	-11.488611
1382.054720	-11.487133
1382.692147	-11.487471
1383.330161	-11.490974
1383.968765	-11.489144
1384.607959	-11.488954
1385.247743	-11.492373
1385.888119	-11.491070
1386.529087	-11.491706
1387.170648	-11.496163
1387.812804	-11.495994
1388.455554	-11.497540
1389.098899	-11.502313
1389.742842	-11.502040
1390.387381	-11.503391
1391.032519	-11.507838
1391.678256	-11.507375
1392.324592	-11.509141
1392.971529	-11.514291
1393.619068	-11.514644
1394.267208	-11.517377
1394.915952	-11.522910
1395.565300	-11.523176
1396.215253	-11.525690
1396.865812	-11.530320
1397.516977	-11.529951
1398.168749	-11.532621
1398.821130	-11.537207
1399.474120	-11.537268
1400.127719	-11.540990
1400.781930	-11.545667
1401.436752	-11.545689
1402.092186	-11.549725
1402.748234	-11.553817
1403.404897	-11.553719
1404.062174	-11.558723
1404.720067	-11.563510
1405.378577	-11.564876
1406.037705	-11.571720
1406.697451	-11.577097
1407.357817	-11.579097
1408.018803	-11.586029
1408.680410	-11.590226
1409.342639	-11.592048
1410.005492	-11.598985
1410.668968	-11.602865
1411.333068	-11.606118
1411.997795	-11.614318
1412.663147	-11.618764
1413.329127	-11.623896
1413.995736	-11.633146
1414.662973	-11.638287
1415.330840	-11.645738
1415.999339	-11.656307
1416.668469	-11.662668
1417.338232	-11.672179
1418.008628	-11.682505
1418.679659	-11.688304
1419.351325	-11.697735
1420.023628	-11.706306
1420.696568	-11.712168
1421.370145	-11.723276
1422.044362	-11.732807
1422.719219	-11.741674
1423.394717	-11.755409
1424.070856	-11.765309
1424.747638	-11.775328
1425.425064	-11.788595
1426.103134	-11.797063
1426.781850	-11.807940
1427.461212	-11.821336
1428.141221	-11.830752
1428.821878	-11.844554
1429.503185	-11.858964
1430.185141	-11.870367
1430.867749	-11.887093
1431.551008	-11.902638
1432.234920	-11.917295
1432.919486	-11.936987
1433.604707	-11.953062
1434.290583	-11.969002
1434.977116	-11.986856
1435.664307	-11.999119
1436.352156	-12.013096
1437.040664	-12.027837
1437.729833	-12.039731
1438.419663	-12.056964
1439.110156	-12.074356
1439.801312	-12.091769
1440.493132	-12.114618
1441.185617	-12.135286
1441.878768	-12.157917
1442.572586	-12.183673
1443.267072	-12.205431
1443.962228	-12.229418
1444.658053	-12.251335
1445.354549	-12.267646
1446.051717	-12.285363
1446.749558	-12.298459
1447.448073	-12.310668
1448.147263	-12.327250
1448.847128	-12.342211
1449.547671	-12.362840
1450.248891	-12.387957
1450.950789	-12.413354
1451.653368	-12.446325
1452.356627	-12.480353
1453.060568	-12.515391
1453.765192	-12.554477
1454.470500	-12.588016
1455.176492	-12.619746
1455.883170	-12.647515
1456.590534	-12.666600
1457.298586	-12.685263
1458.007327	-12.699624
1458.716758	-12.712920
1459.426880	-12.731462
1460.137693	-12.750250
1460.849199	-12.777411
1461.561398	-12.813410
1462.274293	-12.856216
1462.987883	-12.913484
1463.702170	-12.978127
1464.417155	-13.050070
1465.132838	-13.129072
1465.849222	-13.204885
1466.566306	-13.280750
1467.284093	-13.350382
1468.002582	-13.409538
1468.721775	-13.462140
1469.441674	-13.500124
1470.162278	-13.529096
1470.883590	-13.551717
1471.605609	-13.567709
1472.328338	-13.589456
1473.051777	-13.615672
1473.775928	-13.651898
1474.500790	-13.703801
1475.226367	-13.766255
1475.952657	-13.846752
1476.679663	-13.940951
1477.407386	-14.045211
1478.135826	-14.160134
1478.864985	-14.271838
1479.594863	-14.378741
1480.325463	-14.472460
1481.056784	-14.544124
1481.788828	-14.596344
1482.521597	-14.619170
1483.255090	-14.616389
1483.989309	-14.589662
1484.724256	-14.539256
1485.459931	-14.479366
1486.196336	-14.411620
1486.933471	-14.347048
1487.671337	-14.293324
1488.409937	-14.250646
1489.149270	-14.231123
1489.889337	-14.234157
1490.630141	-14.265532
1491.371682	-14.329970
1492.113961	-14.421188
1492.856979	-14.544017
1493.600738	-14.691502
1494.345238	-14.860984
1495.090481	-15.052307
1495.836467	-15.252342
1496.583198	-15.459632
1497.330675	-15.661882
1498.078899	-15.851495
1498.827872	-16.028689
1499.577593	-16.182783
1500.328065	-16.318627
1501.079289	-16.431624
1501.831265	-16.523090
1502.583995	-16.603626
1503.337480	-16.672321
1504.091721	-16.742723
1504.846719	-16.814854
1505.602475	-16.890889
1506.358991	-16.980210
1507.116268	-17.079130
1507.874306	-17.198485
1508.633108	-17.335009
1509.392673	-17.485603
1510.153004	-17.655385
1510.914101	-17.836265
1511.675965	-18.037376
1512.438599	-18.255245
1513.202002	-18.487147
1513.966176	-18.742298
1514.731122	-19.017391
1515.496842	-19.330976
1516.263336	-19.690107
1517.030607	-20.104384
1517.798654	-20.599404
1518.567479	-21.191150
1519.337083	-21.930079
1520.107468	-22.864715
1520.878634	-24.074533
1521.650584	-25.710607
1522.423317	-28.032107
1523.196836	-31.724364
1523.971141	-38.776053
1524.746233	-38.951637
1525.522115	-30.625561
1526.298786	-25.885972
1527.076249	-22.565775
1527.854504	-19.993748
1528.633553	-17.883706
1529.413397	-16.090384
1530.194037	-14.535726
1530.975474	-13.162882
1531.757709	-11.944933
1532.540745	-10.857165
1533.324581	-9.883398
1534.109220	-9.011425
1534.894662	-8.229249
1535.680909	-7.533431
1536.467961	-6.916849
1537.255821	-6.376337
1538.044489	-5.907544
1538.833967	-5.506840
1539.624256	-5.174247
1540.415357	-4.906308
1541.207271	-4.702474
1542.000000	-4.559632
1542.793545	-4.476962
1543.587907	-4.454580
1544.383087	-4.490438
1545.179088	-4.584612
1545.975909	-4.734412
1546.773552	-4.940822
1547.572019	-5.203216
1548.371311	-5.520659
1549.171428	-5.892993
1549.972373	-6.318613
1550.774147	-6.800379
1551.576751	-7.337382
1552.380185	-7.930921
1553.184453	-8.580491
1553.989554	-9.287245
1554.795490	-10.054274
1555.602263	-10.879511
1556.409873	-11.763934
1557.218322	-12.702187
1558.027612	-13.693249
1558.837743	-14.724369
1559.648717	-15.772844
1560.460536	-16.799186
1561.273200	-17.743632
1562.086710	-18.536114
1562.901069	-19.092563
1563.716278	-19.366329
1564.532337	-19.352660
1565.349249	-19.117404
1566.167014	-18.735128
1566.985634	-18.281636
1567.805111	-17.800934
1568.625444	-17.327149
1569.446637	-16.881592
1570.268690	-16.473234
1571.091605	-16.105844
1571.915382	-15.773578
1572.740024	-15.481858
1573.565532	-15.226137
1574.391907	-15.006571
1575.219150	-14.814685
1576.047262	-14.651848
1576.876246	-14.518729
1577.706103	-14.412818
1578.536833	-14.332057
1579.368439	-14.272255
1580.200922	-14.239029
1581.034282	-14.227317
1581.868522	-14.237733
1582.703643	-14.265507
1583.539646	-14.316013
1584.376532	-14.387255
1585.214304	-14.476487
1586.052962	-14.582166
1586.892508	-14.704705
1587.732943	-14.847388
1588.574269	-15.003604
1589.416487	-15.176386
1590.259599	-15.363397
1591.103605	-15.569815
1591.948508	-15.786108
1592.794309	-16.013596
1593.641009	-16.250448
1594.488609	-16.500487
1595.337112	-16.757025
1596.186518	-17.017311
1597.036829	-17.282450
1597.888047	-17.550097
1598.740172	-17.815764
1599.593207	-18.070932
1600.447153	-18.321643
1601.302010	-18.561662
1602.157782	-18.789763
1603.014469	-18.993933
1603.872072	-19.183341
1604.730593	-19.349451
1605.590034	-19.492062
1606.450397	-19.600841
1607.311681	-19.688718
1608.173890	-19.750727
1609.037024	-19.786898
1609.901085	-19.790448
1610.766075	-19.772105
1611.631995	-19.727985
1612.498846	-19.656617
1613.366630	-19.559187
1614.235349	-19.445263
1615.105004	-19.311015
1615.975596	-19.149936
1616.847128	-18.967621
1617.719600	-18.771584
1618.593014	-18.562801
1619.467372	-18.338279
1620.342675	-18.108739
1621.218924	-17.876007
1622.096122	-17.641153
1622.974270	-17.405057
1623.853369	-17.181278
1624.733420	-16.967206
1625.614427	-16.762606
1626.496389	-16.568054
1627.379308	-16.392182
1628.263187	-16.227531
1629.148026	-16.074828
1630.033828	-15.934860
1630.920593	-15.809159
1631.808324	-15.687125
1632.697022	-15.571071
1633.586688	-15.460398
1634.477324	-15.352152
1635.368932	-15.239929
1636.261514	-15.129961
1637.155070	-15.018883
1638.049602	-14.902785
1638.945113	-14.782474
1639.841603	-14.665023
1640.739075	-14.545548
1641.637529	-14.424294
1642.536968	-14.305305
1643.437393	-14.190075
1644.338806	-14.075315
1645.241209	-13.967485
1646.144602	-13.867932
1647.048988	-13.772362
1647.954368	-13.680588
1648.860744	-13.598338
1649.768118	-13.521466
1650.676491	-13.447748
1651.585865	-13.379555
1652.496241	-13.315572
1653.407621	-13.250739
1654.320008	-13.189491
1655.233401	-13.132160
1656.147804	-13.074320
1657.063218	-13.016646
1657.979645	-12.963139
1658.897085	-12.909021
1659.815542	-12.855475
1660.735016	-12.805796
1661.655509	-12.757538
1662.577023	-12.708094
1663.499560	-12.663564
1664.423121	-12.621493
1665.347709	-12.580681
1666.273324	-12.544246
1667.199969	-12.512073
1668.127645	-12.478735
1669.056353	-12.450051
1669.986097	-12.424796
1670.916877	-12.399151
1671.848695	-12.374241
1672.781553	-12.352781
1673.715452	-12.329110
1674.650395	-12.308455
1675.586383	-12.290597
1676.523418	-12.271491
1677.461501	-12.253225
1678.400635	-12.240499
1679.340821	-12.226573
1680.282061	-12.214613
1681.224357	-12.205910
1682.167710	-12.195901
1683.112122	-12.187283
1684.057595	-12.183127
1685.004132	-12.176514
1685.951732	-12.170280
1686.900400	-12.168014
1687.850135	-12.163435
1688.800940	-12.160633
1689.752818	-12.160649
1690.705768	-12.157935
1691.659795	-12.156499
1692.614898	-12.159183
1693.571081	-12.158167
1694.528345	-12.159778
1695.486691	-12.163275
1696.446122	-12.163977
1697.406640	-12.167826
1698.368245	-12.173710
1699.330941	-12.175546
1700.294729	-12.181168
1701.259611	-12.187028
1702.225588	-12.190247
1703.192664	-12.198099
1704.160838	-12.203981
1705.130114	-12.208385
1706.100493	-12.217511
1707.071977	-12.223935
1708.044568	-12.229683
1709.018268	-12.239906
1709.993079	-12.246366
1710.969003	-12.255768
1711.946041	-12.266468
1712.924196	-12.272545
1713.903469	-12.283005
1714.883862	-12.293185
1715.865378	-12.300660
1716.848017	-12.313274
1717.831783	-12.323165
1718.816677	-12.333092
1719.802701	-12.346886
1720.789857	-12.355054
1721.778147	-12.367217
1722.767573	-12.380445
1723.758136	-12.389998
1724.749840	-12.404776
1725.742685	-12.416515
1726.736673	-12.427832
1727.731808	-12.443038
1728.728090	-12.452513
1729.725521	-12.465843
1730.724105	-12.480076
1731.723842	-12.490685
1732.724735	-12.507494
1733.726785	-12.519455
1734.729995	-12.532885
1735.734366	-12.549278
1736.739902	-12.559751
1737.746603	-12.575405
1738.754472	-12.588448
1739.763510	-12.601427
1740.773721	-12.618581
1741.785105	-12.629844
1742.797665	-12.646028
1743.811403	-12.661386
1744.826321	-12.673820
1745.842422	-12.690249
1746.859706	-12.701496
1747.878177	-12.717005
1748.897835	-12.730743
1749.918685	-12.741843
1750.940726	-12.758439
1751.963963	-12.769171
1752.988395	-12.784237
1754.014027	-12.797017
1755.040860	-12.808527
1756.068895	-12.824075
1757.098135	-12.833249
1758.128583	-12.849004
1759.160240	-12.860814
1760.193109	-12.873433
1761.227191	-12.889494
1762.262488	-12.900517
1763.299004	-12.917622
1764.336740	-12.929012
1765.375697	-12.944969
1766.415880	-12.960617
1767.457288	-12.974163
1768.499926	-12.993467
1769.543794	-13.007638
1770.588895	-13.027935
1771.635231	-13.042914
1772.682805	-13.060537
1773.731619	-13.078497
1774.781674	-13.093378
1775.832973	-13.113214
1776.885519	-13.127084
1777.939312	-13.148046
1778.994357	-13.163197
1780.050654	-13.180875
1781.108207	-13.197697
1782.167017	-13.212597
1783.227087	-13.230918
1784.288418	-13.243260
1785.351013	-13.262487
1786.414875	-13.275178
1787.480006	-13.292520
1788.546407	-13.306356
1789.614082	-13.322241
1790.683032	-13.337806
1791.753259	-13.351408
1792.824767	-13.368799
1793.897557	-13.380854
1794.971632	-13.398250
1796.046994	-13.409610
1797.123645	-13.427454
1798.201588	-13.440174
1799.280824	-13.457373
1800.361357	-13.470987
1801.443188	-13.486254
1802.526320	-13.500335
1803.610756	-13.512237
1804.696497	-13.528099
1805.783546	-13.542231
1806.871906	-13.560797
1807.961578	-13.570568
1809.052565	-13.584225
1810.144870	-13.593987
1811.238494	-13.612189
1812.333441	-13.623499
1813.429713	-13.637737
1814.527311	-13.647221
1815.626239	-13.662485
1816.726499	-13.673023
1817.828094	-13.687239
1818.931025	-13.697695
1820.035295	-13.710594
1821.140906	-13.720750
1822.247862	-13.733126
1823.356165	-13.744472
1824.465816	-13.756583
1825.576819	-13.767934
1826.689175	-13.779322
1827.802888	-13.790933
1828.917960	-13.800712
1830.034394	-13.812645
1831.152191	-13.822705
1832.271354	-13.834402
1833.391887	-13.844623
1834.513790	-13.857163
1835.637068	-13.865896
1836.761722	-13.877611
1837.887755	-13.887730
1839.015169	-13.899059
1840.143968	-13.908892
1841.274153	-13.920393
1842.405727	-13.929978
1843.538693	-13.939845
1844.673053	-13.949546
1845.808810	-13.958122
1846.945966	-13.967282
1848.084525	-13.973827
1849.224488	-13.982908
1850.365858	-13.988060
1851.508638	-13.996136
1852.652831	-13.998589
1853.798438	-14.006801
1854.945463	-14.007596
1856.093909	-14.015727
1857.243777	-14.016270
1858.395071	-14.024010
1859.547794	-14.021957
1860.701947	-14.027233
1861.857533	-14.024467
1863.014556	-14.029245
1864.173018	-14.027967
1865.332922	-14.030946
1866.494270	-14.030859
1867.657065	-14.031168
1868.821309	-14.032409
1869.987006	-14.030936
1871.154158	-14.033667
1872.322768	-14.029913
1873.492839	-14.032823
1874.664373	-14.027458
1875.837373	-14.030280
1877.011841	-14.026675
1878.187782	-14.028066
1879.365197	-14.026336
1880.544089	-14.022318
1881.724460	-14.021810
1882.906315	-14.015357
1884.089655	-14.017351
1885.274483	-14.012071
1886.460803	-14.013558
1887.648616	-14.007816
1888.837927	-14.005510
1890.028736	-14.001725
1891.221049	-13.996504
1892.414866	-13.995624
1893.610192	-13.987447
1894.807028	-13.986100
1896.005379	-13.977917
1897.205246	-13.974026
1898.406633	-13.969466
1899.609542	-13.961855
1900.813977	-13.958986
1902.019940	-13.948586
1903.227434	-13.945158
1904.436462	-13.936309
1905.647028	-13.928349
1906.859133	-13.922787
1908.072781	-13.910486
1909.287976	-13.905857
1910.504719	-13.894704
1911.723013	-13.885900
1912.942863	-13.877170
1914.164270	-13.862506
1915.387238	-13.854053
1916.611770	-13.840094
1917.837868	-13.828958
1919.065536	-13.819717
1920.294777	-13.804792
1921.525594	-13.795099
1922.757989	-13.781140
1923.991967	-13.766875
1925.227529	-13.757505
1926.464679	-13.741600
1927.703420	-13.730930
1928.943755	-13.718822
1930.185688	-13.702431
1931.429221	-13.693508
1932.674356	-13.677437
1933.921099	-13.664113
1935.169451	-13.653573
1936.419415	-13.635367
1937.670996	-13.625786
1938.924195	-13.614854
1940.179017	-13.600722
1941.435463	-13.592763
1942.693538	-13.577216
1943.953245	-13.563691
1945.214586	-13.556343
1946.477566	-13.541996
1947.742186	-13.532101
1949.008451	-13.522435
1950.276363	-13.506915
1951.545926	-13.498376
1952.817143	-13.487490
1954.090017	-13.472036
1955.364551	-13.462088
1956.640749	-13.448971
1957.918615	-13.434233
1959.198150	-13.424390
1960.479359	-13.411658
1961.762244	-13.394355
1963.046810	-13.382970
1964.333059	-13.367694
1965.620995	-13.349601
1966.910621	-13.339494
1968.201940	-13.323872
1969.494956	-13.306649
1970.789672	-13.294144
1972.086091	-13.279621
1973.384217	-13.262044
1974.684053	-13.251175
1975.985602	-13.238171
1977.288869	-13.219365
1978.593855	-13.209364
1979.900566	-13.197443
1981.209003	-13.180687
1982.519171	-13.168876
1983.831073	-13.159042
1985.144712	-13.144002
1986.460093	-13.131684
1987.777217	-13.125127
1989.096089	-13.113082
1990.416713	-13.101056
1991.739092	-13.093793
1993.063228	-13.086573
1994.389127	-13.074580
1995.716791	-13.068025
1997.046223	-13.062538
1998.377428	-13.053778
1999.710409	-13.044333
2001.045169	-13.041013
2002.381713	-13.034729
2003.720043	-13.024702
2005.060163	-13.018399
2006.402077	-13.015334
2007.745788	-13.007245
2009.091301	-12.997309
2010.438618	-12.992869
2011.787743	-12.988474
2013.138680	-12.978872
2014.491433	-12.969649
2015.846005	-12.965446
2017.202399	-12.957352
2018.560621	-12.945710
2019.920673	-12.938260
2021.282558	-12.934424
2022.646281	-12.926375
2024.011846	-12.914078
2025.379256	-12.906695
2026.748515	-12.902733
2028.119626	-12.895672
2029.492594	-12.883826
2030.867422	-12.876091
2032.244114	-12.872833
2033.622673	-12.868236
2035.003104	-12.859178
2036.385411	-12.851801
2037.769597	-12.849725
2039.155665	-12.848996
2040.543621	-12.843964
2041.933467	-12.837646
2043.325208	-12.835371
2044.718847	-12.837327
2046.114389	-12.837622
2047.511837	-12.835069
2048.911195	-12.834490
2050.312467	-12.837719
2051.715657	-12.841118
2053.120769	-12.839722
2054.527807	-12.837443
2055.936775	-12.837947
2057.347677	-12.842452
2058.760516	-12.844633
2060.175297	-12.842531
2061.592025	-12.838993
2063.010701	-12.838417
2064.431332	-12.840721
2065.853921	-12.842458
2067.278472	-12.839655
2068.704988	-12.835813
2070.133475	-12.832248
2071.563936	-12.834108
2072.996375	-12.835996
2074.430796	-12.836001
2075.867204	-12.832173
2077.305603	-12.829100
2078.745996	-12.830670
2080.188389	-12.836026
2081.632784	-12.840359
2083.079187	-12.840757
2084.527601	-12.838807
2085.978030	-12.839986
2087.430480	-12.846022
2088.884954	-12.855951
2090.341455	-12.864135
2091.799990	-12.870200
2093.260561	-12.874335
2094.723173	-12.879701
2096.187831	-12.889589
2097.654538	-12.902974
2099.123300	-12.918745
2100.594119	-12.933255
2102.067001	-12.943802
2103.541950	-12.953676
2105.018971	-12.963590
2106.498067	-12.976911
2107.979243	-12.992882
2109.462503	-13.010312
2110.947853	-13.026767
2112.435295	-13.040894
2113.924836	-13.050110
2115.416478	-13.057329
2116.910227	-13.064435
2118.406087	-13.075058
2119.904063	-13.089772
2121.404158	-13.105783
2122.906378	-13.119236
2124.410727	-13.130162
2125.917210	-13.139488
2127.425831	-13.146836
2128.936594	-13.151900
2130.449505	-13.159176
2131.964567	-13.168054
2133.481786	-13.182332
2135.001166	-13.197421
2136.522711	-13.214588
2138.046427	-13.232332
2139.572317	-13.250833
2141.100388	-13.267156
2142.630642	-13.280939
2144.163085	-13.293555
2145.697722	-13.307038
2147.234558	-13.322931
2148.773596	-13.341750
2150.314842	-13.363078
2151.858301	-13.387729
2153.403977	-13.415122
2154.951875	-13.446347
2156.502000	-13.479414
2158.054357	-13.513588
2159.608950	-13.548928
2161.165785	-13.584120
2162.724866	-13.616770
2164.286198	-13.646416
2165.849786	-13.673982
2167.415635	-13.697807
2168.983749	-13.717889
2170.554134	-13.735462
2172.126795	-13.752801
2173.701737	-13.767794
2175.278964	-13.781358
2176.858481	-13.794983
2178.440294	-13.811212
2180.024408	-13.826965
2181.610827	-13.841957
2183.199557	-13.858990
2184.790602	-13.878881
2186.383968	-13.899091
2187.979660	-13.920223
2189.577683	-13.943420
2191.178041	-13.970838
2192.780741	-14.001951
2194.385787	-14.034259
2195.993185	-14.067556
2197.602939	-14.104659
2199.215054	-14.140406
