# 2022-03-21_23.48.56
# shape = sech2
# FWHM_ps = 0.1
# carrier_nm = 1542
# frep_MHz = 12126
# pow_mW = 8000
# GDD = 0.0
# propa_len = 0.13244444444444445
# untap_len = 0.01
# taper_len = 0.07244444444444445
# waist_len = 0.02
# uptap_len = 0.02
# untap_scale = 1.0
# waist_scale = 0.17894736842105266
# workingDir = NL_20110305_12 (Spirou)
# axis = slow
# window_ps = 10.0
# steps = 200
# points = 21700
# 
# wavelength [nm]	 power spectral density [dB]
600.043425	-97.898043
600.163550	-92.025185
600.283723	-90.206627
600.403943	-91.084397
600.524212	-94.723762
600.644529	-99.586272
600.764895	-95.018724
600.885308	-91.621090
601.005770	-91.227839
601.126280	-94.167125
601.246839	-99.138867
601.367446	-94.143105
601.488101	-88.984538
601.608804	-86.360633
601.729557	-85.922040
601.850357	-87.123362
601.971206	-89.936555
602.092104	-95.912829
602.213050	-107.479609
602.334045	-104.323488
602.455089	-103.783443
602.576181	-100.199117
602.697322	-93.764183
602.818511	-90.069283
602.939749	-88.280713
603.061036	-88.214184
603.182372	-89.850622
603.303757	-91.645901
603.425191	-90.455429
603.546673	-87.738825
603.668204	-85.874397
603.789785	-85.515479
603.911414	-86.755280
604.033092	-89.237663
604.154820	-93.165255
604.276596	-98.448183
604.398422	-99.669929
604.520297	-96.644209
604.642220	-93.216208
604.764193	-90.359126
604.886216	-88.260914
605.008287	-87.009180
605.130408	-86.622008
605.252578	-85.963949
605.374798	-84.562968
605.497066	-83.163792
605.619385	-82.137354
605.741752	-81.788256
605.864169	-82.042960
605.986636	-82.897294
606.109152	-84.345477
606.231718	-85.611306
606.354333	-86.323788
606.476998	-86.571974
606.599712	-86.312838
606.722476	-85.841405
606.845290	-85.363302
606.968154	-84.821924
607.091067	-84.519869
607.214030	-84.434986
607.337043	-84.072425
607.460106	-83.833668
607.583219	-83.957852
607.706381	-84.191491
607.829594	-84.940198
607.952856	-85.779559
608.076169	-86.447293
608.199531	-87.505843
608.322944	-88.705986
608.446407	-89.279492
608.569920	-89.149036
608.693483	-88.652434
608.817096	-88.247852
608.940759	-87.778933
609.064473	-87.458347
609.188237	-87.167057
609.312051	-86.615678
609.435916	-85.811157
609.559831	-84.399898
609.683796	-83.189700
609.807812	-82.417702
609.931878	-81.808438
610.055995	-81.961299
610.180162	-82.566708
610.304380	-83.196350
610.428648	-83.749078
610.552967	-84.341879
610.677337	-85.383073
610.801757	-86.608064
610.926228	-88.126839
611.050750	-89.741727
611.175323	-89.911791
611.299946	-88.901795
611.424620	-87.439741
611.549345	-85.518018
611.674121	-83.520824
611.798948	-82.578739
611.923826	-82.426350
612.048755	-82.592108
612.173734	-83.174818
612.298765	-83.575809
612.423847	-84.208533
612.548980	-85.113895
612.674165	-86.526055
612.799400	-89.322486
612.924687	-91.596876
613.050025	-92.647938
613.175414	-92.333874
613.300854	-90.873374
613.426346	-89.026723
613.551889	-87.172057
613.677484	-85.590604
613.803130	-85.018750
613.928827	-85.120076
614.054576	-86.506278
614.180377	-88.426821
614.306229	-90.990256
614.432132	-94.594939
614.558087	-96.285990
614.684094	-95.750312
614.810153	-94.630913
614.936263	-90.665958
615.062425	-88.389868
615.188639	-87.598070
615.314904	-87.724254
615.441222	-88.896551
615.567591	-89.865867
615.694012	-89.753534
615.820486	-90.949508
615.947011	-94.640787
616.073588	-105.183155
616.200217	-97.572644
616.326898	-91.853103
616.453632	-89.636981
616.580417	-88.331982
616.707255	-89.063935
616.834144	-91.586355
616.961086	-94.895848
617.088081	-101.157612
617.215127	-103.899090
617.342226	-115.608824
617.469378	-95.820107
617.596581	-89.687746
617.723837	-86.555250
617.851146	-85.525928
617.978507	-85.290290
618.105920	-84.659820
618.233386	-83.960718
618.360905	-83.335445
618.488476	-83.378209
618.616100	-84.447427
618.743777	-85.541646
618.871506	-86.692075
618.999288	-87.880463
619.127123	-88.673101
619.255011	-88.548138
619.382951	-87.183746
619.510945	-85.202002
619.638991	-83.776536
619.767090	-82.793949
619.895243	-82.719899
620.023448	-83.328160
620.151706	-84.159605
620.280017	-85.166456
620.408382	-86.009342
620.536799	-87.238499
620.665270	-90.035302
620.793794	-94.084656
620.922371	-94.970257
621.051002	-93.009970
621.179686	-93.303221
621.308423	-93.206604
621.437213	-93.376705
621.566057	-93.396161
621.694954	-93.065296
621.823905	-96.896104
621.952909	-102.323824
622.081967	-94.326554
622.211079	-88.515184
622.340244	-85.947376
622.469462	-85.615165
622.598735	-86.670678
622.728061	-88.368959
622.857441	-88.356781
622.986874	-88.640802
623.116361	-90.789560
623.245903	-92.098249
623.375498	-89.422750
623.505147	-87.297139
623.634850	-86.861231
623.764606	-87.670820
623.894417	-89.324825
624.024282	-89.461025
624.154201	-89.176220
624.284174	-91.286744
624.414202	-98.852413
624.544283	-94.804661
624.674419	-87.431778
624.804609	-84.789833
624.934853	-84.210522
625.065151	-85.936279
625.195504	-87.983941
625.325911	-87.966710
625.456373	-88.539136
625.586889	-90.122572
625.717460	-94.633082
625.848085	-92.007649
625.978764	-87.651000
626.109498	-86.136609
626.240287	-87.369878
626.371131	-90.973108
626.502029	-91.474049
626.632982	-91.447529
626.763989	-92.870086
626.895052	-93.123879
627.026169	-88.585957
627.157341	-85.385457
627.288568	-84.207489
627.419850	-84.644196
627.551187	-84.535844
627.682579	-83.228595
627.814026	-82.146944
627.945528	-81.936829
628.077085	-83.252862
628.208697	-86.056743
628.340364	-88.929266
628.472087	-88.947366
628.603865	-88.845173
628.735698	-90.316071
628.867586	-90.977789
628.999530	-88.437291
629.131529	-86.950159
629.263584	-87.339806
629.395694	-87.607426
629.527859	-85.792650
629.660080	-84.041771
629.792357	-84.716901
629.924689	-88.942998
630.057077	-109.231602
630.189520	-90.763875
630.322019	-86.038430
630.454574	-84.524716
630.587184	-84.187026
630.719851	-84.293594
630.852573	-82.811392
630.985351	-82.021222
631.118185	-83.355703
631.251075	-85.873289
631.384021	-87.909833
631.517023	-87.593690
631.650081	-86.142021
631.783195	-84.591879
631.916365	-82.980990
632.049592	-81.495868
632.182874	-81.416657
632.316213	-82.790652
632.449608	-84.986670
632.583059	-86.623298
632.716567	-84.579433
632.850131	-82.775331
632.983751	-83.073752
633.117428	-86.055876
633.251161	-91.098694
633.384951	-93.723052
633.518797	-94.490367
633.652700	-93.552987
633.786660	-88.469488
633.920676	-85.417619
634.054749	-84.121320
634.188879	-84.546937
634.323065	-83.907534
634.457308	-81.671857
634.591608	-80.297859
634.725965	-80.564832
634.860379	-82.726014
634.994850	-85.652049
635.129377	-90.360141
635.263962	-100.262774
635.398604	-108.662200
635.533303	-94.826340
635.668058	-87.694111
635.802872	-83.871600
635.937742	-83.709746
636.072669	-85.850399
636.207654	-85.275001
636.342696	-84.131007
636.477796	-84.500265
636.612953	-84.816260
636.748167	-84.905566
636.883439	-86.173797
637.018768	-84.826553
637.154155	-83.379033
637.289599	-84.886582
637.425101	-91.007642
637.560660	-115.247393
637.696277	-94.336455
637.831952	-89.121768
637.967685	-85.528372
638.103475	-83.753885
638.239324	-82.104757
638.375230	-81.462418
638.511194	-82.460097
638.647215	-84.805686
638.783295	-87.271730
638.919433	-87.402531
639.055629	-89.436910
639.191883	-93.804672
639.328195	-91.690479
639.464565	-86.426049
639.600994	-83.601646
639.737481	-82.372851
639.874025	-81.860201
640.010629	-81.128525
640.147290	-79.866070
640.284010	-79.752742
640.420789	-80.399358
640.557625	-80.652911
640.694521	-81.241904
640.831474	-81.843689
640.968487	-83.399272
641.105558	-86.596243
641.242687	-87.513391
641.379876	-85.472683
641.517123	-84.713239
641.654429	-84.932299
641.791793	-85.203609
641.929216	-85.827399
642.066699	-87.312884
642.204240	-90.523438
642.341840	-88.971661
642.479499	-85.514381
642.617217	-84.260455
642.754994	-85.371658
642.892830	-89.713729
643.030726	-92.335690
643.168680	-85.816821
643.306694	-83.517321
643.444767	-83.824587
643.582899	-85.136681
643.721091	-85.766052
643.859342	-86.508868
643.997652	-87.590810
644.136022	-85.581306
644.274451	-82.359378
644.412940	-80.352488
644.551488	-79.584987
644.690096	-79.234274
644.828763	-78.634521
644.967490	-78.654236
645.106277	-80.198945
645.245124	-84.388141
645.384030	-95.877891
645.522997	-90.370161
645.662023	-86.105240
645.801109	-84.997141
645.940255	-86.499073
646.079460	-91.876089
646.218726	-100.537769
646.358052	-96.803968
646.497438	-88.708242
646.636884	-83.970140
646.776391	-81.510761
646.915957	-81.691080
647.055584	-84.025382
647.195271	-89.441763
647.335019	-94.731533
647.474826	-94.544265
647.614695	-99.833155
647.754623	-92.837476
647.894612	-89.063702
648.034662	-87.748702
648.174772	-87.979094
648.314943	-87.488453
648.455174	-85.997782
648.595466	-87.372563
648.735819	-92.117555
648.876233	-103.572397
649.016707	-88.467563
649.157242	-84.556306
649.297838	-83.005644
649.438495	-83.557492
649.579213	-85.858237
649.719992	-89.084948
649.860832	-92.730139
650.001733	-90.266481
650.142695	-89.507125
650.283718	-87.408847
650.424803	-86.107106
650.565949	-85.778064
650.707156	-86.919132
650.848424	-89.743804
650.989754	-89.562714
651.131145	-87.639140
651.272597	-87.110478
651.414111	-88.369393
651.555687	-89.971055
651.697324	-89.433949
651.839022	-86.438937
651.980782	-83.088179
652.122604	-80.438289
652.264488	-79.232800
652.406433	-79.243300
652.548441	-80.066871
652.690510	-81.935349
652.832640	-83.888386
652.974833	-86.915473
653.117088	-92.176068
653.259405	-91.291735
653.401784	-85.930151
653.544224	-84.950834
653.686727	-85.799433
653.829293	-89.593580
653.971920	-97.481236
654.114609	-97.250304
654.257361	-90.414896
654.400175	-87.783047
654.543052	-87.732903
654.685991	-91.844379
654.828992	-98.763340
654.972056	-89.053350
655.115183	-84.261629
655.258372	-82.572874
655.401623	-83.961406
655.544937	-90.378315
655.688314	-99.618157
655.831754	-86.243647
655.975256	-82.992179
656.118822	-83.359892
656.262450	-84.877385
656.406141	-87.270952
656.549894	-90.588570
656.693711	-88.957583
656.837591	-85.439839
656.981534	-83.726533
657.125540	-82.848509
657.269610	-82.207693
657.413742	-81.831829
657.557938	-81.385781
657.702196	-80.665531
657.846519	-79.344869
657.990904	-77.574430
658.135353	-76.014585
658.279866	-75.616321
658.424441	-76.491049
658.569081	-77.961701
658.713784	-79.650022
658.858550	-80.703580
659.003381	-81.917508
659.148274	-84.704294
659.293232	-88.621535
659.438253	-87.891615
659.583339	-82.482151
659.728488	-79.988506
659.873701	-79.068007
660.018978	-79.138973
660.164318	-80.252857
660.309723	-81.669544
660.455192	-83.062764
660.600725	-83.897990
660.746323	-85.603939
660.891984	-88.190977
661.037710	-89.799073
661.183500	-86.237839
661.329354	-82.895119
661.475272	-81.636735
661.621255	-82.124766
661.767303	-83.796840
661.913415	-84.669524
662.059591	-84.201567
662.205833	-83.355070
662.352138	-82.616109
662.498509	-82.832661
662.644944	-84.468745
662.791443	-87.821732
662.938008	-92.151989
663.084638	-94.364636
663.231332	-94.981439
663.378091	-92.917617
663.524915	-90.681133
663.671804	-90.806309
663.818759	-93.109905
663.965778	-101.181824
664.112863	-101.401179
664.260012	-95.647066
664.407227	-91.341222
664.554507	-87.049958
664.701853	-85.299420
664.849264	-86.068482
664.996740	-85.775264
665.144282	-82.027018
665.291889	-79.397104
665.439561	-79.159701
665.587300	-80.978589
665.735103	-84.436973
665.882973	-87.086995
666.030908	-85.606482
666.178909	-84.142662
666.326976	-84.770376
666.475109	-87.663536
666.623307	-87.397433
666.771571	-82.870660
666.919902	-79.857126
667.068298	-79.402184
667.216761	-81.045046
667.365289	-84.882168
667.513884	-90.829651
667.662545	-91.795115
667.811272	-86.170746
667.960065	-81.365123
668.108925	-79.337075
668.257851	-80.564512
668.406843	-85.069948
668.555902	-92.886179
668.705027	-96.014193
668.854219	-92.891590
669.003478	-84.681641
669.152803	-82.335759
669.302195	-84.119703
669.451653	-93.319936
669.601179	-92.536789
669.750771	-85.914766
669.900430	-85.921307
670.050156	-90.910712
670.199949	-90.630469
670.349808	-84.981185
670.499735	-83.522083
670.649729	-83.754075
670.799790	-81.885460
670.949918	-79.297079
671.100114	-79.396981
671.250377	-81.735354
671.400707	-85.275033
671.551104	-89.681232
671.701569	-88.527371
671.852101	-82.508442
672.002700	-80.658223
672.153368	-83.333708
672.304102	-84.883751
672.454905	-79.098707
672.605775	-76.873214
672.756713	-77.636321
672.907718	-81.165676
673.058791	-85.634549
673.209933	-86.747846
673.361142	-84.487204
673.512419	-80.892558
673.663764	-78.931282
673.815177	-79.755518
673.966658	-83.044258
674.118207	-82.700701
674.269825	-79.655890
674.421510	-79.963957
674.573264	-85.416387
674.725086	-99.462374
674.876977	-86.936934
675.028936	-91.597468
675.180963	-82.711793
675.333059	-77.209052
675.485224	-76.258209
675.637457	-79.325498
675.789758	-88.206672
675.942129	-103.721404
676.094568	-97.650648
676.247075	-82.975062
676.399652	-78.449769
676.552298	-78.507615
676.705012	-84.480331
676.857795	-90.674567
677.010648	-81.079382
677.163569	-80.083398
677.316560	-82.328350
677.469619	-83.923499
677.622748	-83.627768
677.775946	-82.962512
677.929214	-78.846647
678.082551	-75.430049
678.235957	-74.567003
678.389432	-75.191500
678.542977	-74.815649
678.696592	-73.204481
678.850276	-72.853761
679.004030	-74.620462
679.157853	-77.978434
679.311746	-79.645325
679.465709	-77.002467
679.619742	-74.041147
679.773844	-72.803085
679.928017	-73.939369
680.082259	-76.242159
680.236571	-75.768500
680.390954	-74.980759
680.545406	-77.356052
680.699929	-85.665334
680.854522	-90.451998
681.009185	-89.775644
681.163918	-93.482432
681.318722	-81.530918
681.473596	-79.629258
681.628540	-82.665121
681.783555	-83.785916
681.938641	-79.308446
682.093797	-78.799453
682.249023	-82.120262
682.404321	-90.504437
682.559689	-94.143742
682.715128	-88.123996
682.870637	-80.824848
683.026218	-77.286473
683.181869	-76.857910
683.337591	-78.369317
683.493385	-79.005310
683.649249	-78.234545
683.805185	-80.438999
683.961191	-87.477653
684.117269	-81.968157
684.273418	-79.716498
684.429639	-82.487777
684.585930	-82.407216
684.742294	-78.962238
684.898728	-80.709795
685.055234	-87.790655
685.211812	-83.900523
685.368461	-84.860814
685.525182	-89.767125
685.681975	-79.124315
685.838839	-76.534781
685.995775	-78.203851
686.152783	-79.101407
686.309863	-76.372692
686.467014	-75.703648
686.624238	-77.260123
686.781534	-79.209279
686.938902	-79.397776
687.096342	-77.426000
687.253854	-74.902498
687.411438	-73.825081
687.569095	-74.753373
687.726824	-77.165288
687.884626	-78.569035
688.042499	-78.487963
688.200446	-80.695744
688.358465	-87.608562
688.516556	-106.973636
688.674720	-97.511622
688.832957	-82.993741
688.991266	-76.651353
689.149649	-74.524450
689.308104	-74.723736
689.466632	-74.391381
689.625233	-72.901208
689.783906	-72.890850
689.942653	-75.544270
690.101473	-80.251649
690.260367	-81.591287
690.419333	-76.725857
690.578372	-72.534938
690.737485	-71.174325
690.896672	-72.315745
691.055931	-73.048441
691.215264	-71.657416
691.374671	-72.287378
691.534151	-77.203851
691.693704	-87.577792
691.853332	-84.156998
692.013033	-88.889123
692.172807	-81.054038
692.332656	-77.779842
692.492578	-79.712780
692.652575	-76.801347
692.812645	-72.982794
692.972789	-73.161311
693.133007	-77.593770
693.293300	-87.278347
693.453666	-96.093889
693.614107	-79.744613
693.774622	-73.111337
693.935211	-71.060528
694.095875	-71.962630
694.256613	-74.155480
694.417426	-74.315299
694.578313	-75.400680
694.739274	-81.215295
694.900311	-82.903144
695.061421	-79.330511
695.222607	-83.434581
695.383868	-79.333033
695.545203	-74.330545
695.706613	-74.433819
695.868098	-77.102825
696.029658	-76.361706
696.191293	-77.207195
696.353003	-89.967820
696.514789	-79.374229
696.676649	-75.112766
696.838585	-75.524813
697.000596	-72.822982
697.162682	-70.109929
697.324844	-70.582086
697.487081	-73.488761
697.649394	-74.022762
697.811782	-75.259363
697.974246	-86.886843
698.136786	-77.435975
698.299401	-73.437409
698.462092	-74.081612
698.624859	-71.626482
698.787702	-69.248935
698.950621	-70.784582
699.113616	-74.745318
699.276686	-73.681439
699.439833	-75.272361
699.603056	-89.051867
699.766355	-74.571965
699.929731	-72.541993
700.093183	-75.304349
700.256711	-72.383540
700.420315	-70.468018
700.583996	-73.031757
700.747754	-71.662385
700.911588	-68.321313
701.075499	-69.274351
701.239486	-73.054159
701.403550	-72.487231
701.567691	-73.799976
701.731909	-85.138764
701.896203	-73.748192
702.060575	-71.312280
702.225024	-72.173543
702.389549	-68.901452
702.554152	-67.179999
702.718832	-69.482523
702.883589	-73.174824
703.048424	-71.688301
703.213335	-73.375384
703.378324	-72.280538
703.543391	-67.763466
703.708535	-67.721294
703.873757	-71.754681
704.039056	-71.999077
704.204433	-71.139988
704.369887	-73.260769
704.535420	-69.649303
704.701030	-68.194212
704.866718	-71.868046
705.032484	-73.068248
705.198328	-68.997910
705.364250	-69.648026
705.530250	-69.953761
705.696328	-68.036679
705.862485	-70.215323
706.028720	-76.051927
706.195033	-70.325242
706.361424	-69.547101
706.527894	-69.509025
706.694442	-65.776587
706.861069	-64.652949
707.027775	-66.034702
707.194559	-66.224211
707.361422	-66.454614
707.528363	-71.620021
707.695384	-79.644693
707.862483	-70.522626
708.029661	-68.999128
708.196918	-65.918748
708.364254	-63.705634
708.531670	-64.563218
708.699164	-66.778090
708.866738	-66.662186
709.034391	-68.728019
709.202123	-77.026290
709.369935	-70.792350
709.537826	-68.566121
709.705796	-67.483106
709.873847	-64.561809
710.041976	-64.244435
710.210186	-66.723998
710.378475	-66.576060
710.546844	-65.641616
710.715292	-67.830439
710.883821	-68.020949
711.052429	-67.066257
711.221118	-69.573551
711.389887	-67.821384
711.558735	-65.210419
711.727664	-66.366295
711.896673	-66.991941
712.065763	-65.613257
712.234932	-67.422519
712.404183	-68.310271
712.573513	-65.961068
712.742924	-67.095109
712.912416	-67.064660
713.081988	-64.159487
713.251641	-64.247537
713.421375	-65.331786
713.591190	-64.538586
713.761085	-66.156283
713.931061	-69.711240
714.101119	-66.621547
714.271257	-66.187838
714.441476	-66.361986
714.611777	-63.828352
714.782159	-63.864437
714.952622	-65.400589
715.123166	-64.160496
715.293792	-64.705519
715.464499	-67.348843
715.635288	-65.867717
715.806158	-65.928354
715.977110	-67.658735
716.148143	-65.369699
716.319259	-64.784928
716.490456	-64.675170
716.661735	-62.331844
716.833096	-62.164608
717.004538	-64.455043
717.176063	-65.360130
717.347670	-66.593443
717.519359	-68.193078
717.691130	-64.604549
717.862984	-63.875866
718.034920	-64.886646
718.206938	-63.328018
718.379039	-63.090373
718.551222	-64.475147
718.723488	-63.930860
718.895836	-64.598706
719.068267	-66.696156
719.240781	-64.010090
719.413377	-63.156444
719.586057	-64.526025
719.758819	-64.050826
719.931664	-64.654869
720.104593	-65.922047
720.277604	-63.049738
720.450699	-62.308024
720.623876	-63.610938
720.797137	-62.986368
720.970482	-63.343585
721.143910	-65.461743
721.317421	-64.125075
721.491016	-64.278623
721.664694	-66.556647
721.838456	-64.134734
722.012302	-63.243342
722.186231	-63.764776
722.360244	-61.876434
722.534342	-61.878100
722.708523	-63.975919
722.882788	-63.032572
723.057137	-63.388097
723.231570	-65.536827
723.406088	-62.936438
723.580689	-62.529379
723.755375	-64.010677
723.930146	-62.598292
724.105000	-63.627252
724.279940	-66.680533
724.454963	-63.466322
724.630072	-63.374175
724.805265	-64.015297
724.980543	-61.599239
725.155905	-62.143307
725.331353	-63.185475
725.506885	-61.483074
725.682503	-63.289592
725.858205	-67.247140
726.033993	-64.681269
726.209865	-65.220385
726.385823	-62.803354
726.561866	-60.195695
726.737995	-61.248533
726.914209	-62.418304
727.090508	-62.143202
727.266893	-65.815036
727.443364	-67.202377
727.619920	-63.418231
727.796562	-63.415452
727.973290	-61.307713
728.150103	-60.303405
728.327003	-63.361985
728.503988	-64.551017
728.681060	-63.550400
728.858218	-65.538986
729.035461	-62.800480
729.212791	-62.237854
729.390208	-64.438268
729.567710	-61.777099
729.745299	-61.359462
729.922975	-63.450672
730.100737	-63.063730
730.278586	-65.717849
730.456521	-68.258317
730.634543	-62.605808
730.812652	-61.963746
730.990848	-61.113828
731.169130	-59.703924
731.347500	-61.548125
731.525957	-64.046639
731.704500	-64.378845
731.883131	-69.755284
732.061850	-65.796282
732.240655	-62.731649
732.419548	-62.581121
732.598528	-60.687283
732.777596	-61.018175
732.956751	-64.009347
733.135994	-63.732876
733.315325	-65.044691
733.494744	-66.267992
733.674250	-63.250869
733.853844	-63.879507
734.033526	-63.793900
734.213296	-62.956176
734.393154	-65.633370
734.573101	-64.163691
734.753135	-62.531241
734.933258	-63.310871
735.113469	-62.479047
735.293769	-63.854869
735.474157	-66.948136
735.654633	-64.404701
735.835198	-64.131370
736.015852	-63.422072
736.196594	-62.544732
736.377426	-64.620811
736.558346	-65.900030
736.739355	-65.305495
736.920453	-66.752775
737.101640	-64.879487
737.282916	-64.287538
737.464282	-65.732786
737.645736	-64.022401
737.827280	-63.759408
738.008914	-64.002831
738.190637	-62.659252
738.372449	-64.359041
738.554351	-69.228199
738.736342	-69.250275
738.918424	-70.374347
739.100595	-64.196777
739.282855	-61.935565
739.465206	-63.148159
739.647647	-62.368202
739.830178	-63.120136
740.012799	-69.670966
740.195510	-69.660919
740.378311	-72.087041
740.561203	-65.590899
740.744185	-62.031507
740.927258	-64.021733
741.110421	-65.053235
741.293674	-65.772917
741.477018	-75.591440
741.660453	-67.267208
741.843979	-67.322874
742.027596	-68.780843
742.211303	-64.858370
742.395102	-67.039207
742.578991	-66.655021
742.762972	-65.246257
742.947044	-71.620290
743.131207	-70.236914
743.315461	-69.152823
743.499807	-71.716138
743.684244	-67.142856
743.868773	-68.527474
744.053394	-67.686220
744.238106	-64.691561
744.422910	-66.996354
744.607805	-74.340957
744.792793	-85.913337
744.977872	-71.911582
745.163044	-64.908403
745.348307	-64.211687
745.533663	-66.196628
745.719111	-67.059228
745.904651	-71.137943
746.090283	-86.128268
746.276008	-72.264088
746.461826	-74.655426
746.647735	-71.550048
746.833738	-70.853470
747.019833	-77.912246
747.206021	-71.158367
747.392302	-71.622649
747.578676	-84.734049
747.765143	-83.434307
747.951703	-81.711691
748.138356	-70.766560
748.325102	-70.564350
748.511941	-75.622915
748.698874	-72.075146
748.885900	-73.397655
749.073019	-85.576609
749.260232	-79.578236
749.447539	-73.592007
749.634939	-71.895243
749.822433	-75.180355
750.010021	-74.314346
750.197703	-73.458707
750.385479	-77.318656
750.573348	-80.611147
750.761312	-89.836505
750.949370	-80.619631
751.137523	-93.609148
751.325769	-77.520133
751.514110	-75.575275
751.702545	-80.011683
751.891075	-74.552634
752.079700	-75.108670
752.268419	-73.802562
752.457233	-74.564308
752.646142	-99.666405
752.835145	-74.163557
753.024244	-71.057222
753.213437	-68.227794
753.402726	-69.099013
753.592110	-75.020456
753.781589	-73.073892
753.971163	-72.205926
754.160833	-69.118469
754.350598	-69.578474
754.540459	-72.372796
754.730415	-69.933402
754.920467	-69.516140
755.110615	-67.405738
755.300858	-67.232214
755.491198	-68.436567
755.681633	-69.730301
755.872164	-70.892878
756.062792	-68.239072
756.253515	-65.507051
756.444335	-64.286532
756.635252	-64.778999
756.826264	-66.382554
757.017373	-69.450624
757.208579	-69.161698
757.399881	-64.715431
757.591280	-63.338861
757.782776	-61.666077
757.974368	-62.900771
758.166058	-66.692431
758.357844	-66.141231
758.549728	-65.543151
758.741708	-61.702646
758.933786	-62.325010
759.125961	-64.614906
759.318233	-63.504337
759.510603	-63.979557
759.703071	-60.745588
759.895635	-61.517474
760.088298	-64.091074
760.281058	-64.036324
760.473916	-64.972025
760.666872	-60.408842
760.859926	-59.809908
761.053078	-59.079658
761.246328	-59.077430
761.439676	-62.411416
761.633122	-64.131532
761.826667	-64.331656
762.020310	-60.273674
762.214052	-58.669452
762.407892	-58.996746
762.601831	-59.560419
762.795868	-60.600223
762.990004	-59.839208
763.184239	-59.618685
763.378573	-59.872654
763.573006	-60.701169
763.767538	-60.418424
763.962169	-59.037777
764.156900	-58.269788
764.351729	-57.471862
764.546658	-58.634976
764.741687	-59.707780
764.936815	-60.978861
765.132042	-59.387781
765.327370	-56.985257
765.522797	-56.590912
765.718324	-56.543367
765.913950	-58.177619
766.109677	-58.720758
766.305504	-57.984569
766.501431	-58.016957
766.697458	-57.647518
766.893586	-58.153049
767.089814	-57.053505
767.286142	-56.504793
767.482571	-56.177164
767.679100	-56.302883
767.875730	-56.827966
768.072461	-57.241213
768.269293	-57.466994
768.466225	-56.549206
768.663259	-55.907501
768.860393	-55.441451
769.057629	-56.353620
769.254966	-56.749135
769.452404	-56.478931
769.649944	-56.036339
769.847585	-55.247762
770.045328	-55.656311
770.243172	-54.791703
770.441118	-55.050257
770.639166	-55.163142
770.837315	-55.277793
771.035567	-55.718541
771.233920	-55.066880
771.432376	-56.033307
771.630934	-55.717237
771.829594	-54.986199
772.028356	-53.867912
772.227220	-53.140161
772.426188	-54.022972
772.625257	-54.493561
772.824430	-55.174076
773.023705	-54.936747
773.223083	-54.565338
773.422563	-54.551658
773.622147	-54.268422
773.821834	-54.175052
774.021624	-53.673066
774.221517	-52.930524
774.421513	-52.894677
774.621613	-53.435377
774.821816	-54.473594
775.022122	-54.665959
775.222532	-53.405214
775.423046	-53.082534
775.623664	-53.016393
775.824385	-53.809619
776.025211	-53.946210
776.226140	-53.498844
776.427173	-53.215458
776.628311	-52.202359
776.829553	-51.946952
777.030899	-51.724677
777.232350	-52.590318
777.433905	-53.622454
777.635564	-53.557247
777.837328	-53.211249
778.039197	-52.663793
778.241171	-52.948671
778.443250	-52.760752
778.645433	-52.260895
778.847722	-51.642228
779.050116	-51.221900
779.252615	-51.497474
779.455219	-52.283012
779.657929	-53.028273
779.860744	-52.848057
780.063665	-51.858719
780.266691	-51.773370
780.469823	-52.276956
780.673061	-52.442897
780.876405	-51.571802
781.079855	-50.713411
781.283410	-51.313429
781.487072	-52.184312
781.690840	-52.475215
781.894715	-51.255889
782.098695	-50.612152
782.302783	-50.935366
782.506976	-51.650529
782.711277	-52.711691
782.915684	-52.502527
783.120198	-51.716315
783.324818	-50.177481
783.529546	-49.702449
783.734381	-50.019519
783.939322	-51.262060
784.144372	-52.084755
784.349528	-51.688149
784.554792	-51.233990
784.760163	-51.057370
784.965642	-51.418723
785.171228	-51.050010
785.376922	-50.660450
785.582724	-49.865250
785.788634	-49.970846
785.994651	-50.498961
786.200777	-51.192308
786.407011	-50.844228
786.613353	-50.042578
786.819804	-50.466873
787.026363	-51.471987
787.233030	-52.105072
787.439806	-50.350556
787.646691	-49.280634
787.853684	-49.226696
788.060786	-50.009405
788.267997	-50.960606
788.475317	-50.714525
788.682746	-50.399297
788.890285	-49.623250
789.097932	-49.873067
789.305689	-50.762021
789.513555	-51.618120
789.721531	-50.800369
789.929617	-49.201637
790.137812	-49.053439
790.346117	-49.336018
790.554531	-50.101271
790.763056	-49.773517
790.971691	-49.922906
791.180436	-50.622635
791.389291	-50.942671
791.598256	-50.906942
791.807332	-49.801376
792.016518	-49.399153
792.225815	-48.523554
792.435222	-48.897476
792.644740	-49.707393
792.854369	-50.630968
793.064109	-50.333280
793.273960	-49.471977
793.483922	-50.090047
793.693995	-50.497779
793.904180	-50.634685
794.114475	-48.901591
794.324882	-48.456391
794.535401	-48.571402
794.746031	-49.689541
794.956774	-50.685689
795.167627	-50.105377
795.378593	-49.403247
795.589671	-48.808391
795.800861	-49.990908
796.012162	-50.505602
796.223577	-50.369285
796.435103	-48.726242
796.646742	-48.306863
796.858493	-48.528523
797.070357	-49.346956
797.282334	-50.439065
797.494423	-50.337722
797.706626	-49.888528
797.918941	-48.990831
798.131369	-49.588321
798.343911	-49.703101
798.556566	-49.433299
798.769334	-48.238383
798.982215	-48.435813
799.195210	-49.504208
799.408319	-50.349991
799.621541	-49.967003
799.834877	-49.310360
800.048327	-49.588079
800.261890	-49.602414
800.475568	-49.817649
800.689360	-49.017041
800.903266	-48.488907
801.117287	-47.783014
801.331422	-48.866986
801.545671	-50.788264
801.760036	-51.863300
801.974514	-49.281316
802.189108	-48.237983
802.403816	-48.528962
802.618640	-49.603117
802.833578	-49.401592
803.048632	-48.671433
803.263800	-48.849948
803.479085	-49.343688
803.694484	-50.412786
803.909999	-50.332133
804.125630	-50.164452
804.341376	-48.641624
804.557239	-48.513753
804.773217	-48.629264
804.989311	-49.862100
805.205521	-49.442802
805.421847	-49.336570
805.638290	-49.448396
805.854849	-50.295114
806.071524	-50.159662
806.288316	-49.209969
806.505225	-48.659525
806.722250	-48.509840
806.939393	-49.771478
807.156652	-50.047826
807.374028	-49.900975
807.591521	-48.491788
807.809132	-49.349812
808.026859	-50.240733
808.244705	-51.219551
808.462667	-49.018826
808.680748	-48.504601
808.898946	-48.423196
809.117261	-49.862858
809.335695	-50.526364
809.554246	-50.360188
809.772916	-49.171165
809.991704	-48.862673
810.210610	-49.773387
810.429634	-50.404755
810.648777	-49.959849
810.868039	-48.930961
811.087419	-49.689187
811.306918	-50.077280
811.526535	-50.145756
811.746272	-49.055531
811.966127	-49.567603
812.186102	-49.599634
812.406196	-50.493192
812.626409	-50.343390
812.846742	-50.283075
813.067194	-48.716379
813.287766	-48.846245
813.508457	-50.085115
813.729269	-51.681522
813.950200	-49.837378
814.171251	-48.802372
814.392422	-49.301302
814.613714	-51.008210
814.835126	-50.982679
815.056658	-49.833859
815.278311	-48.984284
815.500084	-49.272536
815.721978	-50.406535
815.943993	-51.401338
816.166128	-50.241822
816.388385	-49.228811
816.610762	-49.637083
816.833261	-51.248573
817.055881	-50.917072
817.278623	-49.602492
817.501486	-49.166551
817.724471	-50.047396
817.947577	-50.857298
818.170805	-50.917623
818.394155	-50.135020
818.617627	-49.796929
818.841221	-50.442385
819.064937	-51.538208
819.288775	-50.451361
819.512736	-48.774841
819.736819	-48.877312
819.961025	-50.918439
820.185354	-52.894231
820.409805	-50.706388
820.634379	-48.979918
820.859076	-48.962367
821.083897	-50.927781
821.308840	-52.066973
821.533907	-50.512704
821.759097	-48.526722
821.984411	-49.248964
822.209848	-51.611369
822.435409	-53.021649
822.661093	-49.666481
822.886902	-48.857451
823.112834	-49.824293
823.338891	-52.141291
823.565072	-50.777387
823.791377	-49.768364
824.017807	-49.396631
824.244361	-51.154346
824.471039	-52.051674
824.697843	-51.215129
824.924771	-48.911531
825.151824	-49.032683
825.379002	-50.754586
825.606306	-52.702684
825.833734	-49.715154
826.061288	-48.515727
826.288967	-49.409228
826.516772	-53.225550
826.744703	-52.411583
826.972759	-48.909844
827.200941	-47.356699
827.429249	-48.669430
827.657683	-52.250804
827.886243	-53.034059
828.114930	-49.068195
828.343743	-48.105751
828.572682	-49.864799
828.801748	-51.849944
829.030941	-50.180665
829.260260	-48.848702
829.489706	-49.172670
829.719280	-49.950178
829.948980	-50.824238
830.178808	-50.434122
830.408763	-49.545682
830.638845	-49.156246
830.869055	-50.559381
831.099393	-49.795784
831.329858	-48.288887
831.560451	-48.137269
831.791173	-51.014826
832.022022	-52.107653
832.252999	-49.438657
832.484105	-47.585584
832.715339	-47.951421
832.946702	-49.500444
833.178193	-51.238218
833.409813	-49.378451
833.641561	-47.602168
833.873439	-48.059210
834.105445	-50.246976
834.337581	-50.310488
834.569846	-48.163883
834.802241	-47.810169
835.034764	-47.927637
835.267418	-48.685931
835.500201	-49.276439
835.733114	-49.646787
835.966157	-48.031296
836.199329	-47.899498
836.432632	-48.035757
836.666065	-48.195354
836.899629	-47.386546
837.133323	-48.471386
837.367147	-48.885935
837.601102	-48.379598
837.835188	-47.315966
838.069405	-47.166334
838.303752	-46.920571
838.538231	-47.866427
838.772841	-48.694747
839.007582	-47.599033
839.242455	-46.532138
839.477459	-46.909336
839.712595	-48.052670
839.947863	-47.207947
840.183263	-46.649066
840.418794	-46.095253
840.654458	-46.726986
840.890254	-47.289744
841.126182	-47.817815
841.362242	-45.995683
841.598435	-45.678557
841.834761	-46.250184
842.071220	-47.005831
842.307811	-45.869098
842.544536	-45.681821
842.781393	-46.298788
843.018384	-46.888799
843.255508	-46.201614
843.492765	-44.951278
843.730156	-44.639620
843.967681	-45.801799
844.205339	-47.310093
844.443132	-45.353060
844.681058	-44.090662
844.919118	-44.721326
845.157313	-46.540352
845.395642	-45.712380
845.634105	-44.445331
845.872703	-44.080628
846.111436	-45.002373
846.350303	-46.044182
846.589306	-45.068170
846.828443	-43.521942
847.067716	-43.701660
847.307124	-45.636800
847.546667	-45.147137
847.786345	-43.331198
848.026160	-43.314635
848.266110	-44.917681
848.506195	-45.271478
848.746417	-43.977008
848.986775	-43.057024
849.227269	-43.012835
849.467899	-44.255098
849.708666	-44.754979
849.949569	-43.441871
850.190609	-42.777009
850.431785	-43.801966
850.673099	-44.011382
850.914549	-42.871063
851.156137	-42.648654
851.397861	-43.316612
851.639723	-43.723642
851.881723	-43.212752
852.123860	-42.726665
852.366135	-42.252352
852.608547	-42.699880
852.851098	-43.030656
853.093786	-42.831250
853.336613	-42.443747
853.579578	-42.305264
853.822681	-42.246976
854.065923	-42.428060
854.309304	-42.595036
854.552823	-41.716530
854.796481	-41.635166
855.040278	-42.267997
855.284215	-42.486680
855.528290	-41.778834
855.772505	-41.572371
856.016859	-41.433557
856.261353	-41.418909
856.505987	-41.996902
856.750760	-41.731829
856.995673	-41.059312
857.240727	-41.287324
857.485920	-41.969843
857.731254	-41.071574
857.976729	-40.542794
858.222343	-41.113892
858.468099	-41.569316
858.713995	-41.371288
858.960032	-40.848677
859.206211	-40.308648
859.452530	-40.466228
859.698991	-41.441602
859.945593	-40.991606
860.192336	-40.017582
860.439222	-40.408982
860.686248	-41.089303
860.933417	-40.454530
861.180728	-39.950328
861.428181	-40.230356
861.675776	-40.504387
861.923514	-40.381900
862.171394	-40.058677
862.419417	-39.802064
862.667582	-40.041306
862.915890	-40.249477
863.164342	-39.866430
863.412936	-39.664622
863.661674	-39.612603
863.910555	-39.683931
864.159579	-39.926942
864.408747	-39.847992
864.658059	-39.211333
864.907515	-39.171212
865.157114	-39.660880
865.406858	-39.418030
865.656746	-39.271127
865.906778	-39.253989
866.156955	-39.047348
866.407277	-39.195307
866.657743	-39.391434
866.908354	-38.615282
867.159110	-38.376944
867.410011	-39.545950
867.661057	-39.430417
867.912249	-38.273214
868.163586	-38.163100
868.415069	-38.730836
868.666697	-38.944483
868.918472	-38.820432
869.170392	-38.357769
869.422458	-37.968946
869.674671	-38.579399
869.927030	-38.693251
870.179536	-37.951705
870.432188	-37.947955
870.684987	-38.452832
870.937933	-38.506564
871.191026	-37.985350
871.444266	-37.559611
871.697653	-37.661178
871.951188	-38.404050
872.204870	-38.248696
872.458700	-37.428884
872.712677	-37.579992
872.966803	-37.836611
873.221076	-37.563597
873.475498	-37.606224
873.730068	-37.742090
873.984787	-37.363803
874.239654	-37.351004
874.494669	-37.602058
874.749834	-37.266610
875.005147	-37.112781
875.260610	-37.234413
875.516222	-37.362522
875.771983	-37.355156
876.027894	-36.874748
876.283954	-36.686360
876.540164	-37.194415
876.796524	-37.236408
877.053033	-36.669001
877.309693	-36.772997
877.566503	-36.907144
877.823464	-36.680067
878.080575	-36.798340
878.337837	-36.562609
878.595249	-36.337781
878.852813	-36.859710
879.110528	-36.850880
879.368393	-36.088171
879.626410	-36.195404
879.884579	-36.675282
880.142899	-36.339041
880.401371	-36.247531
880.659994	-36.313887
880.918770	-36.137605
881.177698	-36.203523
881.436778	-36.101392
881.696010	-36.002577
881.955395	-36.116393
882.214933	-36.000633
882.474623	-35.940658
882.734467	-36.049615
882.994463	-35.703789
883.254613	-35.482806
883.514916	-36.043757
883.775372	-36.077722
884.035982	-35.584110
884.296746	-35.524636
884.557664	-35.379545
884.818735	-35.664623
885.079961	-35.990068
885.341341	-35.331839
885.602876	-35.247531
885.864565	-35.697686
886.126409	-35.333032
886.388407	-35.106820
886.650561	-35.536160
886.912870	-35.482481
887.175334	-35.159703
887.437953	-35.201749
887.700728	-35.046748
887.963658	-35.092914
888.226745	-35.329635
888.489987	-35.057156
888.753385	-35.020621
889.016940	-34.991394
889.280651	-34.743538
889.544518	-35.013396
889.808543	-35.031365
890.072723	-34.746956
890.337061	-34.871920
890.601556	-34.766031
890.866208	-34.608741
891.131017	-34.743448
891.395984	-34.646121
891.661109	-34.668376
891.926391	-34.764484
892.191831	-34.356881
892.457429	-34.350854
892.723186	-34.719847
892.989100	-34.417588
893.255173	-34.341016
893.521405	-34.550222
893.787796	-34.177258
894.054345	-34.198559
894.321053	-34.452276
894.587921	-34.187876
894.854948	-34.259032
895.122134	-34.238535
895.389480	-33.882464
895.656986	-34.141179
895.924651	-34.306975
896.192477	-33.976113
896.460463	-33.988523
896.728609	-33.990424
896.996915	-33.878818
897.265382	-33.960011
897.534010	-33.905075
897.802799	-33.935775
898.071749	-33.917378
898.340860	-33.548114
898.610132	-33.682972
898.879566	-33.980730
899.149162	-33.620973
899.418919	-33.626399
899.688838	-33.784580
899.958919	-33.413395
900.229162	-33.457628
900.499568	-33.712694
900.770136	-33.568109
901.040867	-33.433594
901.311761	-33.310534
901.582817	-33.413967
901.854037	-33.494310
902.125420	-33.204163
902.396966	-33.384554
902.668676	-33.456169
902.940550	-33.001403
903.212587	-33.194651
903.484788	-33.337666
903.757153	-33.107014
904.029683	-33.296009
904.302377	-32.966309
904.575236	-32.760760
904.848259	-33.330267
905.121447	-33.079236
905.394800	-32.779217
905.668319	-33.069420
905.942002	-32.756923
906.215852	-32.756762
906.489866	-33.072789
906.764047	-32.710767
907.038393	-32.721632
907.312906	-32.811894
907.587584	-32.539957
907.862429	-32.723175
908.137441	-32.680308
908.412619	-32.515827
908.687964	-32.750035
908.963476	-32.445393
909.239155	-32.291215
909.515002	-32.731030
909.791015	-32.599744
910.067197	-32.260113
910.343546	-32.280879
910.620063	-32.418934
910.896748	-32.460932
911.173601	-32.251005
911.450623	-32.295607
911.727813	-32.289325
912.005171	-31.965517
912.282699	-32.263961
912.560395	-32.384810
912.838261	-31.881025
913.116296	-32.037145
913.394500	-32.129391
913.672874	-31.877472
913.951418	-32.050946
914.230131	-31.970157
914.509015	-31.850079
914.788068	-31.885297
915.067292	-31.751002
915.346687	-31.992835
915.626252	-31.914684
915.905988	-31.593617
916.185895	-31.876250
916.465973	-31.735819
916.746223	-31.642381
917.026644	-31.997143
917.307236	-31.588355
917.588000	-31.535971
917.868937	-31.882211
918.150045	-31.546661
918.431325	-31.633620
918.712778	-31.776353
918.994404	-31.431383
919.276202	-31.496202
919.558173	-31.599359
919.840317	-31.584472
920.122634	-31.508071
920.405125	-31.357719
920.687789	-31.483970
920.970627	-31.367532
921.253639	-31.397476
921.536824	-31.606922
921.820184	-31.121854
922.103718	-31.179191
922.387427	-31.562824
922.671310	-31.216047
922.955368	-31.254542
923.239601	-31.263664
923.524009	-31.079945
923.808592	-31.280740
924.093351	-31.149358
924.378285	-31.180100
924.663396	-31.156747
924.948682	-30.822106
925.234144	-31.206340
925.519782	-31.154798
925.805597	-30.762355
926.091589	-31.079517
926.377757	-30.874237
926.664102	-30.748347
926.950624	-31.065712
927.237323	-30.776515
927.524200	-30.654066
927.811255	-30.735709
928.098487	-30.733191
928.385897	-30.742786
928.673485	-30.531046
928.961251	-30.604499
929.249196	-30.580571
929.537319	-30.442125
929.825621	-30.682857
930.114102	-30.471566
930.402762	-30.324176
930.691601	-30.495323
930.980620	-30.370969
931.269818	-30.472631
931.559196	-30.416298
931.848753	-30.215342
932.138491	-30.308713
932.428409	-30.352312
932.718508	-30.462918
933.008787	-30.157935
933.299246	-30.038136
933.589887	-30.422643
933.880709	-30.102336
934.171712	-30.154892
934.462896	-30.253909
934.754262	-29.713183
935.045810	-30.172727
935.337539	-30.288830
935.629451	-29.682217
935.921545	-29.912215
936.213822	-29.917680
936.506281	-29.827805
936.798922	-29.888674
937.091747	-29.691846
937.384755	-29.700487
937.677946	-29.588875
937.971321	-29.776744
938.264879	-29.807915
938.558621	-29.291810
938.852547	-29.589909
939.146657	-29.728603
939.440952	-29.355710
939.735431	-29.568679
940.030095	-29.501415
940.324943	-29.275076
940.619977	-29.496695
940.915196	-29.617917
941.210600	-29.282438
941.506189	-29.204325
941.801965	-29.568514
942.097926	-29.333837
942.394074	-29.281607
942.690407	-29.455680
942.986927	-29.078254
943.283634	-29.369700
943.580527	-29.491092
943.877608	-29.105210
944.174875	-29.251830
944.472330	-29.176079
944.769972	-29.310119
945.067802	-29.276887
945.365820	-28.987107
945.664026	-29.240593
945.962420	-29.077457
946.261002	-29.186565
946.559773	-29.216567
946.858733	-28.793141
947.157881	-29.188153
947.457219	-29.063980
947.756746	-28.912397
948.056462	-29.133802
948.356368	-28.725636
948.656464	-29.010502
948.956749	-29.059512
949.257225	-28.715735
949.557891	-28.980625
949.858748	-28.748792
950.159796	-28.786428
950.461034	-29.007366
950.762463	-28.645789
951.064084	-28.681096
951.365896	-28.854958
951.667900	-28.726747
951.970095	-28.691138
952.272483	-28.735889
952.575063	-28.561340
952.877835	-28.693835
953.180799	-28.806056
953.483956	-28.420099
953.787307	-28.647938
954.090850	-28.680313
954.394586	-28.483017
954.698516	-28.717937
955.002640	-28.399238
955.306957	-28.517864
955.611469	-28.666076
955.916174	-28.378699
956.221074	-28.533369
956.526169	-28.379273
956.831458	-28.504475
957.136942	-28.519216
957.442622	-28.249758
957.748496	-28.457406
958.054567	-28.309059
958.360833	-28.407511
958.667294	-28.367688
958.973952	-28.112210
959.280806	-28.383694
959.587857	-28.297155
959.895104	-28.235996
960.202548	-28.134858
960.510189	-28.150313
960.818027	-28.313921
961.126062	-28.037837
961.434295	-28.171085
961.742726	-28.064581
962.051355	-28.013410
962.360182	-28.287823
962.669207	-27.884412
962.978431	-27.959828
963.287854	-28.174731
963.597475	-27.891556
963.907296	-27.969525
964.217315	-28.013661
964.527535	-27.829624
964.837954	-27.997397
965.148573	-27.996311
965.459392	-27.687239
965.770411	-27.976736
966.081630	-27.903321
966.393051	-27.728504
966.704672	-27.958240
967.016494	-27.641320
967.328517	-27.882480
967.640742	-27.860302
967.953169	-27.585594
968.265797	-27.874198
968.578627	-27.593015
968.891660	-27.812060
969.204895	-27.725980
969.518332	-27.462330
969.831972	-27.872366
970.145816	-27.559880
970.459862	-27.617280
970.774112	-27.642840
971.088565	-27.484052
971.403223	-27.742054
971.718084	-27.489946
972.033149	-27.493994
972.348419	-27.615328
972.663893	-27.540361
972.979572	-27.511051
973.295456	-27.483304
973.611546	-27.488155
973.927840	-27.510719
974.244340	-27.563111
974.561046	-27.325265
974.877958	-27.519228
975.195076	-27.555593
975.512401	-27.296518
975.829932	-27.545233
976.147670	-27.363879
976.465615	-27.403064
976.783767	-27.525113
977.102126	-27.253277
977.420693	-27.398850
977.739468	-27.473750
978.058451	-27.279020
978.377642	-27.289814
978.697041	-27.398423
979.016649	-27.234486
979.336466	-27.314126
979.656492	-27.284481
979.976727	-27.115907
980.297171	-27.349611
980.617825	-27.166307
980.938689	-27.074328
981.259763	-27.204737
981.581048	-27.133371
981.902542	-27.074536
982.224248	-27.060383
982.546164	-27.049887
982.868291	-27.024412
983.190630	-27.057226
983.513180	-26.876440
983.835942	-27.010191
984.158916	-26.976005
984.482101	-26.856730
984.805500	-26.952479
985.129110	-26.778384
985.452934	-27.010341
985.776970	-26.758448
986.101220	-26.745001
986.425683	-26.956887
986.750359	-26.660943
987.075250	-26.823360
987.400354	-26.720843
987.725673	-26.708677
988.051206	-26.731918
988.376954	-26.685309
988.702916	-26.579775
989.029094	-26.684745
989.355487	-26.709018
989.682095	-26.359931
990.008919	-26.789232
990.335959	-26.443346
990.663216	-26.455251
990.990688	-26.660673
991.318377	-26.226854
991.646283	-26.663200
991.974406	-26.336996
992.302746	-26.301044
992.631304	-26.503690
992.960079	-26.259897
993.289072	-26.357934
993.618283	-26.251776
993.947713	-26.323339
994.277361	-26.266623
994.607227	-26.199801
994.937313	-26.239889
995.267618	-26.204488
995.598142	-26.212862
995.928886	-26.139901
996.259849	-26.132646
996.591033	-26.228149
996.922437	-26.077267
997.254061	-26.084759
997.585906	-26.165004
997.917972	-26.049435
998.250260	-26.105020
998.582768	-25.990364
998.915498	-26.135800
999.248450	-25.993763
999.581624	-25.986117
999.915020	-26.047278
1000.248639	-25.932365
1000.582480	-26.070144
1000.916545	-25.799631
1001.250832	-26.063195
1001.585343	-25.894491
1001.920077	-25.855998
1002.255035	-25.940071
1002.590218	-25.817035
1002.925624	-25.957479
1003.261255	-25.696095
1003.597111	-25.947157
1003.933192	-25.752975
1004.269497	-25.785036
1004.606029	-25.810031
1004.942785	-25.672709
1005.279768	-25.859796
1005.616977	-25.617758
1005.954412	-25.693794
1006.292074	-25.770317
1006.629962	-25.571272
1006.968077	-25.609328
1007.306420	-25.716133
1007.644990	-25.442735
1007.983787	-25.666245
1008.322813	-25.470489
1008.662067	-25.451979
1009.001549	-25.607387
1009.341259	-25.258203
1009.681199	-25.502781
1010.021367	-25.392798
1010.361765	-25.243981
1010.702392	-25.350595
1011.043250	-25.315853
1011.384337	-25.108165
1011.725654	-25.337379
1012.067202	-25.055106
1012.408980	-25.149678
1012.750989	-25.187395
1013.093230	-24.856098
1013.435702	-25.259179
1013.778405	-24.840676
1014.121341	-24.985680
1014.464508	-24.983097
1014.807908	-24.834359
1015.151540	-24.916468
1015.495405	-24.815235
1015.839503	-24.826684
1016.183835	-24.804807
1016.528400	-24.731588
1016.873198	-24.754736
1017.218231	-24.754938
1017.563498	-24.625964
1017.908999	-24.739620
1018.254735	-24.608407
1018.600707	-24.687832
1018.946913	-24.532886
1019.293354	-24.686248
1019.640032	-24.519159
1019.986945	-24.575106
1020.334094	-24.546545
1020.681480	-24.507337
1021.029102	-24.558236
1021.376961	-24.386148
1021.725058	-24.624951
1022.073391	-24.317392
1022.421962	-24.552314
1022.770772	-24.350601
1023.119819	-24.476927
1023.469104	-24.355363
1023.818628	-24.388037
1024.168391	-24.407917
1024.518393	-24.293451
1024.868634	-24.392619
1025.219115	-24.265838
1025.569836	-24.384885
1025.920796	-24.184261
1026.271997	-24.363796
1026.623438	-24.197992
1026.975121	-24.234877
1027.327044	-24.205893
1027.679208	-24.202512
1028.031614	-24.137055
1028.384262	-24.147678
1028.737152	-24.110810
1029.090284	-24.093366
1029.443659	-24.031801
1029.797276	-24.045046
1030.151137	-24.012925
1030.505240	-23.942129
1030.859587	-23.951533
1031.214178	-23.926619
1031.569013	-23.842474
1031.924093	-23.856619
1032.279417	-23.823514
1032.634985	-23.746158
1032.990799	-23.785215
1033.346858	-23.634559
1033.703162	-23.785548
1034.059712	-23.478485
1034.416509	-23.756405
1034.773551	-23.447317
1035.130841	-23.590453
1035.488377	-23.462279
1035.846160	-23.457154
1036.204190	-23.431539
1036.562468	-23.337835
1036.920994	-23.415754
1037.279768	-23.241619
1037.638790	-23.343857
1037.998061	-23.176521
1038.357581	-23.293268
1038.717350	-23.078223
1039.077368	-23.241184
1039.437636	-23.052852
1039.798154	-23.113624
1040.158922	-23.037690
1040.519940	-23.034696
1040.881209	-22.990473
1041.242729	-22.952997
1041.604501	-22.986391
1041.966524	-22.870044
1042.328798	-22.906843
1042.691325	-22.895816
1043.054103	-22.774853
1043.417135	-22.916560
1043.780419	-22.691799
1044.143956	-22.911540
1044.507746	-22.619272
1044.871791	-22.853434
1045.236088	-22.654783
1045.600641	-22.706613
1045.965447	-22.720998
1046.330508	-22.593876
1046.695824	-22.727423
1047.061395	-22.522066
1047.427222	-22.729073
1047.793304	-22.459133
1048.159642	-22.695561
1048.526237	-22.441216
1048.893088	-22.628925
1049.260196	-22.404934
1049.627561	-22.598884
1049.995183	-22.379578
1050.363063	-22.515132
1050.731201	-22.390409
1051.099597	-22.420099
1051.468251	-22.360490
1051.837164	-22.407435
1052.206336	-22.267901
1052.575767	-22.398366
1052.945458	-22.178057
1053.315409	-22.389109
1053.685619	-22.081551
1054.056090	-22.355104
1054.426821	-22.058714
1054.797814	-22.197384
1055.169067	-22.126064
1055.540582	-21.997002
1055.912359	-22.190283
1056.284398	-21.845457
1056.656698	-22.210827
1057.029262	-21.719299
1057.402088	-22.167522
1057.775177	-21.688400
1058.148530	-22.025260
1058.522146	-21.723174
1058.896027	-21.859300
1059.270171	-21.736628
1059.644580	-21.713446
1060.019254	-21.758791
1060.394193	-21.571288
1060.769397	-21.752044
1061.144867	-21.480105
1061.520602	-21.672350
1061.896604	-21.443272
1062.272872	-21.595917
1062.649407	-21.386733
1063.026210	-21.528392
1063.403279	-21.332715
1063.780616	-21.454657
1064.158221	-21.294532
1064.536094	-21.411061
1064.914235	-21.224266
1065.292645	-21.365103
1065.671325	-21.188836
1066.050273	-21.292192
1066.429491	-21.188911
1066.808979	-21.223570
1067.188738	-21.155672
1067.568766	-21.166772
1067.949066	-21.142269
1068.329636	-21.106639
1068.710478	-21.127804
1069.091592	-21.060415
1069.472977	-21.066359
1069.854635	-21.045793
1070.236565	-21.026593
1070.618768	-21.005575
1071.001243	-20.998776
1071.383993	-20.956093
1071.767016	-20.951967
1072.150313	-20.948266
1072.533884	-20.909559
1072.917730	-20.911652
1073.301850	-20.872733
1073.686246	-20.868123
1074.070917	-20.839736
1074.455864	-20.852681
1074.841087	-20.786370
1075.226586	-20.808246
1075.612362	-20.736971
1075.998415	-20.761397
1076.384745	-20.702050
1076.771353	-20.711799
1077.158238	-20.628092
1077.545401	-20.648069
1077.932843	-20.572314
1078.320564	-20.581099
1078.708564	-20.527765
1079.096842	-20.488749
1079.485401	-20.452919
1079.874240	-20.422468
1080.263358	-20.391484
1080.652757	-20.358352
1081.042438	-20.322899
1081.432399	-20.268113
1081.822641	-20.264299
1082.213166	-20.216253
1082.603972	-20.198463
1082.995061	-20.157315
1083.386433	-20.116340
1083.778087	-20.097741
1084.170025	-20.062786
1084.562246	-20.050901
1084.954751	-19.979912
1085.347541	-19.992584
1085.740615	-19.902764
1086.133973	-19.949849
1086.527617	-19.844607
1086.921546	-19.881876
1087.315761	-19.771199
1087.710262	-19.828147
1088.105050	-19.723748
1088.500124	-19.782077
1088.895485	-19.669977
1089.291134	-19.720304
1089.687070	-19.639517
1090.083294	-19.692233
1090.479806	-19.614796
1090.876607	-19.655857
1091.273696	-19.583664
1091.671075	-19.639988
1092.068744	-19.587482
1092.466702	-19.620927
1092.864950	-19.567382
1093.263489	-19.601620
1093.662319	-19.558951
1094.061440	-19.604315
1094.460852	-19.538294
1094.860555	-19.565429
1095.260551	-19.513475
1095.660840	-19.543021
1096.061421	-19.488889
1096.462295	-19.504030
1096.863462	-19.420131
1097.264923	-19.464114
1097.666678	-19.375036
1098.068727	-19.424113
1098.471071	-19.303292
1098.873710	-19.359621
1099.276644	-19.239989
1099.679874	-19.328513
1100.083400	-19.177846
1100.487222	-19.266270
1100.891340	-19.111554
1101.295756	-19.221467
1101.700468	-19.080887
1102.105478	-19.163816
1102.510787	-19.021087
1102.916393	-19.104252
1103.322298	-18.991187
1103.728502	-19.054425
1104.135005	-18.939725
1104.541807	-18.965164
1104.948909	-18.894313
1105.356312	-18.900022
1105.764015	-18.837283
1106.172019	-18.798461
1106.580324	-18.751068
1106.988931	-18.710859
1107.397840	-18.684320
1107.807051	-18.600805
1108.216564	-18.580154
1108.626380	-18.492674
1109.036500	-18.498087
1109.446923	-18.408318
1109.857649	-18.385497
1110.268680	-18.316935
1110.680016	-18.297605
1111.091657	-18.266754
1111.503602	-18.215856
1111.915854	-18.203591
1112.328411	-18.146332
1112.741275	-18.189343
1113.154445	-18.106234
1113.567922	-18.166048
1113.981706	-18.068770
1114.395798	-18.165382
1114.810198	-18.082608
1115.224906	-18.154471
1115.639923	-18.087329
1116.055249	-18.140347
1116.470884	-18.128702
1116.886829	-18.130634
1117.303084	-18.142706
1117.719650	-18.097438
1118.136526	-18.167552
1118.553713	-18.076859
1118.971212	-18.157424
1119.389022	-18.023909
1119.807145	-18.124202
1120.225580	-17.999601
1120.644328	-18.055761
1121.063389	-17.945808
1121.482763	-17.952412
1121.902452	-17.913711
1122.322454	-17.851239
1122.742771	-17.847814
1123.163404	-17.728336
1123.584351	-17.787240
1124.005614	-17.641551
1124.427193	-17.705715
1124.849089	-17.541487
1125.271301	-17.620835
1125.693830	-17.490578
1126.116677	-17.536174
1126.539842	-17.429897
1126.963324	-17.449683
1127.387126	-17.402992
1127.811246	-17.394187
1128.235685	-17.356491
1128.660444	-17.339463
1129.085522	-17.325031
1129.510922	-17.323049
1129.936641	-17.281690
1130.362682	-17.286515
1130.789044	-17.254629
1131.215728	-17.268846
1131.642734	-17.231031
1132.070063	-17.218029
1132.497714	-17.211014
1132.925689	-17.181345
1133.353987	-17.191673
1133.782610	-17.118441
1134.211556	-17.155069
1134.640827	-17.075493
1135.070424	-17.112697
1135.500345	-17.018138
1135.930593	-17.043242
1136.361166	-16.979832
1136.792067	-16.977279
1137.223294	-16.925546
1137.654848	-16.898148
1138.086730	-16.873205
1138.518940	-16.843497
1138.951479	-16.801983
1139.384346	-16.781205
1139.817543	-16.741576
1140.251069	-16.730459
1140.684925	-16.689936
1141.119111	-16.655935
1141.553628	-16.660810
1141.988475	-16.592470
1142.423655	-16.630081
1142.859166	-16.533552
1143.295009	-16.584865
1143.731185	-16.520741
1144.167694	-16.509503
1144.604536	-16.524056
1145.041711	-16.431645
1145.479221	-16.530217
1145.917065	-16.382892
1146.355245	-16.484248
1146.793759	-16.383305
1147.232609	-16.404338
1147.671795	-16.409205
1148.111317	-16.312232
1148.551177	-16.413690
1148.991373	-16.266977
1149.431907	-16.362496
1149.872779	-16.265876
1150.313989	-16.269319
1150.755538	-16.284526
1151.197426	-16.182149
1151.639653	-16.265731
1152.082220	-16.137733
1152.525128	-16.198002
1152.968376	-16.130404
1153.411966	-16.103792
1153.855897	-16.124758
1154.300169	-16.024624
1154.744784	-16.089009
1155.189742	-15.980965
1155.635042	-16.016646
1156.080687	-15.961264
1156.526674	-15.931650
1156.973007	-15.942773
1157.419683	-15.857733
1157.866705	-15.898325
1158.314072	-15.813873
1158.761786	-15.830969
1159.209845	-15.786979
1159.658251	-15.750276
1160.107004	-15.764014
1160.556104	-15.687428
1161.005553	-15.715180
1161.455349	-15.647906
1161.905494	-15.649516
1162.355989	-15.628937
1162.806832	-15.573943
1163.258026	-15.600609
1163.709570	-15.527886
1164.161464	-15.547421
1164.613710	-15.500986
1165.066307	-15.480136
1165.519256	-15.488334
1165.972558	-15.421451
1166.426212	-15.449337
1166.880219	-15.396329
1167.334580	-15.396681
1167.789295	-15.379317
1168.244364	-15.339419
1168.699788	-15.364182
1169.155567	-15.306303
1169.611702	-15.319068
1170.068193	-15.290739
1170.525041	-15.279030
1170.982245	-15.276760
1171.439807	-15.233272
1171.897726	-15.257114
1172.356004	-15.217072
1172.814640	-15.216221
1173.273635	-15.201963
1173.732989	-15.181867
1174.192703	-15.193238
1174.652778	-15.147868
1175.113213	-15.161879
1175.574009	-15.143820
1176.035167	-15.123587
1176.496687	-15.124798
1176.958569	-15.095756
1177.420814	-15.105572
1177.883422	-15.072307
1178.346394	-15.066809
1178.809730	-15.060949
1179.273430	-15.034663
1179.737496	-15.031415
1180.201927	-15.003180
1180.666723	-15.007236
1181.131886	-14.977275
1181.597416	-14.957727
1182.063312	-14.960206
1182.529576	-14.922497
1182.996209	-14.917260
1183.463209	-14.892539
1183.930579	-14.874425
1184.398317	-14.864882
1184.866426	-14.824061
1185.334904	-14.821461
1185.803754	-14.798263
1186.272974	-14.764842
1186.742566	-14.752359
1187.212529	-14.730233
1187.682865	-14.702248
1188.153574	-14.676743
1188.624656	-14.661004
1189.096112	-14.627503
1189.567942	-14.609039
1190.040147	-14.579437
1190.512726	-14.550516
1190.985681	-14.543510
1191.459012	-14.488859
1191.932720	-14.479569
1192.406804	-14.467087
1192.881265	-14.402798
1193.356104	-14.412264
1193.831322	-14.376867
1194.306918	-14.330166
1194.782893	-14.341240
1195.259248	-14.282709
1195.735982	-14.267753
1196.213097	-14.265809
1196.690593	-14.191740
1197.168471	-14.213995
1197.646730	-14.184093
1198.125371	-14.112457
1198.604395	-14.165359
1199.083803	-14.093148
1199.563594	-14.057507
1200.043769	-14.109171
1200.524329	-14.000653
1201.005273	-14.031876
1201.486604	-14.029499
1201.968320	-13.930267
1202.450422	-14.015029
1202.932912	-13.933017
1203.415789	-13.895789
1203.899054	-13.978381
1204.382707	-13.845653
1204.866748	-13.887227
1205.351179	-13.912203
1205.836000	-13.788268
1206.321211	-13.882396
1206.806812	-13.825412
1207.292805	-13.769708
1207.779189	-13.855256
1208.265965	-13.745066
1208.753134	-13.775532
1209.240696	-13.796978
1209.728651	-13.695226
1210.217000	-13.776888
1210.705744	-13.722881
1211.194883	-13.679363
1211.684417	-13.750595
1212.174347	-13.658779
1212.664673	-13.679953
1213.155396	-13.694164
1213.646516	-13.621238
1214.138034	-13.671682
1214.629951	-13.625487
1215.122266	-13.606895
1215.614980	-13.638196
1216.108095	-13.568033
1216.601609	-13.595272
1217.095524	-13.584750
1217.589841	-13.529297
1218.084559	-13.569396
1218.579679	-13.525240
1219.075202	-13.502846
1219.571128	-13.523562
1220.067458	-13.472280
1220.564191	-13.474282
1221.061330	-13.464434
1221.558874	-13.428620
1222.056823	-13.433108
1222.555178	-13.404348
1223.053940	-13.386951
1223.553109	-13.379424
1224.052686	-13.349727
1224.552671	-13.337895
1225.053065	-13.321410
1225.553867	-13.298258
1226.055079	-13.279819
1226.556702	-13.266400
1227.058735	-13.244043
1227.561179	-13.218484
1228.064035	-13.214137
1228.567303	-13.185249
1229.070983	-13.159168
1229.575077	-13.162470
1230.079585	-13.123026
1230.584506	-13.106770
1231.089842	-13.107123
1231.595594	-13.063781
1232.101761	-13.059277
1232.608345	-13.048953
1233.115345	-13.011264
1233.622762	-13.013816
1234.130597	-12.991396
1234.638851	-12.966766
1235.147523	-12.967856
1235.656615	-12.939307
1236.166126	-12.927663
1236.676058	-12.923387
1237.186411	-12.893901
1237.697185	-12.893162
1238.208381	-12.880805
1238.719999	-12.856373
1239.232040	-12.860866
1239.744505	-12.842564
1240.257394	-12.825627
1240.770708	-12.830648
1241.284446	-12.809990
1241.798610	-12.800215
1242.313201	-12.802689
1242.828218	-12.783522
1243.343662	-12.778051
1243.859534	-12.778330
1244.375834	-12.761958
1244.892563	-12.759119
1245.409721	-12.757704
1245.927309	-12.744389
1246.445327	-12.742951
1246.963777	-12.740178
1247.482657	-12.730077
1248.001970	-12.728997
1248.521716	-12.724913
1249.041894	-12.718283
1249.562506	-12.716682
1250.083553	-12.711615
1250.605034	-12.708448
1251.126950	-12.705001
1251.649302	-12.699810
1252.172091	-12.698931
1252.695316	-12.692796
1253.218979	-12.688558
1253.743079	-12.688650
1254.267619	-12.679880
1254.792597	-12.677104
1255.318015	-12.676817
1255.843874	-12.665260
1256.370173	-12.664251
1256.896913	-12.662137
1257.424095	-12.647842
1257.951720	-12.649064
1258.479787	-12.643387
1259.008298	-12.627796
1259.537254	-12.630223
1260.066654	-12.620593
1260.596499	-12.604040
1261.126790	-12.607324
1261.657527	-12.593071
1262.188711	-12.576717
1262.720342	-12.579661
1263.252422	-12.561375
1263.784950	-12.545458
1264.317928	-12.547553
1264.851355	-12.525594
1265.385232	-12.510519
1265.919560	-12.511031
1266.454340	-12.486529
1266.989572	-12.472157
1267.525256	-12.470992
1268.061394	-12.444783
1268.597985	-12.430900
1269.135031	-12.428216
1269.672531	-12.400895
1270.210487	-12.387478
1270.748899	-12.383589
1271.287768	-12.355911
1271.827094	-12.342804
1272.366877	-12.337677
1272.907119	-12.310493
1273.447820	-12.297024
1273.988981	-12.290816
1274.530601	-12.265058
1275.072683	-12.250388
1275.615226	-12.243679
1276.158230	-12.220140
1276.701697	-12.203316
1277.245627	-12.196717
1277.790021	-12.175874
1278.334879	-12.156102
1278.880202	-12.150161
1279.425991	-12.132649
1279.972245	-12.108845
1280.518966	-12.104962
1281.066155	-12.090276
1281.613811	-12.062377
1282.161936	-12.061185
1282.710529	-12.048781
1283.259593	-12.017355
1283.809126	-12.019400
1284.359131	-12.008373
1284.909607	-11.975543
1285.460555	-11.979990
1286.011976	-11.969835
1286.563870	-11.937855
1287.116237	-11.943175
1287.669080	-11.933694
1288.222397	-11.905228
1288.776191	-11.909026
1289.330460	-11.901337
1289.885207	-11.878331
1290.440431	-11.878071
1290.996133	-11.874172
1291.552314	-11.857004
1292.108975	-11.850866
1292.666115	-11.852797
1293.223737	-11.840470
1293.781839	-11.828132
1294.340424	-11.837151
1294.899491	-11.827916
1295.459041	-11.811094
1296.019075	-11.826479
1296.579593	-11.818665
1297.140597	-11.800627
1297.702086	-11.818849
1298.264061	-11.812495
1298.826524	-11.796439
1299.389474	-11.812456
1299.952912	-11.809323
1300.516839	-11.797565
1301.081255	-11.806406
1301.646162	-11.809499
1302.211559	-11.801860
1302.777448	-11.801036
1303.343829	-11.812468
1303.910702	-11.807059
1304.478069	-11.797957
1305.045930	-11.816507
1305.614285	-11.811349
1306.183136	-11.798663
1306.752483	-11.819333
1307.322326	-11.815064
1307.892666	-11.804041
1308.463504	-11.819345
1309.034841	-11.819282
1309.606677	-11.812278
1310.179012	-11.816557
1310.751849	-11.824341
1311.325186	-11.820444
1311.899025	-11.813432
1312.473366	-11.829272
1313.048211	-11.825650
1313.623559	-11.812921
1314.199412	-11.831149
1314.775770	-11.827332
1315.352634	-11.816028
1315.930004	-11.827696
1316.507881	-11.827111
1317.086266	-11.820448
1317.665159	-11.819300
1318.244562	-11.826086
1318.824474	-11.822038
1319.404897	-11.809683
1319.985831	-11.822939
1320.567276	-11.818472
1321.149234	-11.803022
1321.731706	-11.814641
1322.314691	-11.810690
1322.898190	-11.800068
1323.482205	-11.800146
1324.066736	-11.801429
1324.651783	-11.796815
1325.237347	-11.783070
1325.823430	-11.791183
1326.410031	-11.788410
1326.997151	-11.769734
1327.584791	-11.777784
1328.172952	-11.774616
1328.761634	-11.762212
1329.350839	-11.759456
1329.940566	-11.758506
1330.530817	-11.755353
1331.121592	-11.738984
1331.712891	-11.742613
1332.304716	-11.742557
1332.897068	-11.722848
1333.489946	-11.725315
1334.083352	-11.722550
1334.677287	-11.712394
1335.271750	-11.703972
1335.866744	-11.700446
1336.462268	-11.701051
1337.058323	-11.681653
1337.654910	-11.680424
1338.252029	-11.681413
1338.849682	-11.664236
1339.447869	-11.660243
1340.046591	-11.654768
1340.645848	-11.651186
1341.245641	-11.636994
1341.845972	-11.629491
1342.446840	-11.633411
1343.048246	-11.614248
1343.650191	-11.608675
1344.252677	-11.605657
1344.855702	-11.596696
1345.459269	-11.587046
1346.063379	-11.575534
1346.668030	-11.579204
1347.273226	-11.562349
1347.878965	-11.552348
1348.485250	-11.552298
1349.092080	-11.540187
1349.699456	-11.532689
1350.307380	-11.519570
1350.915851	-11.521314
1351.524871	-11.508806
1352.134441	-11.494289
1352.744560	-11.496080
1353.355231	-11.483712
1353.966453	-11.476886
1354.578227	-11.463411
1355.190555	-11.462679
1355.803436	-11.455179
1356.416872	-11.437773
1357.030863	-11.439327
1357.645411	-11.428474
1358.260515	-11.422849
1358.876177	-11.409281
1359.492397	-11.406235
1360.109176	-11.403448
1360.726516	-11.385312
1361.344416	-11.385567
1361.962877	-11.375914
1362.581901	-11.372794
1363.201487	-11.359566
1363.821637	-11.354116
1364.442352	-11.355201
1365.063632	-11.338644
1365.685478	-11.337606
1366.307891	-11.327923
1366.930871	-11.328419
1367.554420	-11.316230
1368.178538	-11.308646
1368.803226	-11.311469
1369.428485	-11.298815
1370.054315	-11.297507
1370.680717	-11.285977
1371.307693	-11.290509
1371.935242	-11.280165
1372.563366	-11.272576
1373.192065	-11.273420
1373.821341	-11.265598
1374.451193	-11.265794
1375.081623	-11.251235
1375.712632	-11.257887
1376.344221	-11.248906
1376.976389	-11.244691
1377.609139	-11.239568
1378.242470	-11.235930
1378.876384	-11.237725
1379.510881	-11.222679
1380.145963	-11.227579
1380.781629	-11.218296
1381.417881	-11.220982
1382.054720	-11.208846
1382.692147	-11.208468
1383.330161	-11.208171
1383.968765	-11.199318
1384.607959	-11.199456
1385.247743	-11.189192
1385.888119	-11.197201
1386.529087	-11.182745
1387.170648	-11.185427
1387.812804	-11.177797
1388.455554	-11.179794
1389.098899	-11.173755
1389.742842	-11.166227
1390.387381	-11.169758
1391.032519	-11.159912
1391.678256	-11.162941
1392.324592	-11.147887
1392.971529	-11.155272
1393.619068	-11.143687
1394.267208	-11.144027
1394.915952	-11.134560
1395.565300	-11.133803
1396.215253	-11.131470
1396.865812	-11.121232
1397.516977	-11.122238
1398.168749	-11.111423
1398.821130	-11.116784
1399.474120	-11.100517
1400.127719	-11.105195
1400.781930	-11.093394
1401.436752	-11.097146
1402.092186	-11.085877
1402.748234	-11.084621
1403.404897	-11.081681
1404.062174	-11.076398
1404.720067	-11.075781
1405.378577	-11.065020
1406.037705	-11.071142
1406.697451	-11.058415
1407.357817	-11.064095
1408.018803	-11.049795
1408.680410	-11.058062
1409.342639	-11.046453
1410.005492	-11.050510
1410.668968	-11.041346
1411.333068	-11.044315
1411.997795	-11.040746
1412.663147	-11.037310
1413.329127	-11.037101
1413.995736	-11.031556
1414.662973	-11.036800
1415.330840	-11.026336
1415.999339	-11.033486
1416.668469	-11.023306
1417.338232	-11.034288
1418.008628	-11.022639
1418.679659	-11.032855
1419.351325	-11.023907
1420.023628	-11.035080
1420.696568	-11.027141
1421.370145	-11.034526
1422.044362	-11.030291
1422.719219	-11.036917
1423.394717	-11.035507
1424.070856	-11.037859
1424.747638	-11.040975
1425.425064	-11.043419
1426.103134	-11.051066
1426.781850	-11.050530
1427.461212	-11.061870
1428.141221	-11.062110
1428.821878	-11.076844
1429.503185	-11.074368
1430.185141	-11.089581
1430.867749	-11.087174
1431.551008	-11.104001
1432.234920	-11.100037
1432.919486	-11.116083
1433.604707	-11.113699
1434.290583	-11.132318
1434.977116	-11.131944
1435.664307	-11.151022
1436.352156	-11.154115
1437.040664	-11.176066
1437.729833	-11.182383
1438.419663	-11.203337
1439.110156	-11.210731
1439.801312	-11.231295
1440.493132	-11.239410
1441.185617	-11.256432
1441.878768	-11.263088
1442.572586	-11.278447
1443.267072	-11.286680
1443.962228	-11.301324
1444.658053	-11.311290
1445.354549	-11.328222
1446.051717	-11.344148
1446.749558	-11.365221
1447.448073	-11.385542
1448.147263	-11.409871
1448.847128	-11.434727
1449.547671	-11.460992
1450.248891	-11.485421
1450.950789	-11.508585
1451.653368	-11.530164
1452.356627	-11.549632
1453.060568	-11.566297
1453.765192	-11.580152
1454.470500	-11.593203
1455.176492	-11.606638
1455.883170	-11.621013
1456.590534	-11.637309
1457.298586	-11.656264
1458.007327	-11.680902
1458.716758	-11.709174
1459.426880	-11.742951
1460.137693	-11.777673
1460.849199	-11.817477
1461.561398	-11.855720
1462.274293	-11.896272
1462.987883	-11.929107
1463.702170	-11.961247
1464.417155	-11.982557
1465.132838	-12.002927
1465.849222	-12.009461
1466.566306	-12.015812
1467.284093	-12.009338
1468.002582	-12.008505
1468.721775	-11.998071
1469.441674	-11.998418
1470.162278	-11.992205
1470.883590	-12.003342
1471.605609	-12.011296
1472.328338	-12.039741
1473.051777	-12.063746
1473.775928	-12.108335
1474.500790	-12.145944
1475.226367	-12.201247
1475.952657	-12.242521
1476.679663	-12.294700
1477.407386	-12.326069
1478.135826	-12.362521
1478.864985	-12.373217
1479.594863	-12.383753
1480.325463	-12.367840
1481.056784	-12.352055
1481.788828	-12.316597
1482.521597	-12.284894
1483.255090	-12.244117
1483.989309	-12.213266
1484.724256	-12.187831
1485.459931	-12.178742
1486.196336	-12.188184
1486.933471	-12.217325
1487.671337	-12.276225
1488.409937	-12.356316
1489.149270	-12.473155
1489.889337	-12.607871
1490.630141	-12.780667
1491.371682	-12.965358
1492.113961	-13.184298
1492.856979	-13.404931
1493.600738	-13.647834
1494.345238	-13.878785
1495.090481	-14.115385
1495.836467	-14.325912
1496.583198	-14.522066
1497.330675	-14.681103
1498.078899	-14.810789
1498.827872	-14.904826
1499.577593	-14.967163
1500.328065	-15.009205
1501.079289	-15.029191
1501.831265	-15.055551
1502.583995	-15.079841
1503.337480	-15.140546
1504.091721	-15.221246
1504.846719	-15.363861
1505.602475	-15.550231
1506.358991	-15.819892
1507.116268	-16.158621
1507.874306	-16.594903
1508.633108	-17.125680
1509.392673	-17.762068
1510.153004	-18.514491
1510.914101	-19.359238
1511.675965	-20.298059
1512.438599	-21.223182
1513.202002	-22.051059
1513.966176	-22.522278
1514.731122	-22.520290
1515.496842	-21.962787
1516.263336	-21.076558
1517.030607	-20.011062
1517.798654	-18.956474
1518.567479	-17.953064
1519.337083	-17.050727
1520.107468	-16.246960
1520.878634	-15.533713
1521.650584	-14.914996
1522.423317	-14.359316
1523.196836	-13.877308
1523.971141	-13.433526
1524.746233	-13.034200
1525.522115	-12.655594
1526.298786	-12.290490
1527.076249	-11.933353
1527.854504	-11.565605
1528.633553	-11.196685
1529.413397	-10.808367
1530.194037	-10.412899
1530.975474	-10.004002
1531.757709	-9.587210
1532.540745	-9.171759
1533.324581	-8.754894
1534.109220	-8.353722
1534.894662	-7.963725
1535.680909	-7.599683
1536.467961	-7.262663
1537.255821	-6.958181
1538.044489	-6.694682
1538.833967	-6.469267
1539.624256	-6.293959
1540.415357	-6.163783
1541.207271	-6.087227
1542.000000	-6.063596
1542.793545	-6.093660
1543.587907	-6.183711
1544.383087	-6.328000
1545.179088	-6.536228
1545.975909	-6.802325
1546.773552	-7.133053
1547.572019	-7.529571
1548.371311	-7.991371
1549.171428	-8.529451
1549.972373	-9.138083
1550.774147	-9.834168
1551.576751	-10.616469
1552.380185	-11.499137
1553.184453	-12.496048
1553.989554	-13.611041
1554.795490	-14.874344
1555.602263	-16.272171
1556.409873	-17.812961
1557.218322	-19.393826
1558.027612	-20.796459
1558.837743	-21.592370
1559.648717	-21.443620
1560.460536	-20.538029
1561.273200	-19.297630
1562.086710	-18.062877
1562.901069	-16.925763
1563.716278	-15.951436
1564.532337	-15.112081
1565.349249	-14.410340
1566.167014	-13.828416
1566.985634	-13.345581
1567.805111	-12.965645
1568.625444	-12.660479
1569.446637	-12.438573
1570.268690	-12.282915
1571.091605	-12.188810
1571.915382	-12.158641
1572.740024	-12.173473
1573.565532	-12.245182
1574.391907	-12.356325
1575.219150	-12.508917
1576.047262	-12.701955
1576.876246	-12.919397
1577.706103	-13.173791
1578.536833	-13.444442
1579.368439	-13.737380
1580.200922	-14.047747
1581.034282	-14.361269
1581.868522	-14.691438
1582.703643	-15.015795
1583.539646	-15.344377
1584.376532	-15.671998
1585.214304	-15.985746
1586.052962	-16.303047
1586.892508	-16.599422
1587.732943	-16.889239
1588.574269	-17.166031
1589.416487	-17.415906
1590.259599	-17.658245
1591.103605	-17.863285
1591.948508	-18.047963
1592.794309	-18.201819
1593.641009	-18.311993
1594.488609	-18.398431
1595.337112	-18.432959
1596.186518	-18.436925
1597.036829	-18.403539
1597.888047	-18.327443
1598.740172	-18.232309
1599.593207	-18.098308
1600.447153	-17.949124
1601.302010	-17.783916
1602.157782	-17.599557
1603.014469	-17.419552
1603.872072	-17.226421
1604.730593	-17.039683
1605.590034	-16.858262
1606.450397	-16.676183
1607.311681	-16.511906
1608.173890	-16.348909
1609.037024	-16.199336
1609.901085	-16.062798
1610.766075	-15.929958
1611.631995	-15.815057
1612.498846	-15.704328
1613.366630	-15.601857
1614.235349	-15.510890
1615.105004	-15.417960
1615.975596	-15.334339
1616.847128	-15.250553
1617.719600	-15.163561
1618.593014	-15.081200
1619.467372	-14.990007
1620.342675	-14.897766
1621.218924	-14.803399
1622.096122	-14.699122
1622.974270	-14.596386
1623.853369	-14.487273
1624.733420	-14.373949
1625.614427	-14.263874
1626.496389	-14.148472
1627.379308	-14.037059
1628.263187	-13.929511
1629.148026	-13.821783
1630.033828	-13.723578
1630.920593	-13.629123
1631.808324	-13.539697
1632.697022	-13.460440
1633.586688	-13.383810
1634.477324	-13.314708
1635.368932	-13.252717
1636.261514	-13.191696
1637.155070	-13.137830
1638.049602	-13.085817
1638.945113	-13.033512
1639.841603	-12.985517
1640.739075	-12.934666
1641.637529	-12.883321
1642.536968	-12.833143
1643.437393	-12.778638
1644.338806	-12.725001
1645.241209	-12.671417
1646.144602	-12.615097
1647.048988	-12.562027
1647.954368	-12.509391
1648.860744	-12.456969
1649.768118	-12.409712
1650.676491	-12.363225
1651.585865	-12.319515
1652.496241	-12.281226
1653.407621	-12.243345
1654.320008	-12.209371
1655.233401	-12.179047
1656.147804	-12.148203
1657.063218	-12.120734
1657.979645	-12.094387
1658.897085	-12.066744
1659.815542	-12.041737
1660.735016	-12.016241
1661.655509	-11.989753
1662.577023	-11.965934
1663.499560	-11.941264
1664.423121	-11.916927
1665.347709	-11.895654
1666.273324	-11.873900
1667.199969	-11.854008
1668.127645	-11.837287
1669.056353	-11.820628
1669.986097	-11.806908
1670.916877	-11.796008
1671.848695	-11.785080
1672.781553	-11.776873
1673.715452	-11.770150
1674.650395	-11.762840
1675.586383	-11.757706
1676.523418	-11.752894
1677.461501	-11.747374
1678.400635	-11.744085
1679.340821	-11.741037
1680.282061	-11.738078
1681.224357	-11.737894
1682.167710	-11.737927
1683.112122	-11.738608
1684.057595	-11.742120
1685.004132	-11.745512
1685.951732	-11.749663
1686.900400	-11.756357
1687.850135	-11.762527
1688.800940	-11.769450
1689.752818	-11.778432
1690.705768	-11.786408
1691.659795	-11.795007
1692.614898	-11.805393
1693.571081	-11.814702
1694.528345	-11.824771
1695.486691	-11.836617
1696.446122	-11.847567
1697.406640	-11.859388
1698.368245	-11.872989
1699.330941	-11.885545
1700.294729	-11.898683
1701.259611	-11.913279
1702.225588	-11.926519
1703.192664	-11.940084
1704.160838	-11.954972
1705.130114	-11.968541
1706.100493	-11.982501
1707.071977	-11.998094
1708.044568	-12.012639
1709.018268	-12.027665
1709.993079	-12.044502
1710.969003	-12.060332
1711.946041	-12.076296
1712.924196	-12.093937
1713.903469	-12.110475
1714.883862	-12.126712
1715.865378	-12.144572
1716.848017	-12.161601
1717.831783	-12.178213
1718.816677	-12.196682
1719.802701	-12.214854
1720.789857	-12.232390
1721.778147	-12.251557
1722.767573	-12.270628
1723.758136	-12.288736
1724.749840	-12.308146
1725.742685	-12.327779
1726.736673	-12.346247
1727.731808	-12.365697
1728.728090	-12.385630
1729.725521	-12.404438
1730.724105	-12.423967
1731.723842	-12.444229
1732.724735	-12.463472
1733.726785	-12.483158
1734.729995	-12.503964
1735.734366	-12.524159
1736.739902	-12.544715
1737.746603	-12.566617
1738.754472	-12.588057
1739.763510	-12.609290
1740.773721	-12.631736
1741.785105	-12.654044
1742.797665	-12.676023
1743.811403	-12.699333
1744.826321	-12.722940
1745.842422	-12.745836
1746.859706	-12.769437
1747.878177	-12.793299
1748.897835	-12.816035
1749.918685	-12.838964
1750.940726	-12.862473
1751.963963	-12.885106
1752.988395	-12.907637
1754.014027	-12.930929
1755.040860	-12.953490
1756.068895	-12.975168
1757.098135	-12.997168
1758.128583	-13.018477
1759.160240	-13.038411
1760.193109	-13.058581
1761.227191	-13.078971
1762.262488	-13.098503
1763.299004	-13.118252
1764.336740	-13.138763
1765.375697	-13.158456
1766.415880	-13.177594
1767.457288	-13.197449
1768.499926	-13.217064
1769.543794	-13.235904
1770.588895	-13.255456
1771.635231	-13.275651
1772.682805	-13.295200
1773.731619	-13.314997
1774.781674	-13.335857
1775.832973	-13.356446
1776.885519	-13.376658
1777.939312	-13.397875
1778.994357	-13.419469
1780.050654	-13.440195
1781.108207	-13.460958
1782.167017	-13.482257
1783.227087	-13.502859
1784.288418	-13.522960
1785.351013	-13.543874
1786.414875	-13.565070
1787.480006	-13.585643
1788.546407	-13.606403
1789.614082	-13.627517
1790.683032	-13.647771
1791.753259	-13.667300
1792.824767	-13.687077
1793.897557	-13.706633
1794.971632	-13.725437
1796.046994	-13.744370
1797.123645	-13.763790
1798.201588	-13.782891
1799.280824	-13.801704
1800.361357	-13.820771
1801.443188	-13.839473
1802.526320	-13.857212
1803.610756	-13.874636
1804.696497	-13.891943
1805.783546	-13.908479
1806.871906	-13.924361
1807.961578	-13.940288
1809.052565	-13.956043
1810.144870	-13.971366
1811.238494	-13.986718
1812.333441	-14.002170
1813.429713	-14.017114
1814.527311	-14.031519
1815.626239	-14.045846
1816.726499	-14.059905
1817.828094	-14.073446
1818.931025	-14.086969
1820.035295	-14.100781
1821.140906	-14.114476
1822.247862	-14.128002
1823.356165	-14.141676
1824.465816	-14.155172
1825.576819	-14.168049
1826.689175	-14.180550
1827.802888	-14.192911
1828.917960	-14.204793
1830.034394	-14.216231
1831.152191	-14.227698
1832.271354	-14.238970
1833.391887	-14.249464
1834.513790	-14.259371
1835.637068	-14.269090
1836.761722	-14.278335
1837.887755	-14.286824
1839.015169	-14.294923
1840.143968	-14.302653
1841.274153	-14.309412
1842.405727	-14.315218
1843.538693	-14.320875
1844.673053	-14.326680
1845.808810	-14.332344
1846.945966	-14.338066
1848.084525	-14.344171
1849.224488	-14.350191
1850.365858	-14.355478
1851.508638	-14.360340
1852.652831	-14.365264
1853.798438	-14.370037
1854.945463	-14.374455
1856.093909	-14.378939
1857.243777	-14.383581
1858.395071	-14.387720
1859.547794	-14.391078
1860.701947	-14.394052
1861.857533	-14.396843
1863.014556	-14.399191
1864.173018	-14.401050
1865.332922	-14.402634
1866.494270	-14.403675
1867.657065	-14.403782
1868.821309	-14.403272
1869.987006	-14.402780
1871.154158	-14.402293
1872.322768	-14.401258
1873.492839	-14.399454
1874.664373	-14.396970
1875.837373	-14.393716
1877.011841	-14.389675
1878.187782	-14.385210
1879.365197	-14.380644
1880.544089	-14.375693
1881.724460	-14.369942
1882.906315	-14.363522
1884.089655	-14.356715
1885.274483	-14.349550
1886.460803	-14.342015
1887.648616	-14.334271
1888.837927	-14.326395
1890.028736	-14.318284
1891.221049	-14.309958
1892.414866	-14.301557
1893.610192	-14.293128
1894.807028	-14.284501
1896.005379	-14.275581
1897.205246	-14.266357
1898.406633	-14.256703
1899.609542	-14.246564
1900.813977	-14.236254
1902.019940	-14.226204
1903.227434	-14.216433
1904.436462	-14.206691
1905.647028	-14.196943
1906.859133	-14.187252
1908.072781	-14.177589
1909.287976	-14.167939
1910.504719	-14.158350
1911.723013	-14.148930
1912.942863	-14.139621
1914.164270	-14.130146
1915.387238	-14.120349
1916.611770	-14.110272
1917.837868	-14.099843
1919.065536	-14.088928
1920.294777	-14.077563
1921.525594	-14.065822
1922.757989	-14.053740
1923.991967	-14.041275
1925.227529	-14.028451
1926.464679	-14.015313
1927.703420	-14.001907
1928.943755	-13.988263
1930.185688	-13.974567
1931.429221	-13.960899
1932.674356	-13.946947
1933.921099	-13.932350
1935.169451	-13.917025
1936.419415	-13.901305
1937.670996	-13.885675
1938.924195	-13.870297
1940.179017	-13.854871
1941.435463	-13.838999
1942.693538	-13.822504
1943.953245	-13.805673
1945.214586	-13.788975
1946.477566	-13.772835
1947.742186	-13.757333
1949.008451	-13.742102
1950.276363	-13.726663
1951.545926	-13.710958
1952.817143	-13.695303
1954.090017	-13.680075
1955.364551	-13.665394
1956.640749	-13.651145
1957.918615	-13.637092
1959.198150	-13.623055
1960.479359	-13.609073
1961.762244	-13.595441
1963.046810	-13.582412
1964.333059	-13.570006
1965.620995	-13.558022
1966.910621	-13.546287
1968.201940	-13.534810
1969.494956	-13.523722
1970.789672	-13.513189
1972.086091	-13.503255
1973.384217	-13.493643
1974.684053	-13.483868
1975.985602	-13.473616
1977.288869	-13.462969
1978.593855	-13.452444
1979.900566	-13.442461
1981.209003	-13.432896
1982.519171	-13.423220
1983.831073	-13.412870
1985.144712	-13.401954
1986.460093	-13.390961
1987.777217	-13.380218
1989.096089	-13.369512
1990.416713	-13.358406
1991.739092	-13.346632
1993.063228	-13.334444
1994.389127	-13.322266
1995.716791	-13.310343
1997.046223	-13.298605
1998.377428	-13.286984
1999.710409	-13.275542
2001.045169	-13.264352
2002.381713	-13.253383
2003.720043	-13.242523
2005.060163	-13.231789
2006.402077	-13.221232
2007.745788	-13.210999
2009.091301	-13.201329
2010.438618	-13.192424
2011.787743	-13.184246
2013.138680	-13.176305
2014.491433	-13.168154
2015.846005	-13.159922
2017.202399	-13.152095
2018.560621	-13.144822
2019.920673	-13.137860
2021.282558	-13.131199
2022.646281	-13.125192
2024.011846	-13.120167
2025.379256	-13.115930
2026.748515	-13.111973
2028.119626	-13.108076
2029.492594	-13.104493
2030.867422	-13.101595
2032.244114	-13.099365
2033.622673	-13.097274
2035.003104	-13.094593
2036.385411	-13.090942
2037.769597	-13.086681
2039.155665	-13.082495
2040.543621	-13.078780
2041.933467	-13.075258
2043.325208	-13.071389
2044.718847	-13.066955
2046.114389	-13.062234
2047.511837	-13.057746
2048.911195	-13.053607
2050.312467	-13.049299
2051.715657	-13.044235
2053.120769	-13.038442
2054.527807	-13.032653
2055.936775	-13.027648
2057.347677	-13.023404
2058.760516	-13.019330
2060.175297	-13.015222
2061.592025	-13.011571
2063.010701	-13.008868
2064.431332	-13.006947
2065.853921	-13.005027
2067.278472	-13.002713
2068.704988	-13.000583
2070.133475	-12.999526
2071.563936	-12.999804
2072.996375	-13.000878
2074.430796	-13.002254
2075.867204	-13.004191
2077.305603	-13.007380
2078.745996	-13.012154
2080.188389	-13.018232
2081.632784	-13.025117
2083.079187	-13.032681
2084.527601	-13.041124
2085.978030	-13.050414
2087.430480	-13.060102
2088.884954	-13.069388
2090.341455	-13.077459
2091.799990	-13.084257
2093.260561	-13.090152
2094.723173	-13.094882
2096.187831	-13.097447
2097.654538	-13.097514
2099.123300	-13.095756
2100.594119	-13.092821
2102.067001	-13.088745
2103.541950	-13.083046
2105.018971	-13.075992
2106.498067	-13.068863
2107.979243	-13.063113
2109.462503	-13.059390
2110.947853	-13.057798
2112.435295	-13.058872
2113.924836	-13.063501
2115.416478	-13.072432
2116.910227	-13.085997
2118.406087	-13.103975
2119.904063	-13.126039
2121.404158	-13.152098
2122.906378	-13.181860
2124.410727	-13.214368
2125.917210	-13.248534
2127.425831	-13.283733
2128.936594	-13.319482
2130.449505	-13.354873
2131.964567	-13.388568
2133.481786	-13.419816
2135.001166	-13.448735
2136.522711	-13.475773
2138.046427	-13.500821
2139.572317	-13.523008
2141.100388	-13.541578
2142.630642	-13.556441
2144.163085	-13.568407
2145.697722	-13.578688
2147.234558	-13.587465
2148.773596	-13.594167
2150.314842	-13.598882
2151.858301	-13.602457
2153.403977	-13.605887
2154.951875	-13.609692
2156.502000	-13.614088
2158.054357	-13.619671
2159.608950	-13.627016
2161.165785	-13.636290
2162.724866	-13.648108
2164.286198	-13.663433
2165.849786	-13.682202
2167.415635	-13.703559
2168.983749	-13.727325
2170.554134	-13.753937
2172.126795	-13.783218
2173.701737	-13.814595
2175.278964	-13.847434
2176.858481	-13.880497
2178.440294	-13.912834
2180.024408	-13.945009
2181.610827	-13.977831
2183.199557	-14.010647
2184.790602	-14.041820
2186.383968	-14.070494
2187.979660	-14.097430
2189.577683	-14.123859
2191.178041	-14.150206
2192.780741	-14.176232
2194.385787	-14.202214
2195.993185	-14.228731
2197.602939	-14.255966
2199.215054	-14.284495
2200.829537	-14.315573
2202.446392	-14.349737
2204.065624	-14.386102
2205.687239	-14.424063
2207.311242	-14.464530
2208.937638	-14.508005
2210.566433	-14.552643
2212.197631	-14.596321
2213.831239	-14.639863
2215.467261	-14.685283
2217.105703	-14.731953
2218.746570	-14.777688
2220.389867	-14.821868
2222.035601	-14.865167
2223.683776	-14.908332
2225.334398	-14.951690
2226.987472	-14.994371
2228.643004	-15.035347
2230.300999	-15.075080
2231.961463	-15.114084
2233.624402	-15.151755
2235.289820	-15.188255
2236.957723	-15.225459
2238.628118	-15.264107
2240.301009	-15.302744
2241.976402	-15.341186
2243.654303	-15.380651
2245.334717	-15.421085
2247.017650	-15.462026
2248.703108	-15.504471
2250.391096	-15.549571
2252.081620	-15.596982
2253.774686	-15.645971
2255.470300	-15.696410
2257.168467	-15.748732
2258.869193	-15.803177
2260.572484	-15.859250
2262.278345	-15.917449
2263.986783	-15.978605
2265.697804	-16.041388
2267.411412	-16.104960
2269.127615	-16.170918
2270.846417	-16.239689
2272.567826	-16.309249
2274.291846	-16.378271
2276.018484	-16.447741
2277.747745	-16.519095
2279.479637	-16.591388
2281.214164	-16.662599
2282.951333	-16.732469
2284.691149	-16.801527
2286.433619	-16.868988
2288.178750	-16.933362
2289.926546	-16.994990
2291.677014	-17.056130
2293.430161	-17.117042
2295.185992	-17.175365
2296.944513	-17.230617
2298.705732	-17.285588
2300.469653	-17.342777
2302.236283	-17.401573
2304.005629	-17.461343
2305.777696	-17.522761
2307.552492	-17.585665
2309.330022	-17.650814
2311.110292	-17.719723
2312.893310	-17.791558
2314.679080	-17.864494
2316.467611	-17.938642
2318.258907	-18.016498
2320.052976	-18.098291
2321.849824	-18.180920
2323.649457	-18.263748
2325.451883	-18.348435
2327.257106	-18.435416
2329.065135	-18.524416
2330.875975	-18.614970
2332.689633	-18.707213
2334.506116	-18.800077
2336.325430	-18.893232
2338.147581	-18.988368
2339.972578	-19.085520
2341.800425	-19.183210
2343.631130	-19.281321
2345.464700	-19.379125
2347.301141	-19.473945
2349.140461	-19.567037
2350.982665	-19.661628
2352.827760	-19.755189
2354.675754	-19.842669
2356.526653	-19.925719
2358.380464	-20.009172
2360.237195	-20.092396
2362.096851	-20.172037
2363.959440	-20.249778
2365.824968	-20.327691
2367.693444	-20.405623
2369.564873	-20.487788
2371.439263	-20.573106
2373.316620	-20.656983
2375.196953	-20.744098
2377.080267	-20.838629
2378.966570	-20.935470
2380.855869	-21.030658
2382.748171	-21.130479
2384.643484	-21.237609
2386.541815	-21.345769
2388.443170	-21.455356
2390.347557	-21.570486
2392.254984	-21.687587
2394.165457	-21.806297
2396.078984	-21.928518
2397.995572	-22.051635
2399.915229	-22.174906
2401.837961	-22.299471
2403.763777	-22.424193
2405.692684	-22.550825
2407.624689	-22.678714
2409.559800	-22.804131
2411.498023	-22.927351
2413.439368	-23.050759
2415.383840	-23.177426
2417.331449	-23.298295
2419.282201	-23.409174
2421.236104	-23.525829
2423.193165	-23.640639
2425.153393	-23.740339
2427.116795	-23.836563
2429.083378	-23.934223
2431.053151	-24.030112
2433.026121	-24.123974
2435.002297	-24.215602
2436.981685	-24.308845
2438.964293	-24.406644
2440.950131	-24.508345
2442.939204	-24.612784
2444.931522	-24.721793
2446.927092	-24.839246
2448.925923	-24.958825
2450.928022	-25.084299
2452.933397	-25.219805
2454.942056	-25.357547
2456.954008	-25.502700
2458.969260	-25.653232
2460.987821	-25.802888
2463.009699	-25.958758
2465.034902	-26.124504
2467.063437	-26.284831
2469.095315	-26.432607
2471.130542	-26.588125
2473.169127	-26.750720
2475.211078	-26.902919
2477.256404	-27.056523
2479.305112	-27.220812
2481.357212	-27.380886
2483.412713	-27.532694
2485.471621	-27.680833
2487.533946	-27.832050
2489.599696	-27.979796
2491.668880	-28.104714
2493.741507	-28.215143
2495.817585	-28.322282
2497.897122	-28.424630
2499.980127	-28.518757
2502.066609	-28.601393
2504.156578	-28.684021
2506.250040	-28.773705
2508.347006	-28.866159
2510.447483	-28.972213
2512.551482	-29.096483
2514.659010	-29.223313
2516.770076	-29.341434
2518.884690	-29.477653
2521.002861	-29.643091
2523.124597	-29.806778
2525.249907	-29.955776
2527.378801	-30.124661
2529.511287	-30.322230
2531.647375	-30.518374
2533.787074	-30.702241
2535.930393	-30.895199
2538.077340	-31.094524
2540.227927	-31.286646
2542.382160	-31.499339
2544.540051	-31.720759
2546.701608	-31.907407
2548.866840	-32.093289
2551.035757	-32.321866
2553.208369	-32.555405
2555.384684	-32.738878
2557.564713	-32.896711
2559.748465	-33.098680
2561.935948	-33.274679
2564.127174	-33.392711
2566.322152	-33.509499
2568.520890	-33.607006
2570.723399	-33.687015
2572.929689	-33.761201
2575.139769	-33.800869
2577.353649	-33.834272
2579.571340	-33.900353
2581.792849	-33.989767
2584.018189	-34.086669
2586.247368	-34.167749
2588.480396	-34.276639
2590.717284	-34.447195
2592.958041	-34.588879
2595.202678	-34.727466
2597.451204	-34.918943
2599.703630	-35.113992
2601.959966	-35.298240
2604.220222	-35.494309
2606.484408	-35.708324
2608.752535	-35.930812
2611.024612	-36.165625
2613.300651	-36.426537
2615.580661	-36.665818
2617.864653	-36.959897
2620.152638	-37.305941
2622.444625	-37.577850
2624.740626	-37.887139
2627.040651	-38.228160
2629.344710	-38.520062
2631.652814	-38.802746
2633.964974	-39.109963
2636.281200	-39.343511
2638.601504	-39.535424
2640.925896	-39.751998
2643.254386	-39.829301
2645.586987	-39.840159
2647.923707	-39.873538
2650.264559	-39.840950
2652.609554	-39.802873
2654.958702	-39.805634
2657.312015	-39.777001
2659.669503	-39.832611
2662.031178	-39.918634
2664.397051	-39.944352
2666.767132	-40.030629
2669.141434	-40.131246
2671.519968	-40.171197
2673.902745	-40.272290
2676.289776	-40.421495
2678.681072	-40.524022
2681.076646	-40.659638
2683.476508	-40.873778
2685.880671	-41.041780
2688.289145	-41.253139
2690.701942	-41.521846
2693.119075	-41.840424
2695.540554	-42.185911
2697.966391	-42.465245
2700.396599	-42.879694
2702.831189	-43.400682
2705.270172	-43.815076
2707.713561	-44.361307
2710.161368	-44.947759
2712.613605	-45.523877
2715.070283	-45.994649
2717.531416	-46.521245
2719.997014	-46.955984
2722.467090	-47.151125
2724.941657	-47.233444
2727.420726	-47.338307
2729.904310	-47.273719
2732.392421	-47.112253
2734.885072	-47.283096
2737.382275	-47.094026
2739.884042	-47.025839
2742.390387	-47.174185
2744.901321	-47.032704
2747.416857	-46.899387
2749.937008	-46.904199
2752.461787	-46.816969
2754.991206	-46.602293
2757.525279	-46.562176
2760.064017	-46.503383
2762.607434	-46.412056
2765.155544	-46.423692
2767.708358	-46.511534
2770.265890	-46.534637
2772.828153	-46.596022
2775.395160	-46.782964
2777.966924	-46.886539
2780.543459	-47.211013
2783.124778	-47.545140
2785.710894	-48.054201
2788.301821	-48.511927
2790.897572	-49.191329
2793.498160	-49.987819
2796.103599	-50.467464
2798.713903	-51.414948
2801.329085	-52.256545
2803.949159	-52.642296
2806.574139	-53.399229
2809.204038	-53.888291
2811.838871	-53.967756
2814.478650	-54.635674
2817.123391	-54.853587
2819.773107	-55.396717
2822.427812	-56.085124
2825.087521	-56.304762
2827.752247	-56.830166
2830.422005	-57.124587
2833.096808	-56.505007
2835.776672	-56.608500
2838.461611	-55.889486
2841.151638	-55.523550
2843.846769	-55.137331
2846.547019	-54.630014
2849.252401	-54.137341
2851.962930	-53.661020
2854.678621	-53.151736
2857.399489	-52.939127
2860.125549	-52.587079
2862.856815	-52.438730
2865.593302	-52.645142
2868.335026	-52.665719
2871.082002	-53.058863
2873.834244	-53.461367
2876.591767	-53.888260
2879.354588	-54.575165
2882.122721	-55.043123
2884.896181	-55.729179
2887.674984	-56.376408
2890.459146	-56.544125
2893.248681	-56.922665
2896.043606	-57.299824
2898.843937	-57.296740
2901.649687	-57.843545
2904.460875	-57.968266
2907.277515	-58.649484
2910.099623	-59.541767
2912.927215	-60.423592
2915.760308	-61.690187
2918.598916	-62.497128
2921.443057	-63.413441
2924.292747	-65.647290
2927.148002	-67.335901
2930.008837	-70.653914
2932.875270	-71.969082
2935.747318	-71.668497
2938.624995	-67.698169
2941.508320	-65.295065
2944.397308	-63.590350
2947.291977	-62.193644
2950.192343	-61.488483
2953.098423	-60.622454
2956.010234	-60.323893
2958.927792	-60.383185
2961.851116	-60.370384
2964.780221	-61.037957
2967.715126	-61.243983
2970.655847	-61.997827
2973.602402	-62.518115
2976.554808	-63.343383
2979.513083	-63.524335
2982.477243	-63.588590
2985.447308	-63.353574
2988.423293	-63.164207
2991.405218	-62.885285
2994.393099	-62.933099
2997.386955	-63.309028
