# 2022-03-21_14.32.02
# shape = sech2
# FWHM_ps = 0.1
# carrier_nm = 1542
# frep_MHz = 12126
# pow_mW = 8000
# GDD = 0.0
# propa_len = 0.13666666666666666
# untap_len = 0.01
# taper_len = 0.07666666666666666
# waist_len = 0.02
# uptap_len = 0.02
# untap_scale = 1.0
# waist_scale = 0.2666666666666667
# workingDir = NL_20110305_12 (Spirou)
# axis = slow
# window_ps = 10.0
# steps = 200
# points = 13000
# 
# wavelength [nm]	 power spectral density [dB]
1000.248639	-23.235429
1000.582480	-23.173254
1000.916545	-23.103592
1001.250832	-23.038722
1001.585343	-22.992255
1001.920077	-22.970787
1002.255035	-22.971012
1002.590218	-22.981313
1002.925624	-22.986386
1003.261255	-22.973674
1003.597111	-22.938458
1003.933192	-22.885994
1004.269497	-22.829338
1004.606029	-22.783602
1004.942785	-22.759744
1005.279768	-22.760045
1005.616977	-22.776691
1005.954412	-22.794624
1006.292074	-22.798194
1006.629962	-22.778186
1006.968077	-22.735950
1007.306420	-22.682483
1007.644990	-22.632948
1007.983787	-22.600121
1008.322813	-22.589355
1008.662067	-22.596437
1009.001549	-22.609357
1009.341259	-22.612881
1009.681199	-22.595932
1010.021367	-22.556845
1010.361765	-22.504253
1010.702392	-22.452442
1011.043250	-22.414331
1011.384337	-22.395689
1011.725654	-22.392988
1012.067202	-22.395748
1012.408980	-22.390635
1012.750989	-22.367837
1013.093230	-22.326016
1013.435702	-22.273081
1013.778405	-22.222185
1014.121341	-22.184651
1014.464508	-22.164902
1014.807908	-22.158889
1015.151540	-22.156132
1015.495405	-22.144539
1015.839503	-22.116361
1016.183835	-22.072134
1016.528400	-22.020601
1016.873198	-21.974216
1017.218231	-21.942249
1017.563498	-21.926141
1017.908999	-21.919500
1018.254735	-21.911978
1018.600707	-21.893894
1018.946913	-21.860841
1019.293354	-21.816444
1019.640032	-21.770684
1019.986945	-21.735042
1020.334094	-21.716149
1020.681480	-21.711970
1021.029102	-21.712862
1021.376961	-21.707617
1021.725058	-21.688902
1022.073391	-21.656941
1022.421962	-21.619315
1022.770772	-21.587159
1023.119819	-21.569347
1023.469104	-21.567505
1023.818628	-21.575137
1024.168391	-21.580423
1024.518393	-21.573206
1024.868634	-21.550505
1025.219115	-21.517841
1025.569836	-21.486693
1025.920796	-21.468316
1026.271997	-21.467246
1026.623438	-21.478524
1026.975121	-21.489987
1027.327044	-21.489148
1027.679208	-21.470355
1028.031614	-21.437691
1028.384262	-21.402578
1028.737152	-21.378247
1029.090284	-21.373093
1029.443659	-21.385316
1029.797276	-21.402962
1030.151137	-21.410241
1030.505240	-21.396721
1030.859587	-21.363561
1031.214178	-21.322248
1031.569013	-21.287748
1031.924093	-21.271195
1032.279417	-21.274296
1032.634985	-21.287830
1032.990799	-21.296013
1033.346858	-21.285345
1033.703162	-21.253131
1034.059712	-21.208758
1034.416509	-21.167695
1034.773551	-21.142233
1035.130841	-21.135716
1035.488377	-21.140854
1035.846160	-21.143481
1036.204190	-21.130295
1036.562468	-21.097051
1036.920994	-21.051251
1037.279768	-21.007006
1037.638790	-20.976236
1037.998061	-20.962399
1038.357581	-20.959423
1038.717350	-20.955329
1039.077368	-20.939279
1039.437636	-20.908131
1039.798154	-20.868803
1040.158922	-20.833378
1040.519940	-20.811000
1040.881209	-20.802282
1041.242729	-20.799345
1041.604501	-20.791382
1041.966524	-20.771339
1042.328798	-20.740459
1042.691325	-20.707610
1043.054103	-20.683722
1043.417135	-20.674678
1043.780419	-20.676962
1044.143956	-20.679813
1044.507746	-20.672090
1044.871791	-20.650196
1045.236088	-20.620413
1045.600641	-20.594657
1045.965447	-20.583022
1046.330508	-20.587503
1046.695824	-20.600418
1047.061395	-20.608532
1047.427222	-20.601304
1047.793304	-20.578430
1048.159642	-20.550127
1048.526237	-20.530251
1048.893088	-20.526963
1049.260196	-20.537906
1049.627561	-20.551721
1049.995183	-20.555065
1050.363063	-20.540939
1050.731201	-20.513663
1051.099597	-20.486017
1051.468251	-20.470365
1051.837164	-20.470293
1052.206336	-20.478205
1052.575767	-20.480933
1052.945458	-20.468652
1053.315409	-20.441328
1053.685619	-20.408594
1054.056090	-20.382943
1054.426821	-20.371393
1054.797814	-20.370625
1055.169067	-20.368866
1055.540582	-20.354414
1055.912359	-20.324289
1056.284398	-20.285983
1056.656698	-20.251770
1057.029262	-20.230195
1057.402088	-20.220367
1057.775177	-20.212946
1058.148530	-20.196314
1058.522146	-20.165355
1058.896027	-20.125449
1059.270171	-20.088544
1059.644580	-20.064144
1060.019254	-20.052421
1060.394193	-20.044286
1060.769397	-20.027968
1061.144867	-19.997734
1061.520602	-19.958347
1061.896604	-19.921847
1062.272872	-19.898687
1062.649407	-19.889921
1063.026210	-19.886053
1063.403279	-19.873981
1063.780616	-19.846870
1064.158221	-19.809992
1064.536094	-19.777052
1064.914235	-19.759949
1065.292645	-19.759938
1065.671325	-19.766197
1066.050273	-19.763301
1066.429491	-19.742752
1066.808979	-19.709661
1067.188738	-19.679235
1067.568766	-19.665569
1067.949066	-19.670812
1068.329636	-19.683367
1068.710478	-19.686046
1069.091592	-19.668908
1069.472977	-19.636669
1069.854635	-19.604711
1070.236565	-19.587450
1070.618768	-19.587993
1071.001243	-19.596294
1071.383993	-19.596736
1071.767016	-19.580154
1072.150313	-19.550620
1072.533884	-19.521293
1072.917730	-19.503497
1073.301850	-19.498146
1073.686246	-19.495761
1074.070917	-19.484407
1074.455864	-19.458912
1074.841087	-19.424729
1075.226586	-19.392954
1075.612362	-19.371188
1075.998415	-19.357337
1076.384745	-19.341517
1076.771353	-19.314563
1077.158238	-19.276178
1077.545401	-19.235326
1077.932843	-19.203077
1078.320564	-19.183728
1078.708564	-19.171167
1079.096842	-19.153287
1079.485401	-19.121738
1079.874240	-19.079612
1080.263358	-19.039790
1080.652757	-19.014331
1081.042438	-19.004341
1081.432399	-18.998469
1081.822641	-18.981292
1082.213166	-18.946063
1082.603972	-18.900537
1082.995061	-18.861472
1083.386433	-18.840902
1083.778087	-18.836254
1084.170025	-18.832039
1084.562246	-18.812985
1084.954751	-18.777539
1085.347541	-18.739063
1085.740615	-18.714382
1086.133973	-18.709680
1086.527617	-18.715267
1086.921546	-18.714062
1087.315761	-18.696382
1087.710262	-18.668861
1088.105050	-18.647615
1088.500124	-18.643091
1088.895485	-18.650165
1089.291134	-18.652821
1089.687070	-18.638622
1090.083294	-18.609999
1090.479806	-18.581818
1090.876607	-18.567271
1091.273696	-18.565720
1091.671075	-18.563062
1092.068744	-18.544931
1092.466702	-18.510701
1092.864950	-18.474562
1093.263489	-18.452419
1093.662319	-18.447364
1094.061440	-18.447165
1094.460852	-18.435217
1094.860555	-18.406040
1095.260551	-18.370692
1095.660840	-18.346177
1096.061421	-18.339206
1096.462295	-18.339459
1096.863462	-18.328634
1097.264923	-18.297377
1097.666678	-18.253722
1098.068727	-18.214915
1098.471071	-18.190966
1098.873710	-18.175562
1099.276644	-18.151831
1099.679874	-18.108402
1100.083400	-18.050563
1100.487222	-17.995791
1100.891340	-17.957541
1101.295756	-17.933372
1101.700468	-17.908240
1102.105478	-17.869526
1102.510787	-17.820099
1102.916393	-17.775889
1103.322298	-17.750582
1103.728502	-17.741818
1104.135005	-17.733419
1104.541807	-17.712051
1104.948909	-17.681143
1105.356312	-17.656962
1105.764015	-17.650857
1106.172019	-17.656517
1106.580324	-17.655264
1106.988931	-17.634426
1107.397840	-17.600278
1107.807051	-17.571782
1108.216564	-17.560829
1108.626380	-17.559652
1109.036500	-17.547785
1109.446923	-17.512457
1109.857649	-17.462339
1110.268680	-17.420078
1110.680016	-17.400557
1111.091657	-17.396182
1111.503602	-17.383733
1111.915854	-17.348178
1112.328411	-17.300459
1112.741275	-17.267475
1113.154445	-17.264463
1113.567922	-17.278823
1113.981706	-17.282214
1114.395798	-17.260343
1114.810198	-17.228429
1115.224906	-17.214365
1115.639923	-17.228530
1116.055249	-17.252580
1116.470884	-17.257868
1116.886829	-17.234580
1117.303084	-17.199966
1117.719650	-17.178495
1118.136526	-17.176683
1118.553713	-17.177728
1118.971212	-17.157963
1119.389022	-17.110067
1119.807145	-17.050077
1120.225580	-17.001877
1120.644328	-16.973808
1121.063389	-16.950537
1121.482763	-16.908640
1121.902452	-16.842451
1122.322454	-16.772442
1122.742771	-16.724447
1123.163404	-16.702472
1123.584351	-16.684775
1124.005614	-16.648472
1124.427193	-16.595733
1124.849089	-16.550978
1125.271301	-16.533308
1125.693830	-16.537352
1126.116677	-16.540693
1126.539842	-16.527784
1126.963324	-16.503823
1127.387126	-16.486900
1127.811246	-16.489598
1128.235685	-16.507841
1128.660444	-16.523621
1129.085522	-16.519597
1129.510922	-16.496265
1129.936641	-16.474698
1130.362682	-16.475706
1130.789044	-16.493545
1131.215728	-16.496281
1131.642734	-16.461302
1132.070063	-16.406900
1132.497714	-16.373961
1132.925689	-16.375683
1133.353987	-16.377947
1133.782610	-16.340010
1134.211556	-16.268830
1134.640827	-16.212494
1135.070424	-16.198560
1135.500345	-16.199996
1135.930593	-16.170918
1136.361166	-16.107797
1136.792067	-16.052604
1137.223294	-16.035915
1137.654848	-16.039683
1138.086730	-16.024624
1138.518940	-15.982748
1138.951479	-15.943744
1139.384346	-15.931278
1139.817543	-15.934708
1140.251069	-15.928930
1140.684925	-15.907898
1141.119111	-15.885632
1141.553628	-15.872263
1141.988475	-15.864362
1142.423655	-15.856253
1142.859166	-15.847095
1143.295009	-15.833908
1143.731185	-15.810590
1144.167694	-15.781116
1144.604536	-15.760973
1145.041711	-15.754689
1145.479221	-15.742377
1145.917065	-15.704367
1146.355245	-15.653761
1146.793759	-15.622720
1147.232609	-15.616220
1147.671795	-15.601209
1148.111317	-15.552904
1148.551177	-15.493729
1148.991373	-15.462300
1149.431907	-15.457147
1149.872779	-15.438980
1150.313989	-15.389710
1150.755538	-15.339827
1151.197426	-15.321358
1151.639653	-15.320260
1152.082220	-15.299427
1152.525128	-15.256517
1152.968376	-15.226598
1153.411966	-15.226087
1153.855897	-15.227728
1154.300169	-15.204542
1154.744784	-15.172706
1155.189742	-15.164423
1155.635042	-15.175968
1156.080687	-15.173318
1156.526674	-15.146180
1156.973007	-15.124119
1157.419683	-15.128405
1157.866705	-15.138098
1158.314072	-15.123442
1158.761786	-15.093441
1159.209845	-15.079739
1159.658251	-15.084747
1160.107004	-15.078350
1160.556104	-15.046983
1161.005553	-15.016039
1161.455349	-15.008276
1161.905494	-15.006432
1162.355989	-14.980374
1162.806832	-14.936660
1163.258026	-14.909230
1163.709570	-14.905803
1164.161464	-14.895249
1164.613710	-14.855505
1165.066307	-14.808697
1165.519256	-14.787340
1165.972558	-14.784987
1166.426212	-14.766725
1166.880219	-14.723026
1167.334580	-14.683227
1167.789295	-14.669450
1168.244364	-14.664334
1168.699788	-14.639096
1169.155567	-14.597938
1169.611702	-14.569358
1170.068193	-14.560781
1170.525041	-14.548743
1170.982245	-14.517363
1171.439807	-14.482927
1171.897726	-14.466161
1172.356004	-14.458856
1172.814640	-14.437662
1173.273635	-14.402788
1173.732989	-14.378070
1174.192703	-14.371718
1174.652778	-14.362065
1175.113213	-14.332071
1175.574009	-14.298022
1176.035167	-14.284504
1176.496687	-14.285407
1176.958569	-14.272537
1177.420814	-14.239751
1177.883422	-14.213303
1178.346394	-14.210786
1178.809730	-14.214420
1179.273430	-14.198946
1179.737496	-14.170464
1180.201927	-14.155557
1180.666723	-14.159649
1181.131886	-14.160440
1181.597416	-14.143930
1182.063312	-14.124805
1182.529576	-14.120753
1182.996209	-14.125041
1183.463209	-14.119690
1183.930579	-14.104460
1184.398317	-14.095136
1184.866426	-14.096316
1185.334904	-14.094997
1185.803754	-14.083248
1186.272974	-14.070315
1186.742566	-14.066024
1187.212529	-14.064732
1187.682865	-14.055227
1188.153574	-14.039022
1188.624656	-14.026912
1189.096112	-14.021145
1189.567942	-14.013203
1190.040147	-13.997716
1190.512726	-13.979758
1190.985681	-13.965885
1191.459012	-13.954835
1191.932720	-13.941145
1192.406804	-13.923222
1192.881265	-13.903861
1193.356104	-13.885769
1193.831322	-13.869395
1194.306918	-13.852822
1194.782893	-13.832971
1195.259248	-13.809497
1195.735982	-13.786608
1196.213097	-13.767971
1196.690593	-13.750110
1197.168471	-13.726079
1197.646730	-13.697021
1198.125371	-13.672368
1198.604395	-13.655193
1199.083803	-13.635965
1199.563594	-13.607212
1200.043769	-13.576830
1200.524329	-13.556539
1201.005273	-13.542500
1201.486604	-13.520896
1201.968320	-13.491029
1202.450422	-13.467335
1202.932912	-13.455686
1203.415789	-13.443326
1203.899054	-13.420173
1204.382707	-13.396366
1204.866748	-13.385384
1205.351179	-13.381060
1205.836000	-13.367884
1206.321211	-13.347478
1206.806812	-13.335986
1207.292805	-13.336300
1207.779189	-13.332864
1208.265965	-13.318425
1208.753134	-13.306205
1209.240696	-13.306553
1209.728651	-13.308803
1210.217000	-13.299792
1210.705744	-13.286970
1211.194883	-13.284944
1211.684417	-13.289108
1212.174347	-13.283667
1212.664673	-13.269516
1213.155396	-13.263130
1213.646516	-13.267211
1214.138034	-13.264951
1214.629951	-13.249752
1215.122266	-13.237446
1215.614980	-13.238676
1216.108095	-13.239921
1216.601609	-13.226482
1217.095524	-13.208554
1217.589841	-13.203840
1218.084559	-13.206601
1218.579679	-13.197773
1219.075202	-13.177960
1219.571128	-13.166516
1220.067458	-13.167604
1220.564191	-13.163041
1221.061330	-13.144570
1221.558874	-13.127750
1222.056823	-13.124155
1222.555178	-13.121421
1223.053940	-13.104946
1223.553109	-13.083660
1224.052686	-13.073384
1224.552671	-13.069077
1225.053065	-13.054430
1225.553867	-13.030539
1226.055079	-13.013018
1226.556702	-13.003946
1227.058735	-12.989390
1227.561179	-12.965252
1228.064035	-12.943476
1228.567303	-12.929626
1229.070983	-12.913420
1229.575077	-12.888742
1230.079585	-12.865259
1230.584506	-12.849941
1231.089842	-12.834081
1231.595594	-12.809834
1232.101761	-12.785424
1232.608345	-12.770494
1233.115345	-12.758192
1233.622762	-12.737779
1234.130597	-12.714470
1234.638851	-12.699891
1235.147523	-12.691053
1235.656615	-12.675957
1236.166126	-12.655635
1236.676058	-12.641788
1237.186411	-12.634887
1237.697185	-12.623742
1238.208381	-12.606434
1238.719999	-12.593406
1239.232040	-12.587609
1239.744505	-12.578927
1240.257394	-12.563512
1240.770708	-12.550904
1241.284446	-12.545946
1241.798610	-12.539333
1242.313201	-12.525223
1242.828218	-12.512563
1243.343662	-12.508180
1243.859534	-12.504083
1244.375834	-12.492551
1244.892563	-12.480713
1245.409721	-12.477113
1245.927309	-12.475676
1246.445327	-12.467422
1246.963777	-12.457389
1247.482657	-12.454752
1248.001970	-12.455222
1248.521716	-12.449349
1249.041894	-12.440479
1249.562506	-12.437789
1250.083553	-12.438637
1250.605034	-12.433657
1251.126950	-12.424729
1251.649302	-12.420870
1252.172091	-12.420731
1252.695316	-12.415512
1253.218979	-12.406015
1253.743079	-12.400554
1254.267619	-12.398698
1254.792597	-12.392710
1255.318015	-12.383177
1255.843874	-12.377264
1256.370173	-12.374353
1256.896913	-12.368056
1257.424095	-12.359438
1257.951720	-12.354579
1258.479787	-12.351700
1259.008298	-12.344942
1259.537254	-12.336947
1260.066654	-12.333221
1260.596499	-12.330143
1261.126790	-12.321971
1261.657527	-12.313008
1262.188711	-12.309108
1262.720342	-12.304978
1263.252422	-12.294613
1263.784950	-12.283894
1264.317928	-12.278918
1264.851355	-12.273223
1265.385232	-12.260802
1265.919560	-12.248748
1266.454340	-12.243130
1266.989572	-12.236518
1267.525256	-12.223322
1268.061394	-12.211419
1268.597985	-12.206045
1269.135031	-12.199185
1269.672531	-12.186346
1270.210487	-12.175687
1270.748899	-12.170415
1271.287768	-12.162355
1271.827094	-12.149347
1272.366877	-12.139466
1272.907119	-12.133323
1273.447820	-12.122853
1273.988981	-12.109059
1274.530601	-12.099709
1275.072683	-12.092327
1275.615226	-12.079845
1276.158230	-12.066442
1276.701697	-12.058414
1277.245627	-12.050478
1277.790021	-12.037609
1278.334879	-12.026613
1278.880202	-12.021225
1279.425991	-12.013528
1279.972245	-12.001564
1280.518966	-11.994014
1281.066155	-11.990756
1281.613811	-11.982567
1282.161936	-11.971444
1282.710529	-11.966296
1283.259593	-11.963089
1283.809126	-11.953381
1284.359131	-11.943136
1284.909607	-11.939571
1285.460555	-11.935463
1286.011976	-11.925341
1286.563870	-11.917680
1287.116237	-11.915935
1287.669080	-11.911231
1288.222397	-11.902741
1288.776191	-11.899011
1289.330460	-11.898357
1289.885207	-11.893125
1290.440431	-11.887274
1290.996133	-11.886453
1291.552314	-11.884366
1292.108975	-11.877695
1292.666115	-11.873872
1293.223737	-11.873140
1293.781839	-11.867422
1294.340424	-11.859899
1294.899491	-11.858208
1295.459041	-11.856316
1296.019075	-11.848368
1296.579593	-11.843315
1297.140597	-11.844583
1297.702086	-11.841453
1298.264061	-11.833993
1298.826524	-11.833562
1299.389474	-11.836295
1299.952912	-11.831214
1300.516839	-11.825667
1301.081255	-11.828660
1301.646162	-11.829546
1302.211559	-11.822207
1302.777448	-11.819248
1303.343829	-11.822957
1303.910702	-11.820588
1304.478069	-11.813983
1305.045930	-11.814972
1305.614285	-11.818208
1306.183136	-11.814962
1306.752483	-11.813270
1307.322326	-11.817716
1307.892666	-11.819137
1308.463504	-11.817314
1309.034841	-11.820286
1309.606677	-11.823943
1310.179012	-11.822620
1310.751849	-11.823392
1311.325186	-11.827674
1311.899025	-11.827463
1312.473366	-11.826109
1313.048211	-11.830546
1313.623559	-11.833429
1314.199412	-11.831468
1314.775770	-11.834988
1315.352634	-11.842255
1315.930004	-11.842365
1316.507881	-11.842514
1317.086266	-11.850968
1317.665159	-11.855704
1318.244562	-11.852740
1318.824474	-11.856440
1319.404897	-11.864677
1319.985831	-11.863606
1320.567276	-11.861680
1321.149234	-11.869377
1321.731706	-11.874226
1322.314691	-11.871956
1322.898190	-11.876760
1323.482205	-11.886134
1324.066736	-11.887847
1324.651783	-11.890125
1325.237347	-11.899878
1325.823430	-11.905418
1326.410031	-11.906302
1326.997151	-11.913361
1327.584791	-11.920493
1328.172952	-11.921173
1328.761634	-11.925571
1329.350839	-11.934072
1329.940566	-11.936866
1330.530817	-11.940339
1331.121592	-11.950467
1331.712891	-11.956800
1332.304716	-11.959858
1332.897068	-11.969961
1333.489946	-11.979463
1334.083352	-11.982021
1334.677287	-11.989099
1335.271750	-11.999879
1335.866744	-12.003119
1336.462268	-12.006876
1337.058323	-12.017673
1337.654910	-12.023765
1338.252029	-12.026467
1338.849682	-12.036695
1339.447869	-12.045857
1340.046591	-12.048579
1340.645848	-12.056809
1341.245641	-12.067271
1341.845972	-12.069462
1342.446840	-12.073480
1343.048246	-12.083039
1343.650191	-12.085351
1344.252677	-12.085517
1344.855702	-12.093549
1345.459269	-12.098258
1346.063379	-12.097530
1346.668030	-12.103954
1347.273226	-12.111228
1347.878965	-12.111342
1348.485250	-12.115560
1349.092080	-12.123591
1349.699456	-12.124904
1350.307380	-12.127264
1350.915851	-12.135018
1351.524871	-12.138059
1352.134441	-12.140633
1352.744560	-12.149527
1353.355231	-12.155488
1353.966453	-12.159555
1354.578227	-12.170102
1355.190555	-12.178618
1355.803436	-12.183055
1356.416872	-12.193621
1357.030863	-12.203659
1357.645411	-12.207475
1358.260515	-12.216777
1358.876177	-12.228296
1359.492397	-12.232451
1360.109176	-12.240235
1360.726516	-12.253116
1361.344416	-12.258500
1361.962877	-12.264330
1362.581901	-12.276773
1363.201487	-12.283066
1363.821637	-12.286736
1364.442352	-12.297480
1365.063632	-12.304626
1365.685478	-12.307887
1366.307891	-12.317922
1366.930871	-12.326563
1367.554420	-12.330704
1368.178538	-12.340882
1368.803226	-12.350792
1369.428485	-12.355577
1370.054315	-12.365345
1370.680717	-12.375893
1371.307693	-12.381068
1371.935242	-12.390775
1372.563366	-12.402141
1373.192065	-12.408123
1373.821341	-12.418296
1374.451193	-12.431015
1375.081623	-12.437805
1375.712632	-12.448072
1376.344221	-12.461590
1376.976389	-12.468869
1377.609139	-12.478822
1378.242470	-12.492901
1378.876384	-12.501091
1379.510881	-12.511352
1380.145963	-12.526247
1380.781629	-12.535331
1381.417881	-12.545865
1382.054720	-12.561547
1382.692147	-12.571696
1383.330161	-12.583236
1383.968765	-12.600839
1384.607959	-12.613667
1385.247743	-12.628009
1385.888119	-12.648817
1386.529087	-12.664825
1387.170648	-12.681823
1387.812804	-12.704986
1388.455554	-12.722684
1389.098899	-12.740510
1389.742842	-12.764286
1390.387381	-12.782526
1391.032519	-12.800626
1391.678256	-12.824387
1392.324592	-12.842478
1392.971529	-12.860497
1393.619068	-12.883812
1394.267208	-12.901488
1394.915952	-12.920035
1395.565300	-12.944432
1396.215253	-12.963722
1396.865812	-12.984875
1397.516977	-13.011624
1398.168749	-13.032737
1398.821130	-13.055677
1399.474120	-13.082864
1400.127719	-13.103443
1400.781930	-13.126078
1401.436752	-13.152203
1402.092186	-13.171644
1402.748234	-13.194008
1403.404897	-13.219057
1404.062174	-13.237404
1404.720067	-13.259247
1405.378577	-13.282287
1406.037705	-13.298897
1406.697451	-13.320416
1407.357817	-13.342288
1408.018803	-13.358629
1408.680410	-13.381089
1409.342639	-13.402543
1410.005492	-13.418839
1410.668968	-13.441618
1411.333068	-13.462064
1411.997795	-13.478690
1412.663147	-13.502270
1413.329127	-13.522349
1413.995736	-13.539828
1414.662973	-13.563216
1415.330840	-13.580954
1415.999339	-13.597064
1416.668469	-13.618017
1417.338232	-13.632870
1418.008628	-13.648831
1418.679659	-13.669312
1419.351325	-13.683799
1420.023628	-13.700698
1420.696568	-13.719283
1421.370145	-13.731282
1422.044362	-13.746879
1422.719219	-13.762712
1423.394717	-13.774946
1424.070856	-13.793984
1424.747638	-13.812284
1425.425064	-13.828686
1426.103134	-13.850874
1426.781850	-13.868246
1427.461212	-13.883696
1428.141221	-13.902954
1428.821878	-13.915860
1429.503185	-13.929744
1430.185141	-13.946548
1430.867749	-13.957220
1431.551008	-13.971462
1432.234920	-13.987184
1432.919486	-13.999127
1433.604707	-14.018131
1434.290583	-14.037850
1434.977116	-14.056070
1435.664307	-14.079706
1436.352156	-14.097679
1437.040664	-14.111759
1437.729833	-14.126397
1438.419663	-14.132981
1439.110156	-14.140017
1439.801312	-14.149163
1440.493132	-14.155042
1441.185617	-14.166929
1441.878768	-14.180026
1442.572586	-14.192404
1443.267072	-14.211764
1443.962228	-14.229302
1444.658053	-14.247154
1445.354549	-14.267600
1446.051717	-14.279428
1446.749558	-14.288022
1447.448073	-14.291860
1448.147263	-14.286381
1448.847128	-14.282885
1449.547671	-14.278863
1450.248891	-14.276298
1450.950789	-14.283080
1451.653368	-14.291415
1452.356627	-14.305806
1453.060568	-14.327199
1453.765192	-14.347090
1454.470500	-14.370907
1455.176492	-14.391363
1455.883170	-14.401918
1456.590534	-14.406485
1457.298586	-14.397042
1458.007327	-14.378363
1458.716758	-14.356583
1459.426880	-14.329612
1460.137693	-14.308131
1460.849199	-14.291900
1461.561398	-14.281254
1462.274293	-14.284111
1462.987883	-14.294855
1463.702170	-14.316608
1464.417155	-14.347667
1465.132838	-14.376478
1465.849222	-14.403462
1466.566306	-14.417890
1467.284093	-14.414276
1468.002582	-14.396822
1468.721775	-14.357799
1469.441674	-14.303296
1470.162278	-14.237005
1470.883590	-14.158362
1471.605609	-14.081006
1472.328338	-14.008188
1473.051777	-13.946991
1473.775928	-13.905086
1474.500790	-13.878044
1475.226367	-13.869544
1475.952657	-13.874570
1476.679663	-13.887654
1477.407386	-13.908866
1478.135826	-13.924181
1478.864985	-13.927985
1479.594863	-13.911853
1480.325463	-13.864280
1481.056784	-13.789503
1481.788828	-13.685065
1482.521597	-13.556731
1483.255090	-13.414186
1483.989309	-13.261024
1484.724256	-13.112413
1485.459931	-12.977380
1486.196336	-12.866178
1486.933471	-12.790800
1487.671337	-12.751860
1488.409937	-12.755563
1489.149270	-12.802405
1489.889337	-12.890568
1490.630141	-13.021522
1491.371682	-13.183889
1492.113961	-13.368788
1492.856979	-13.560928
1493.600738	-13.739886
1494.345238	-13.892884
1495.090481	-13.997762
1495.836467	-14.042005
1496.583198	-14.017537
1497.330675	-13.921932
1498.078899	-13.772371
1498.827872	-13.583954
1499.577593	-13.381473
1500.328065	-13.185660
1501.079289	-13.010496
1501.831265	-12.875551
1502.583995	-12.789660
1503.337480	-12.764657
1504.091721	-12.806155
1504.846719	-12.909982
1505.602475	-13.074435
1506.358991	-13.285438
1507.116268	-13.527673
1507.874306	-13.773412
1508.633108	-13.979307
1509.392673	-14.099973
1510.153004	-14.082484
1510.914101	-13.900124
1511.675965	-13.548210
1512.438599	-13.050074
1513.202002	-12.450592
1513.966176	-11.790858
1514.731122	-11.115527
1515.496842	-10.454377
1516.263336	-9.829050
1517.030607	-9.252825
1517.798654	-8.729512
1518.567479	-8.264869
1519.337083	-7.859874
1520.107468	-7.516692
1520.878634	-7.235066
1521.650584	-7.012103
1522.423317	-6.849012
1523.196836	-6.744943
1523.971141	-6.702277
1524.746233	-6.721846
1525.522115	-6.803355
1526.298786	-6.951339
1527.076249	-7.168595
1527.854504	-7.461684
1528.633553	-7.835565
1529.413397	-8.294900
1530.194037	-8.850659
1530.975474	-9.512955
1531.757709	-10.297124
1532.540745	-11.216609
1533.324581	-12.285346
1534.109220	-13.520551
1534.894662	-14.917030
1535.680909	-16.418767
1536.467961	-17.827931
1537.255821	-18.734088
1538.044489	-18.724580
1538.833967	-17.846537
1539.624256	-16.557862
1540.415357	-15.236896
1541.207271	-14.037522
1542.000000	-13.003612
1542.793545	-12.132576
1543.587907	-11.411401
1544.383087	-10.828145
1545.179088	-10.361934
1545.975909	-9.999800
1546.773552	-9.730301
1547.572019	-9.546003
1548.371311	-9.440176
1549.171428	-9.401521
1549.972373	-9.426251
1550.774147	-9.508322
1551.576751	-9.644109
1552.380185	-9.827354
1553.184453	-10.051968
1553.989554	-10.318517
1554.795490	-10.622050
1555.602263	-10.959554
1556.409873	-11.323923
1557.218322	-11.713908
1558.027612	-12.129681
1558.837743	-12.564178
1559.648717	-13.014969
1560.460536	-13.476987
1561.273200	-13.954289
1562.086710	-14.442002
1562.901069	-14.933686
1563.716278	-15.428459
1564.532337	-15.923181
1565.349249	-16.418730
1566.167014	-16.900370
1566.985634	-17.366126
1567.805111	-17.807976
1568.625444	-18.216200
1569.446637	-18.569199
1570.268690	-18.843523
1571.091605	-19.033001
1571.915382	-19.121055
1572.740024	-19.102382
1573.565532	-18.962385
1574.391907	-18.719719
1575.219150	-18.390169
1576.047262	-17.997441
1576.876246	-17.555966
1577.706103	-17.087951
1578.536833	-16.617817
1579.368439	-16.155444
1580.200922	-15.708495
1581.034282	-15.277725
1581.868522	-14.877873
1582.703643	-14.507702
1583.539646	-14.167961
1584.376532	-13.853978
1585.214304	-13.573367
1586.052962	-13.327239
1586.892508	-13.110773
1587.732943	-12.921324
1588.574269	-12.758734
1589.416487	-12.626261
1590.259599	-12.515741
1591.103605	-12.427764
1591.948508	-12.361451
1592.794309	-12.319952
1593.641009	-12.294324
1594.488609	-12.284046
1595.337112	-12.290477
1596.186518	-12.314490
1597.036829	-12.349300
1597.888047	-12.391687
1598.740172	-12.446851
1599.593207	-12.512147
1600.447153	-12.584200
1601.302010	-12.658361
1602.157782	-12.742527
1603.014469	-12.830536
1603.872072	-12.920345
1604.730593	-13.009132
1605.590034	-13.104808
1606.450397	-13.200208
1607.311681	-13.292725
1608.173890	-13.385070
1609.037024	-13.482475
1609.901085	-13.577992
1610.766075	-13.666913
1611.631995	-13.756795
1612.498846	-13.848662
1613.366630	-13.938238
1614.235349	-14.021886
1615.105004	-14.109774
1615.975596	-14.195643
1616.847128	-14.277357
1617.719600	-14.355212
1618.593014	-14.440102
1619.467372	-14.520635
1620.342675	-14.596383
1621.218924	-14.671095
1622.096122	-14.750448
1622.974270	-14.822016
1623.853369	-14.890120
1624.733420	-14.960530
1625.614427	-15.030716
1626.496389	-15.089861
1627.379308	-15.147326
1628.263187	-15.206171
1629.148026	-15.259254
1630.033828	-15.303874
1630.920593	-15.350246
1631.808324	-15.393075
1632.697022	-15.424048
1633.586688	-15.452124
1634.477324	-15.483378
1635.368932	-15.507803
1636.261514	-15.523594
1637.155070	-15.542777
1638.049602	-15.560371
1638.945113	-15.569246
1639.841603	-15.578245
1640.739075	-15.591813
1641.637529	-15.596075
1642.536968	-15.594419
1643.437393	-15.595612
1644.338806	-15.592220
1645.241209	-15.576125
1646.144602	-15.560771
1647.048988	-15.541009
1647.954368	-15.507111
1648.860744	-15.466922
1649.768118	-15.428952
1650.676491	-15.378212
1651.585865	-15.320186
1652.496241	-15.265655
1653.407621	-15.208715
1654.320008	-15.145154
1655.233401	-15.090187
1656.147804	-15.036193
1657.063218	-14.978011
1657.979645	-14.927275
1658.897085	-14.884528
1659.815542	-14.833957
1660.735016	-14.786987
1661.655509	-14.745905
1662.577023	-14.697908
1663.499560	-14.646631
1664.423121	-14.601947
1665.347709	-14.550755
1666.273324	-14.498118
1667.199969	-14.452517
1668.127645	-14.402364
1669.056353	-14.349383
1669.986097	-14.307235
1670.916877	-14.263045
1671.848695	-14.214053
1672.781553	-14.174311
1673.715452	-14.134191
1674.650395	-14.089730
1675.586383	-14.051643
1676.523418	-14.011842
1677.461501	-13.967717
1678.400635	-13.934209
1679.340821	-13.897689
1680.282061	-13.855291
1681.224357	-13.820576
1682.167710	-13.786683
1683.112122	-13.746480
1684.057595	-13.714399
1685.004132	-13.678926
1685.951732	-13.643601
1686.900400	-13.617229
1687.850135	-13.587573
1688.800940	-13.552570
1689.752818	-13.526588
1690.705768	-13.493873
1691.659795	-13.459759
1692.614898	-13.432519
1693.571081	-13.401120
1694.528345	-13.371744
1695.486691	-13.348336
1696.446122	-13.317437
1697.406640	-13.290673
1698.368245	-13.268970
1699.330941	-13.239923
1700.294729	-13.217972
1701.259611	-13.195939
1702.225588	-13.168995
1703.192664	-13.148791
1704.160838	-13.126518
1705.130114	-13.100149
1706.100493	-13.081790
1707.071977	-13.058067
1708.044568	-13.038223
1709.018268	-13.023570
1709.993079	-13.000969
1710.969003	-12.983266
1711.946041	-12.967682
1712.924196	-12.947753
1713.903469	-12.934678
1714.883862	-12.918388
1715.865378	-12.901797
1716.848017	-12.892355
1717.831783	-12.875454
1718.816677	-12.864409
1719.802701	-12.855264
1720.789857	-12.841195
1721.778147	-12.833890
1722.767573	-12.823779
1723.758136	-12.814296
1724.749840	-12.810104
1725.742685	-12.799255
1726.736673	-12.794025
1727.731808	-12.789439
1728.728090	-12.781018
1729.725521	-12.779613
1730.724105	-12.772097
1731.723842	-12.769137
1732.724735	-12.767558
1733.726785	-12.761011
1734.729995	-12.760982
1735.734366	-12.756539
1736.739902	-12.754169
1737.746603	-12.752909
1738.754472	-12.747048
1739.763510	-12.748174
1740.773721	-12.745053
1741.785105	-12.742736
1742.797665	-12.744037
1743.811403	-12.740941
1744.826321	-12.743632
1745.842422	-12.741447
1746.859706	-12.742109
1747.878177	-12.745105
1748.897835	-12.743867
1749.918685	-12.749236
1750.940726	-12.749368
1751.963963	-12.754527
1752.988395	-12.758054
1754.014027	-12.759939
1755.040860	-12.767949
1756.068895	-12.769861
1757.098135	-12.777559
1758.128583	-12.780445
1759.160240	-12.787589
1760.193109	-12.796504
1761.227191	-12.800476
1762.262488	-12.811767
1763.299004	-12.816231
1764.336740	-12.827184
1765.375697	-12.834610
1766.415880	-12.842759
1767.457288	-12.853633
1768.499926	-12.860212
1769.543794	-12.874442
1770.588895	-12.882363
1771.635231	-12.896864
1772.682805	-12.906473
1773.731619	-12.918054
1774.781674	-12.931581
1775.832973	-12.942525
1776.885519	-12.958794
1777.939312	-12.968750
1778.994357	-12.986445
1780.050654	-12.997329
1781.108207	-13.015665
1782.167017	-13.031434
1783.227087	-13.046494
1784.288418	-13.062643
1785.351013	-13.075918
1786.414875	-13.096278
1787.480006	-13.110953
1788.546407	-13.132382
1789.614082	-13.146087
1790.683032	-13.165754
1791.753259	-13.180405
1792.824767	-13.199440
1793.897557	-13.215951
1794.971632	-13.233970
1796.046994	-13.252809
1797.123645	-13.270069
1798.201588	-13.288967
1799.280824	-13.303378
1800.361357	-13.324866
1801.443188	-13.339298
1802.526320	-13.361149
1803.610756	-13.374474
1804.696497	-13.396516
1805.783546	-13.411898
1806.871906	-13.434073
1807.961578	-13.449407
1809.052565	-13.472085
1810.144870	-13.490112
1811.238494	-13.512308
1812.333441	-13.532199
1813.429713	-13.555178
1814.527311	-13.576870
1815.626239	-13.600402
1816.726499	-13.622210
1817.828094	-13.644626
1818.931025	-13.667671
1820.035295	-13.690175
1821.140906	-13.715213
1822.247862	-13.737919
1823.356165	-13.762406
1824.465816	-13.784938
1825.576819	-13.809481
1826.689175	-13.830664
1827.802888	-13.855517
1828.917960	-13.876886
1830.034394	-13.902102
1831.152191	-13.922888
1832.271354	-13.947220
1833.391887	-13.968200
1834.513790	-13.990418
1835.637068	-14.010543
1836.761722	-14.031575
1837.887755	-14.052986
1839.015169	-14.074809
1840.143968	-14.096196
1841.274153	-14.115618
1842.405727	-14.136848
1843.538693	-14.151303
1844.673053	-14.173020
1845.808810	-14.188602
1846.945966	-14.211647
1848.084525	-14.225825
1849.224488	-14.247932
1850.365858	-14.259487
1851.508638	-14.279817
1852.652831	-14.290685
1853.798438	-14.311372
1854.945463	-14.323667
1856.093909	-14.342989
1857.243777	-14.354649
1858.395071	-14.369329
1859.547794	-14.384161
1860.701947	-14.396103
1861.857533	-14.412184
1863.014556	-14.422026
1864.173018	-14.439921
1865.332922	-14.448975
1866.494270	-14.467253
1867.657065	-14.474999
1868.821309	-14.487982
1869.987006	-14.496411
1871.154158	-14.506930
1872.322768	-14.518529
1873.492839	-14.524985
1874.664373	-14.538123
1875.837373	-14.540026
1877.011841	-14.552478
1878.187782	-14.551690
1879.365197	-14.560823
1880.544089	-14.564327
1881.724460	-14.567687
1882.906315	-14.573712
1884.089655	-14.571642
1885.274483	-14.578150
1886.460803	-14.574105
1887.648616	-14.577841
1888.837927	-14.575891
1890.028736	-14.572805
1891.221049	-14.574047
1892.414866	-14.566393
1893.610192	-14.566469
1894.807028	-14.558646
1896.005379	-14.551481
1897.205246	-14.546435
1898.406633	-14.533243
1899.609542	-14.529215
1900.813977	-14.515260
1902.019940	-14.505266
1903.227434	-14.495363
1904.436462	-14.479072
1905.647028	-14.471987
1906.859133	-14.452957
1908.072781	-14.441074
1909.287976	-14.426887
1910.504719	-14.408621
1911.723013	-14.398933
1912.942863	-14.378063
1914.164270	-14.364178
1915.387238	-14.348868
1916.611770	-14.327725
1917.837868	-14.315469
1919.065536	-14.294950
1920.294777	-14.277186
1921.525594	-14.264460
1922.757989	-14.240713
1923.991967	-14.225143
1925.227529	-14.207296
1926.464679	-14.184346
1927.703420	-14.171455
1928.943755	-14.149439
1930.185688	-14.128513
1931.429221	-14.113130
1932.674356	-14.087288
1933.921099	-14.069194
1935.169451	-14.050434
1936.419415	-14.021969
1937.670996	-14.003280
1938.924195	-13.979739
1940.179017	-13.950935
1941.435463	-13.931494
1942.693538	-13.904255
1943.953245	-13.874722
1945.214586	-13.855223
1946.477566	-13.824342
1947.742186	-13.796136
1949.008451	-13.773816
1950.276363	-13.740600
1951.545926	-13.711217
1952.817143	-13.687912
1954.090017	-13.654277
1955.364551	-13.625161
1956.640749	-13.601167
1957.918615	-13.566440
1959.198150	-13.535428
1960.479359	-13.512075
1961.762244	-13.478362
1963.046810	-13.448315
1964.333059	-13.425615
1965.620995	-13.393679
1966.910621	-13.364237
1968.201940	-13.343891
1969.494956	-13.316712
1970.789672	-13.286848
1972.086091	-13.266637
1973.384217	-13.242312
1974.684053	-13.211318
1975.985602	-13.190087
1977.288869	-13.169689
1978.593855	-13.138653
1979.900566	-13.114245
1981.209003	-13.093827
1982.519171	-13.065118
1983.831073	-13.034924
1985.144712	-13.015041
1986.460093	-12.990025
1987.777217	-12.957549
1989.096089	-12.933572
1990.416713	-12.913262
1991.739092	-12.882167
1993.063228	-12.851744
1994.389127	-12.830993
1995.716791	-12.806657
1997.046223	-12.772905
1998.377428	-12.747177
1999.710409	-12.727243
2001.045169	-12.698918
2002.381713	-12.667122
2003.720043	-12.644546
2005.060163	-12.624218
2006.402077	-12.593505
2007.745788	-12.564720
2009.091301	-12.545670
2010.438618	-12.526995
2011.787743	-12.499484
2013.138680	-12.474816
2014.491433	-12.460281
2015.846005	-12.444253
2017.202399	-12.420995
2018.560621	-12.400277
2019.920673	-12.390496
2021.282558	-12.380426
2022.646281	-12.361200
2024.011846	-12.341089
2025.379256	-12.331027
2026.748515	-12.324641
2028.119626	-12.309385
2029.492594	-12.288912
2030.867422	-12.275498
2032.244114	-12.270025
2033.622673	-12.258141
2035.003104	-12.237540
2036.385411	-12.220359
2037.769597	-12.212072
2039.155665	-12.203505
2040.543621	-12.185654
2041.933467	-12.164337
2043.325208	-12.149948
2044.718847	-12.142447
2046.114389	-12.132157
2047.511837	-12.112703
2048.911195	-12.091889
2050.312467	-12.077765
2051.715657	-12.070578
2053.120769	-12.061035
2054.527807	-12.043479
2055.936775	-12.024032
2057.347677	-12.010168
2058.760516	-12.005023
2060.175297	-12.000806
2061.592025	-11.989604
2063.010701	-11.973285
2064.431332	-11.959790
2065.853921	-11.956939
2067.278472	-11.959376
2068.704988	-11.959078
2070.133475	-11.951443
2071.563936	-11.941645
2072.996375	-11.937978
2074.430796	-11.941939
2075.867204	-11.950386
2077.305603	-11.954502
2078.745996	-11.953127
2080.188389	-11.948371
2081.632784	-11.945646
2083.079187	-11.948647
2084.527601	-11.955652
2085.978030	-11.963079
2087.430480	-11.966478
2088.884954	-11.962899
2090.341455	-11.956632
2091.799990	-11.951791
2093.260561	-11.952826
2094.723173	-11.959866
2096.187831	-11.967687
2097.654538	-11.971666
2099.123300	-11.970717
2100.594119	-11.965658
2102.067001	-11.958841
2103.541950	-11.956800
2105.018971	-11.961255
2106.498067	-11.971327
2107.979243	-11.983292
2109.462503	-11.992642
2110.947853	-11.998125
2112.435295	-12.000647
2113.924836	-12.000326
2115.416478	-12.000575
2116.910227	-12.005019
2118.406087	-12.015884
2119.904063	-12.031639
2121.404158	-12.051584
2122.906378	-12.072894
2124.410727	-12.092925
2125.917210	-12.110874
2127.425831	-12.125985
2128.936594	-12.138053
2130.449505	-12.148465
2131.964567	-12.159442
2133.481786	-12.172179
2135.001166	-12.186629
2136.522711	-12.204612
2138.046427	-12.227102
2139.572317	-12.251039
2141.100388	-12.277036
2142.630642	-12.304593
2144.163085	-12.331954
2145.697722	-12.357855
2147.234558	-12.382420
2148.773596	-12.405171
2150.314842	-12.424121
2151.858301	-12.439255
2153.403977	-12.451807
2154.951875	-12.462368
2156.502000	-12.471583
2158.054357	-12.480378
2159.608950	-12.489311
2161.165785	-12.499485
2162.724866	-12.510350
2164.286198	-12.523345
2165.849786	-12.539747
2167.415635	-12.557547
2168.983749	-12.577432
2170.554134	-12.601209
2172.126795	-12.628617
2173.701737	-12.659937
2175.278964	-12.693126
2176.858481	-12.729573
2178.440294	-12.771677
2180.024408	-12.816981
2181.610827	-12.863786
2183.199557	-12.911356
2184.790602	-12.962051
2186.383968	-13.015446
2187.979660	-13.069551
2189.577683	-13.122593
2191.178041	-13.176659
2192.780741	-13.232357
2194.385787	-13.286971
2195.993185	-13.339129
2197.602939	-13.389777
2199.215054	-13.434836
