# 2022-03-22_13.10.15
# shape = sech2
# FWHM_ps = 0.11
# carrier_nm = 1542
# frep_MHz = 12126
# pow_mW = 8000
# GDD = 0.0
# propa_len = 0.16
# untap_len = 0.01
# taper_len = 0.1
# waist_len = 0.02
# uptap_len = 0.02
# untap_scale = 1.0
# waist_scale = 0.13157894736842107
# workingDir = NL_20110305_12 (Spirou)
# axis = slow
# window_ps = 10.0
# steps = 200
# points = 21700
# 
# wavelength [nm]	 power spectral density [dB]
600.043425	-93.175364
600.163550	-99.690724
600.283723	-96.230074
600.403943	-100.862186
600.524212	-95.759315
600.644529	-96.045481
600.764895	-98.143097
600.885308	-94.922805
601.005770	-91.342419
601.126280	-94.609880
601.246839	-89.821074
601.367446	-91.317283
601.488101	-87.896107
601.608804	-90.317143
601.729557	-86.264894
601.850357	-88.435136
601.971206	-86.884696
602.092104	-86.570483
602.213050	-86.816455
602.334045	-85.846467
602.455089	-85.276780
602.576181	-84.473336
602.697322	-84.537456
602.818511	-83.250165
602.939749	-83.464338
603.061036	-83.396807
603.182372	-83.205523
603.303757	-83.473573
603.425191	-83.162029
603.546673	-82.601333
603.668204	-84.442497
603.789785	-84.195012
603.911414	-84.287798
604.033092	-84.153827
604.154820	-85.752471
604.276596	-86.615288
604.398422	-86.541282
604.520297	-88.050673
604.642220	-86.572921
604.764193	-91.451300
604.886216	-88.139746
605.008287	-93.989034
605.130408	-89.355588
605.252578	-102.466437
605.374798	-90.433677
605.497066	-92.063241
605.619385	-96.346598
605.741752	-90.563748
605.864169	-94.329448
605.986636	-89.520141
606.109152	-92.330087
606.231718	-86.972379
606.354333	-92.810300
606.476998	-87.847571
606.599712	-90.895078
606.722476	-87.989261
606.845290	-92.232766
606.968154	-89.256164
607.091067	-92.254580
607.214030	-90.384538
607.337043	-89.874961
607.460106	-98.218874
607.583219	-91.384857
607.706381	-100.784079
607.829594	-91.701197
607.952856	-102.506917
608.076169	-91.952541
608.199531	-101.083684
608.322944	-93.834845
608.446407	-93.423179
608.569920	-94.301478
608.693483	-91.826195
608.817096	-94.177548
608.940759	-89.172748
609.064473	-91.987934
609.188237	-87.829421
609.312051	-92.322619
609.435916	-88.555850
609.559831	-88.137976
609.683796	-88.354491
609.807812	-85.516215
609.931878	-89.264782
610.055995	-86.156739
610.180162	-89.013819
610.304380	-86.037909
610.428648	-88.853401
610.552967	-86.934144
610.677337	-86.604033
610.801757	-84.936260
610.926228	-85.349733
611.050750	-84.143599
611.175323	-83.780411
611.299946	-84.635284
611.424620	-82.516831
611.549345	-84.067419
611.674121	-82.711845
611.798948	-84.985617
611.923826	-84.534034
612.048755	-87.523634
612.173734	-84.569606
612.298765	-87.237927
612.423847	-87.128121
612.548980	-87.937737
612.674165	-87.177989
612.799400	-88.768438
612.924687	-91.889375
613.050025	-86.909603
613.175414	-95.855590
613.300854	-90.835305
613.426346	-103.502490
613.551889	-91.343454
613.677484	-92.827273
613.803130	-98.941617
613.928827	-96.037293
614.054576	-97.842509
614.180377	-88.466498
614.306229	-92.639011
614.432132	-88.039312
614.558087	-86.677049
614.684094	-86.356005
614.810153	-83.501842
614.936263	-84.000595
615.062425	-81.005291
615.188639	-83.640045
615.314904	-81.037187
615.441222	-82.796390
615.567591	-80.757524
615.694012	-81.652798
615.820486	-81.369691
615.947011	-82.157855
616.073588	-81.912401
616.200217	-82.229016
616.326898	-84.154544
616.453632	-84.494493
616.580417	-84.659915
616.707255	-85.908879
616.834144	-85.564236
616.961086	-84.635627
617.088081	-87.119022
617.215127	-86.924150
617.342226	-85.827571
617.469378	-83.908732
617.596581	-87.269475
617.723837	-84.388531
617.851146	-86.882132
617.978507	-83.854372
618.105920	-88.944596
618.233386	-85.880218
618.360905	-90.577364
618.488476	-87.893458
618.616100	-89.645057
618.743777	-86.427680
618.871506	-89.160758
618.999288	-84.204022
619.127123	-87.479066
619.255011	-83.300966
619.382951	-86.711831
619.510945	-82.886142
619.638991	-85.916338
619.767090	-82.154684
619.895243	-85.841128
620.023448	-83.561609
620.151706	-85.835781
620.280017	-80.999025
620.408382	-83.274625
620.536799	-81.382746
620.665270	-82.040497
620.793794	-81.472475
620.922371	-81.468162
621.051002	-81.336332
621.179686	-80.421365
621.308423	-82.035558
621.437213	-79.854792
621.566057	-82.006051
621.694954	-79.867953
621.823905	-82.630508
621.952909	-80.296204
622.081967	-83.083573
622.211079	-80.371149
622.340244	-81.884206
622.469462	-80.800650
622.598735	-82.483603
622.728061	-80.954244
622.857441	-80.965597
622.986874	-80.408301
623.116361	-80.575186
623.245903	-80.268668
623.375498	-80.072344
623.505147	-81.201563
623.634850	-79.813115
623.764606	-81.503010
623.894417	-81.223507
624.024282	-82.536083
624.154201	-79.960640
624.284174	-83.762993
624.414202	-81.439752
624.544283	-84.184575
624.674419	-80.879182
624.804609	-86.861683
624.934853	-81.431594
625.065151	-83.675873
625.195504	-83.830942
625.325911	-85.877879
625.456373	-83.542961
625.586889	-83.645240
625.717460	-87.967300
625.848085	-84.254608
625.978764	-87.533788
626.109498	-83.912102
626.240287	-86.905958
626.371131	-81.482923
626.502029	-87.418097
626.632982	-82.069198
626.763989	-85.936065
626.895052	-81.869632
627.026169	-89.868949
627.157341	-82.515844
627.288568	-89.267427
627.419850	-83.925754
627.551187	-96.643853
627.682579	-86.131690
627.814026	-93.341185
627.945528	-89.048867
628.077085	-98.047374
628.208697	-94.164256
628.340364	-94.021304
628.472087	-88.524137
628.603865	-95.396827
628.735698	-90.378142
628.867586	-91.305784
628.999530	-86.697658
629.131529	-89.816882
629.263584	-84.721338
629.395694	-93.243746
629.527859	-84.648399
629.660080	-89.469685
629.792357	-83.670323
629.924689	-95.402614
630.057077	-84.148260
630.189520	-96.923981
630.322019	-88.115887
630.454574	-99.973461
630.587184	-91.457729
630.719851	-90.019075
630.852573	-95.398789
630.985351	-86.867177
631.118185	-90.613002
631.251075	-83.880227
631.384021	-85.523514
631.517023	-83.292867
631.650081	-84.387490
631.783195	-82.907898
631.916365	-84.051320
632.049592	-81.312274
632.182874	-82.929848
632.316213	-83.064965
632.449608	-82.916487
632.583059	-81.888654
632.716567	-83.814949
632.850131	-81.605303
632.983751	-81.135358
633.117428	-82.673129
633.251161	-83.166578
633.384951	-83.638938
633.518797	-84.657496
633.652700	-87.120505
633.786660	-88.093449
633.920676	-94.085024
634.054749	-100.221514
634.188879	-103.188095
634.323065	-92.790460
634.457308	-91.305808
634.591608	-92.947717
634.725965	-90.775401
634.860379	-93.558924
634.994850	-86.859392
635.129377	-92.295832
635.263962	-87.300593
635.398604	-86.290892
635.533303	-84.170180
635.668058	-83.458544
635.802872	-86.627194
635.937742	-82.923587
636.072669	-82.499988
636.207654	-81.118624
636.342696	-81.661134
636.477796	-79.893289
636.612953	-83.307010
636.748167	-81.568778
636.883439	-81.475911
637.018768	-80.441260
637.154155	-82.677459
637.289599	-80.342470
637.425101	-81.369960
637.560660	-81.764919
637.696277	-81.888215
637.831952	-79.364405
637.967685	-81.207460
638.103475	-80.574050
638.239324	-79.981671
638.375230	-80.256395
638.511194	-82.821016
638.647215	-83.596667
638.783295	-84.681339
638.919433	-89.620653
639.055629	-90.677408
639.191883	-91.685809
639.328195	-88.323972
639.464565	-92.109249
639.600994	-86.338347
639.737481	-84.024175
639.874025	-83.269668
640.010629	-84.706016
640.147290	-82.447389
640.284010	-82.903048
640.420789	-83.013684
640.557625	-82.073589
640.694521	-80.955741
640.831474	-83.381670
640.968487	-83.967494
641.105558	-83.303064
641.242687	-85.211268
641.379876	-84.179846
641.517123	-83.485248
641.654429	-83.096807
641.791793	-85.729318
641.929216	-80.495376
642.066699	-82.806852
642.204240	-81.533365
642.341840	-82.872533
642.479499	-79.305112
642.617217	-81.809775
642.754994	-82.442641
642.892830	-81.458429
643.030726	-89.357506
643.168680	-97.155259
643.306694	-94.711919
643.444767	-90.706085
643.582899	-83.414147
643.721091	-88.234235
643.859342	-79.661254
643.997652	-80.625927
644.136022	-80.745508
644.274451	-83.002289
644.412940	-80.093436
644.551488	-83.774580
644.690096	-84.142656
644.828763	-82.757612
644.967490	-86.272241
645.106277	-84.648992
645.245124	-88.606918
645.384030	-80.625820
645.522997	-85.299887
645.662023	-80.338895
645.801109	-79.522292
645.940255	-76.870615
646.079460	-78.558001
646.218726	-76.200141
646.358052	-78.428404
646.497438	-77.633731
646.636884	-77.336447
646.776391	-77.055164
646.915957	-80.259989
647.055584	-79.964499
647.195271	-81.481002
647.335019	-92.303148
647.474826	-89.646828
647.614695	-90.464487
647.754623	-86.161933
647.894612	-95.531722
648.034662	-82.804515
648.174772	-88.400807
648.314943	-91.843872
648.455174	-100.803389
648.595466	-86.636186
648.735819	-96.014885
648.876233	-82.972997
649.016707	-95.119455
649.157242	-89.347505
649.297838	-85.422072
649.438495	-87.636312
649.579213	-82.233619
649.719992	-82.657502
649.860832	-89.651669
650.001733	-84.792976
650.142695	-89.288689
650.283718	-88.298187
650.424803	-95.435214
650.565949	-83.703816
650.707156	-82.999963
650.848424	-92.781183
650.989754	-88.933008
651.131145	-93.859450
651.272597	-87.844207
651.414111	-88.653740
651.555687	-91.771880
651.697324	-83.391496
651.839022	-79.609721
651.980782	-78.528022
652.122604	-75.165012
652.264488	-74.723002
652.406433	-77.859273
652.548441	-75.815982
652.690510	-76.976281
652.832640	-77.622101
652.974833	-78.640935
653.117088	-76.604232
653.259405	-83.766162
653.401784	-80.275285
653.544224	-82.078986
653.686727	-80.167394
653.829293	-83.600420
653.971920	-77.149321
654.114609	-78.506566
654.257361	-79.156119
654.400175	-77.060635
654.543052	-77.512896
654.685991	-78.193634
654.828992	-75.839199
654.972056	-75.515769
655.115183	-79.985532
655.258372	-77.378695
655.401623	-79.402673
655.544937	-80.904312
655.688314	-81.517098
655.831754	-78.038433
655.975256	-80.254801
656.118822	-81.916151
656.262450	-77.398420
656.406141	-78.792669
656.549894	-77.594756
656.693711	-77.403320
656.837591	-74.395995
656.981534	-76.990897
657.125540	-73.641340
657.269610	-72.577796
657.413742	-73.145902
657.557938	-73.112568
657.702196	-72.120787
657.846519	-74.461723
657.990904	-73.286145
658.135353	-74.170892
658.279866	-78.026639
658.424441	-79.671394
658.569081	-81.298096
658.713784	-81.674333
658.858550	-80.318924
659.003381	-75.967591
659.148274	-72.656583
659.293232	-73.651670
659.438253	-73.009457
659.583339	-72.367164
659.728488	-73.343716
659.873701	-74.218318
660.018978	-73.254135
660.164318	-75.110038
660.309723	-77.043375
660.455192	-76.189631
660.600725	-75.972062
660.746323	-76.283143
660.891984	-79.412674
661.037710	-74.927232
661.183500	-78.657374
661.329354	-77.706077
661.475272	-76.018589
661.621255	-73.068737
661.767303	-73.636878
661.913415	-72.747755
662.059591	-72.284736
662.205833	-79.236127
662.352138	-77.843603
662.498509	-80.613564
662.644944	-82.100992
662.791443	-85.739267
662.938008	-81.598943
663.084638	-86.358601
663.231332	-107.312631
663.378091	-86.653116
663.524915	-88.835503
663.671804	-83.822959
663.818759	-78.607055
663.965778	-77.772308
664.112863	-73.824553
664.260012	-75.754071
664.407227	-81.985617
664.554507	-76.673151
664.701853	-79.979922
664.849264	-76.846241
664.996740	-77.882325
665.144282	-76.475846
665.291889	-81.158285
665.439561	-77.979724
665.587300	-76.376880
665.735103	-80.088691
665.882973	-77.105636
666.030908	-76.654062
666.178909	-76.671064
666.326976	-74.771921
666.475109	-75.062023
666.623307	-81.741275
666.771571	-83.420897
666.919902	-84.442793
667.068298	-80.989928
667.216761	-78.893501
667.365289	-82.368727
667.513884	-86.307671
667.662545	-84.301251
667.811272	-84.200023
667.960065	-88.121669
668.108925	-80.329669
668.257851	-81.933221
668.406843	-83.519108
668.555902	-88.842151
668.705027	-91.064415
668.854219	-78.143645
669.003478	-85.297774
669.152803	-75.250233
669.302195	-76.311289
669.451653	-78.581884
669.601179	-80.400783
669.750771	-80.843630
669.900430	-81.661434
670.050156	-79.282193
670.199949	-77.498545
670.349808	-84.042565
670.499735	-83.234949
670.649729	-80.667950
670.799790	-89.324463
670.949918	-82.981753
671.100114	-84.999504
671.250377	-83.464135
671.400707	-76.301036
671.551104	-81.640389
671.701569	-78.564570
671.852101	-81.718167
672.002700	-84.415940
672.153368	-79.444127
672.304102	-86.344823
672.454905	-91.298111
672.605775	-87.393572
672.756713	-82.899652
672.907718	-90.762452
673.058791	-92.591954
673.209933	-83.412443
673.361142	-85.022894
673.512419	-89.085630
673.663764	-83.218763
673.815177	-81.891788
673.966658	-82.459569
674.118207	-86.438479
674.269825	-85.090663
674.421510	-103.423703
674.573264	-79.909602
674.725086	-114.429193
674.876977	-91.260724
675.028936	-85.405216
675.180963	-83.005290
675.333059	-81.636216
675.485224	-84.350507
675.637457	-88.685399
675.789758	-80.538126
675.942129	-77.248304
676.094568	-83.998708
676.247075	-100.290021
676.399652	-99.130480
676.552298	-80.991607
676.705012	-81.569040
676.857795	-81.574498
677.010648	-76.383414
677.163569	-83.748757
677.316560	-79.548173
677.469619	-75.517446
677.622748	-75.565350
677.775946	-72.008800
677.929214	-77.385896
678.082551	-81.544926
678.235957	-79.152706
678.389432	-76.652616
678.542977	-76.604872
678.696592	-80.067633
678.850276	-99.676723
679.004030	-86.121892
679.157853	-83.472455
679.311746	-84.141441
679.465709	-86.093854
679.619742	-85.230582
679.773844	-78.229237
679.928017	-80.945610
680.082259	-80.400397
680.236571	-84.741245
680.390954	-80.832396
680.545406	-78.382615
680.699929	-73.813220
680.854522	-83.378717
681.009185	-80.040044
681.163918	-85.811594
681.318722	-78.770895
681.473596	-88.241667
681.628540	-85.235321
681.783555	-83.492637
681.938641	-90.162028
682.093797	-83.780338
682.249023	-85.322007
682.404321	-96.331580
682.559689	-91.446541
682.715128	-79.923393
682.870637	-77.846561
683.026218	-77.684939
683.181869	-80.852674
683.337591	-80.299226
683.493385	-81.518736
683.649249	-74.649447
683.805185	-78.738111
683.961191	-88.473220
684.117269	-76.337741
684.273418	-80.188139
684.429639	-84.138992
684.585930	-89.296918
684.742294	-76.960719
684.898728	-83.371591
685.055234	-81.041965
685.211812	-83.475727
685.368461	-83.203321
685.525182	-81.793702
685.681975	-78.131626
685.838839	-81.274044
685.995775	-83.295491
686.152783	-83.685868
686.309863	-78.271460
686.467014	-77.758180
686.624238	-72.975875
686.781534	-79.838147
686.938902	-93.380576
687.096342	-84.387203
687.253854	-76.413824
687.411438	-82.972774
687.569095	-77.992318
687.726824	-76.330878
687.884626	-84.948568
688.042499	-83.121658
688.200446	-81.955030
688.358465	-80.083101
688.516556	-80.174330
688.674720	-82.294152
688.832957	-74.677120
688.991266	-74.981955
689.149649	-77.995790
689.308104	-74.642673
689.466632	-78.625954
689.625233	-80.010940
689.783906	-75.315994
689.942653	-75.044570
690.101473	-75.630458
690.260367	-76.003860
690.419333	-91.947222
690.578372	-87.596589
690.737485	-76.206505
690.896672	-78.211574
691.055931	-78.863981
691.215264	-81.163703
691.374671	-79.712601
691.534151	-80.085002
691.693704	-89.029796
691.853332	-87.339178
692.013033	-78.324632
692.172807	-75.154839
692.332656	-78.238588
692.492578	-72.048122
692.652575	-78.966033
692.812645	-91.975555
692.972789	-77.968902
693.133007	-73.449244
693.293300	-79.223389
693.453666	-74.567196
693.614107	-76.605916
693.774622	-83.097686
693.935211	-78.020837
694.095875	-89.784427
694.256613	-86.565696
694.417426	-75.271395
694.578313	-81.044686
694.739274	-75.483181
694.900311	-75.726003
695.061421	-80.055465
695.222607	-73.282877
695.383868	-72.206082
695.545203	-78.954716
695.706613	-82.199105
695.868098	-74.830169
696.029658	-75.184811
696.191293	-75.674262
696.353003	-75.620042
696.514789	-87.820562
696.676649	-100.540522
696.838585	-82.342149
697.000596	-75.963888
697.162682	-80.365371
697.324844	-74.722688
697.487081	-76.415334
697.649394	-77.403007
697.811782	-79.404109
697.974246	-76.195374
698.136786	-76.837934
698.299401	-83.646761
698.462092	-76.777620
698.624859	-79.439386
698.787702	-72.656055
698.950621	-73.174263
699.113616	-74.315042
699.276686	-79.402586
699.439833	-76.227764
699.603056	-74.719126
699.766355	-69.538922
699.929731	-72.110130
700.093183	-77.800881
700.256711	-75.176427
700.420315	-73.739548
700.583996	-84.551909
700.747754	-86.206816
700.911588	-73.550978
701.075499	-74.457666
701.239486	-70.762623
701.403550	-72.878099
701.567691	-79.502611
701.731909	-86.723533
701.896203	-73.516376
702.060575	-73.502858
702.225024	-71.720042
702.389549	-70.413190
702.554152	-75.634608
702.718832	-73.737201
702.883589	-74.121878
703.048424	-80.439429
703.213335	-78.877067
703.378324	-71.227840
703.543391	-73.103766
703.708535	-86.230054
703.873757	-97.198263
704.039056	-75.076622
704.204433	-74.785855
704.369887	-83.164349
704.535420	-77.202010
704.701030	-70.952218
704.866718	-75.266083
705.032484	-80.348294
705.198328	-73.083541
705.364250	-74.117408
705.530250	-82.126003
705.696328	-76.156843
705.862485	-71.138423
706.028720	-74.333157
706.195033	-73.632438
706.361424	-74.501457
706.527894	-79.261890
706.694442	-73.928375
706.861069	-77.159153
707.027775	-81.443331
707.194559	-76.398119
707.361422	-70.722818
707.528363	-69.546701
707.695384	-66.230863
707.862483	-65.823529
708.029661	-69.326129
708.196918	-70.618234
708.364254	-71.895051
708.531670	-84.921943
708.699164	-88.064096
708.866738	-86.227162
709.034391	-76.840483
709.202123	-80.257740
709.369935	-70.900652
709.537826	-71.493272
709.705796	-67.927869
709.873847	-69.709857
710.041976	-74.712978
710.210186	-74.246723
710.378475	-75.226447
710.546844	-83.257147
710.715292	-80.210041
710.883821	-75.752704
711.052429	-72.549790
711.221118	-86.520343
711.389887	-73.859101
711.558735	-72.883164
711.727664	-68.423318
711.896673	-69.290997
712.065763	-72.625471
712.234932	-73.544873
712.404183	-72.859759
712.573513	-74.452614
712.742924	-75.179724
712.912416	-71.163022
713.081988	-72.864500
713.251641	-83.197471
713.421375	-76.454380
713.591190	-73.959771
713.761085	-70.385845
713.931061	-71.601845
714.101119	-72.548437
714.271257	-69.073735
714.441476	-67.997542
714.611777	-70.830118
714.782159	-72.681598
714.952622	-69.800710
715.123166	-72.231830
715.293792	-84.922218
715.464499	-93.804112
715.635288	-78.145969
715.806158	-71.752542
715.977110	-71.921471
716.148143	-71.858308
716.319259	-68.759585
716.490456	-66.670381
716.661735	-68.764186
716.833096	-70.858615
717.004538	-68.679902
717.176063	-69.289019
717.347670	-74.327912
717.519359	-82.496471
717.691130	-80.482382
717.862984	-74.537828
718.034920	-75.913925
718.206938	-72.270551
718.379039	-70.424119
718.551222	-68.079833
718.723488	-69.897450
718.895836	-71.810081
719.068267	-71.416374
719.240781	-70.505989
719.413377	-79.119301
719.586057	-83.333001
719.758819	-80.001635
719.931664	-74.899336
720.104593	-69.150304
720.277604	-66.579955
720.450699	-65.963933
720.623876	-65.436553
720.797137	-66.152494
720.970482	-68.364919
721.143910	-68.872779
721.317421	-67.537320
721.491016	-71.851587
721.664694	-76.919864
721.838456	-79.387470
722.012302	-73.926961
722.186231	-67.700371
722.360244	-66.445877
722.534342	-67.979263
722.708523	-69.304060
722.882788	-68.876410
723.057137	-69.955716
723.231570	-73.036575
723.406088	-78.350028
723.580689	-79.166843
723.755375	-71.547359
723.930146	-71.825247
724.105000	-69.933808
724.279940	-68.590149
724.454963	-67.143253
724.630072	-70.218979
724.805265	-72.694616
724.980543	-73.924739
725.155905	-73.279803
725.331353	-74.814339
725.506885	-73.366934
725.682503	-69.859628
725.858205	-68.613736
726.033993	-67.074232
726.209865	-67.789675
726.385823	-68.458073
726.561866	-68.516477
726.737995	-68.091733
726.914209	-69.945145
727.090508	-72.232977
727.266893	-74.617679
727.443364	-70.419241
727.619920	-68.262727
727.796562	-68.380480
727.973290	-68.850438
728.150103	-67.105469
728.327003	-66.601410
728.503988	-68.638559
728.681060	-72.296782
728.858218	-72.566156
729.035461	-71.502945
729.212791	-73.699502
729.390208	-69.863731
729.567710	-68.373049
729.745299	-67.584747
729.922975	-66.208410
730.100737	-64.292638
730.278586	-64.824044
730.456521	-66.732997
730.634543	-67.596072
730.812652	-68.966769
730.990848	-68.690575
731.169130	-75.737776
731.347500	-71.532234
731.525957	-67.864307
731.704500	-67.568371
731.883131	-69.341427
732.061850	-67.775572
732.240655	-66.517876
732.419548	-69.096483
732.598528	-71.721320
732.777596	-72.565620
732.956751	-70.011620
733.135994	-70.511186
733.315325	-65.533284
733.494744	-64.524957
733.674250	-64.012762
733.853844	-65.519518
734.033526	-65.370308
734.213296	-66.283493
734.393154	-69.179631
734.573101	-72.785154
734.753135	-70.686476
734.933258	-67.591179
735.113469	-69.205980
735.293769	-66.872879
735.474157	-64.555155
735.654633	-63.867856
735.835198	-66.581231
736.015852	-66.272314
736.196594	-66.690496
736.377426	-67.933603
736.558346	-68.999934
736.739355	-65.969896
736.920453	-65.205395
737.101640	-67.350634
737.282916	-70.466590
737.464282	-69.383296
737.645736	-70.384672
737.827280	-74.250225
738.008914	-68.923569
738.190637	-66.856018
738.372449	-70.097299
738.554351	-72.828032
738.736342	-68.014796
738.918424	-65.290362
739.100595	-65.449569
739.282855	-67.503884
739.465206	-66.710122
739.647647	-69.285303
739.830178	-71.087889
740.012799	-65.417637
740.195510	-63.139951
740.378311	-65.648599
740.561203	-68.815122
740.744185	-68.160389
740.927258	-66.798682
741.110421	-66.648683
741.293674	-65.269685
741.477018	-64.259803
741.660453	-65.983301
741.843979	-70.343599
742.027596	-67.924276
742.211303	-66.909835
742.395102	-71.955002
742.578991	-68.885222
742.762972	-66.572516
742.947044	-67.344776
743.131207	-70.572645
743.315461	-65.838292
743.499807	-63.651770
743.684244	-64.939508
743.868773	-67.366115
744.053394	-66.266119
744.238106	-67.682069
744.422910	-76.982004
744.607805	-66.378851
744.792793	-63.866856
744.977872	-64.793547
745.163044	-66.275331
745.348307	-67.489092
745.533663	-69.390746
745.719111	-79.712845
745.904651	-68.752791
746.090283	-65.282666
746.276008	-65.168093
746.461826	-66.296652
746.647735	-64.638313
746.833738	-67.153206
747.019833	-76.152196
747.206021	-72.701280
747.392302	-64.673801
747.578676	-63.409484
747.765143	-65.026297
747.951703	-65.354632
748.138356	-66.140616
748.325102	-68.705588
748.511941	-77.616134
748.698874	-66.483196
748.885900	-68.394943
749.073019	-74.748395
749.260232	-74.693569
749.447539	-69.695825
749.634939	-70.797966
749.822433	-67.676880
750.010021	-65.519486
750.197703	-66.617591
750.385479	-70.266841
750.573348	-66.663270
750.761312	-65.062953
750.949370	-76.796877
751.137523	-73.568162
751.325769	-71.154979
751.514110	-70.175063
751.702545	-69.573276
751.891075	-64.473096
752.079700	-64.416747
752.268419	-69.552983
752.457233	-76.193829
752.646142	-67.603216
752.835145	-66.810011
753.024244	-70.685009
753.213437	-68.846430
753.402726	-72.721322
753.592110	-76.090546
753.781589	-82.332495
753.971163	-69.916270
754.160833	-70.544772
754.350598	-70.304237
754.540459	-68.477277
754.730415	-68.459741
754.920467	-70.529838
755.110615	-68.821395
755.300858	-69.397683
755.491198	-84.029486
755.681633	-74.898353
755.872164	-69.546415
756.062792	-69.010251
756.253515	-66.674355
756.444335	-65.061849
756.635252	-66.880755
756.826264	-71.338624
757.017373	-77.175327
757.208579	-68.209467
757.399881	-69.207207
757.591280	-69.181555
757.782776	-68.323928
757.974368	-66.441258
758.166058	-67.001095
758.357844	-66.989680
758.549728	-69.858359
758.741708	-71.988217
758.933786	-69.639752
759.125961	-67.240678
759.318233	-66.896688
759.510603	-67.111987
759.703071	-68.011517
759.895635	-67.725586
760.088298	-67.506185
760.281058	-67.708832
760.473916	-67.893630
760.666872	-67.121787
760.859926	-64.893953
761.053078	-66.910640
761.246328	-64.997438
761.439676	-61.761977
761.633122	-61.711876
761.826667	-64.883800
762.020310	-65.195697
762.214052	-65.537103
762.407892	-66.665970
762.601831	-65.544713
762.795868	-66.053055
762.990004	-67.806848
763.184239	-68.405344
763.378573	-63.372332
763.573006	-62.217953
763.767538	-64.626070
763.962169	-62.679830
764.156900	-61.685176
764.351729	-65.441192
764.546658	-62.325217
764.741687	-60.563153
764.936815	-62.305930
765.132042	-66.060767
765.327370	-60.706977
765.522797	-60.636663
765.718324	-63.099995
765.913950	-62.389956
766.109677	-60.475354
766.305504	-63.006283
766.501431	-64.302042
766.697458	-59.107053
766.893586	-59.981951
767.089814	-63.090750
767.286142	-60.935912
767.482571	-60.144854
767.679100	-61.827535
767.875730	-61.535423
768.072461	-60.403428
768.269293	-62.636107
768.466225	-65.444999
768.663259	-59.681700
768.860393	-59.710153
769.057629	-59.613084
769.254966	-57.352924
769.452404	-56.593413
769.649944	-59.136874
769.847585	-59.052045
770.045328	-58.324143
770.243172	-60.077980
770.441118	-62.241904
770.639166	-61.174833
770.837315	-59.061997
771.035567	-59.088870
771.233920	-59.095083
771.432376	-58.738426
771.630934	-59.315825
771.829594	-60.024120
772.028356	-59.581793
772.227220	-59.426267
772.426188	-58.753921
772.625257	-61.073677
772.824430	-59.199107
773.023705	-57.200679
773.223083	-57.556653
773.422563	-58.438570
773.622147	-56.484086
773.821834	-57.554648
774.021624	-58.621894
774.221517	-58.001649
774.421513	-56.904834
774.621613	-58.822269
774.821816	-57.954147
775.022122	-55.291790
775.222532	-56.326084
775.423046	-58.514282
775.623664	-56.216684
775.824385	-56.929203
776.025211	-59.686368
776.226140	-57.966353
776.427173	-56.037709
776.628311	-57.003072
776.829553	-58.320757
777.030899	-57.755220
777.232350	-58.545724
777.433905	-57.915543
777.635564	-56.871450
777.837328	-56.234581
778.039197	-56.661858
778.241171	-55.969109
778.443250	-55.795290
778.645433	-56.014314
778.847722	-57.088747
779.050116	-58.844908
779.252615	-58.058922
779.455219	-55.037623
779.657929	-55.637205
779.860744	-55.554113
780.063665	-54.433504
780.266691	-56.125302
780.469823	-59.005534
780.673061	-56.694822
780.876405	-58.897641
781.079855	-59.903689
781.283410	-56.195361
781.487072	-54.559233
781.690840	-54.618692
781.894715	-53.001693
782.098695	-52.493673
782.302783	-54.657451
782.506976	-56.211290
782.711277	-54.642103
782.915684	-55.399820
783.120198	-58.335917
783.324818	-57.233574
783.529546	-56.475220
783.734381	-56.465025
783.939322	-55.558042
784.144372	-55.418540
784.349528	-54.912254
784.554792	-55.656423
784.760163	-55.889652
784.965642	-53.780933
785.171228	-53.692778
785.376922	-54.802078
785.582724	-54.442638
785.788634	-53.863007
785.994651	-56.516322
786.200777	-57.642812
786.407011	-56.278383
786.613353	-56.710282
786.819804	-57.521518
787.026363	-53.728313
787.233030	-53.351247
787.439806	-54.758872
787.646691	-54.742866
787.853684	-54.785180
788.060786	-55.165934
788.267997	-55.532238
788.475317	-57.528961
788.682746	-55.161409
788.890285	-53.588802
789.097932	-54.147766
789.305689	-54.143833
789.513555	-53.386441
789.721531	-55.254176
789.929617	-55.552776
790.137812	-55.619824
790.346117	-56.367045
790.554531	-55.947997
790.763056	-53.391782
790.971691	-54.261803
791.180436	-54.227614
791.389291	-51.854693
791.598256	-52.590907
791.807332	-56.182884
792.016518	-53.909205
792.225815	-54.555447
792.435222	-55.839528
792.644740	-55.028737
792.854369	-54.327968
793.064109	-54.192924
793.273960	-53.333047
793.483922	-54.174889
793.693995	-53.936494
793.904180	-54.547224
794.114475	-55.324904
794.324882	-54.450351
794.535401	-53.769742
794.746031	-55.019996
794.956774	-54.325644
795.167627	-53.847520
795.378593	-53.606539
795.589671	-52.612170
795.800861	-52.238326
796.012162	-54.209489
796.223577	-52.562976
796.435103	-53.096350
796.646742	-54.299110
796.858493	-53.965008
797.070357	-53.046560
797.282334	-54.555004
797.494423	-54.151150
797.706626	-53.153079
797.918941	-53.722029
798.131369	-53.825830
798.343911	-52.477319
798.556566	-52.177997
798.769334	-51.507786
798.982215	-52.577644
799.195210	-53.130255
799.408319	-53.611694
799.621541	-55.873475
799.834877	-55.050313
800.048327	-52.607840
800.261890	-53.905753
800.475568	-52.513379
800.689360	-50.739607
800.903266	-51.356155
801.117287	-52.296367
801.331422	-51.808374
801.545671	-52.710810
801.760036	-52.077219
801.974514	-52.399123
802.189108	-52.723037
802.403816	-53.605385
802.618640	-53.599184
802.833578	-53.561730
803.048632	-52.363096
803.263800	-52.365105
803.479085	-51.806730
803.694484	-50.482014
803.909999	-49.943512
804.125630	-50.968295
804.341376	-50.900587
804.557239	-52.096982
804.773217	-53.253134
804.989311	-52.197575
805.205521	-52.580414
805.421847	-53.081488
805.638290	-51.488042
805.854849	-51.145511
806.071524	-50.950299
806.288316	-51.236603
806.505225	-51.517751
806.722250	-50.801955
806.939393	-51.423862
807.156652	-50.804281
807.374028	-48.895880
807.591521	-50.034151
807.809132	-51.710824
808.026859	-50.885965
808.244705	-51.405263
808.462667	-52.006130
808.680748	-51.905339
808.898946	-51.606884
809.117261	-50.289206
809.335695	-49.931063
809.554246	-50.845971
809.772916	-50.326758
809.991704	-50.213521
810.210610	-50.073434
810.429634	-49.286498
810.648777	-49.717311
810.868039	-50.133464
811.087419	-49.410543
811.306918	-50.570201
811.526535	-50.263786
811.746272	-50.688504
811.966127	-51.587786
812.186102	-50.471983
812.406196	-50.327496
812.626409	-51.494047
812.846742	-49.765264
813.067194	-49.949853
813.287766	-49.703511
813.508457	-49.778918
813.729269	-49.778476
813.950200	-49.324392
814.171251	-50.220635
814.392422	-50.042258
814.613714	-47.915214
814.835126	-48.726254
815.056658	-49.524154
815.278311	-49.448091
815.500084	-49.592396
815.721978	-49.951167
815.943993	-51.151790
816.166128	-51.343371
816.388385	-49.579054
816.610762	-49.652891
816.833261	-50.191871
817.055881	-49.257799
817.278623	-49.948235
817.501486	-49.325948
817.724471	-48.817816
817.947577	-49.213171
818.170805	-49.422071
818.394155	-49.006281
818.617627	-48.967685
818.841221	-47.766449
819.064937	-48.412142
819.288775	-48.868009
819.512736	-48.456831
819.736819	-48.131706
819.961025	-48.460023
820.185354	-49.119793
820.409805	-50.061266
820.634379	-48.493419
820.859076	-48.833342
821.083897	-50.401917
821.308840	-50.568747
821.533907	-49.670637
821.759097	-48.920675
821.984411	-48.982565
822.209848	-50.086199
822.435409	-48.999625
822.661093	-48.168280
822.886902	-48.820501
823.112834	-47.998208
823.338891	-48.305494
823.565072	-48.500259
823.791377	-48.389835
824.017807	-49.056738
824.244361	-48.867650
824.471039	-47.872230
824.697843	-48.892438
824.924771	-47.901180
825.151824	-47.977902
825.379002	-48.500663
825.606306	-48.529167
825.833734	-49.597698
826.061288	-48.914486
826.288967	-47.476412
826.516772	-48.341854
826.744703	-49.113540
826.972759	-49.690655
827.200941	-49.240411
827.429249	-47.793627
827.657683	-49.264167
827.886243	-50.247357
828.114930	-48.970329
828.343743	-48.305980
828.572682	-48.638076
828.801748	-49.121031
829.030941	-49.784003
829.260260	-48.917909
829.489706	-48.154285
829.719280	-48.288959
829.948980	-49.874724
830.178808	-49.546806
830.408763	-48.635816
830.638845	-48.634966
830.869055	-48.318894
831.099393	-49.629479
831.329858	-49.654401
831.560451	-47.810304
831.791173	-47.288870
832.022022	-48.675909
832.252999	-49.229642
832.484105	-49.471011
832.715339	-47.666469
832.946702	-47.638961
833.178193	-48.243030
833.409813	-48.078489
833.641561	-47.851284
833.873439	-47.693856
834.105445	-48.340637
834.337581	-49.758317
834.569846	-48.849051
834.802241	-47.521756
835.034764	-47.489417
835.267418	-47.380457
835.500201	-49.511254
835.733114	-49.059985
835.966157	-47.763833
836.199329	-47.723199
836.432632	-47.823134
836.666065	-48.270218
836.899629	-48.393994
837.133323	-47.885161
837.367147	-47.174240
837.601102	-47.722661
837.835188	-48.269315
838.069405	-48.134192
838.303752	-47.850087
838.538231	-47.237429
838.772841	-47.190701
839.007582	-48.566003
839.242455	-48.141634
839.477459	-48.258613
839.712595	-47.623549
839.947863	-46.773423
840.183263	-47.621672
840.418794	-48.075758
840.654458	-47.761897
840.890254	-47.321757
841.126182	-46.700712
841.362242	-47.288086
841.598435	-48.103380
841.834761	-47.013039
842.071220	-46.565452
842.307811	-46.157976
842.544536	-47.468955
842.781393	-47.646724
843.018384	-46.572197
843.255508	-46.149411
843.492765	-45.561912
843.730156	-46.848409
843.967681	-47.829216
844.205339	-46.976745
844.443132	-45.523530
844.681058	-45.006169
844.919118	-45.787092
845.157313	-47.227127
845.395642	-46.920633
845.634105	-45.534738
845.872703	-44.599071
846.111436	-45.061110
846.350303	-46.026302
846.589306	-46.592297
846.828443	-46.216439
847.067716	-44.763746
847.307124	-45.190874
847.546667	-45.021293
847.786345	-45.440829
848.026160	-45.403450
848.266110	-44.956618
848.506195	-44.654251
848.746417	-44.447787
848.986775	-44.381705
849.227269	-44.538647
849.467899	-44.411296
849.708666	-44.694110
849.949569	-43.839028
850.190609	-43.602321
850.431785	-43.929969
850.673099	-44.281332
850.914549	-44.799780
851.156137	-43.605840
851.397861	-43.487924
851.639723	-43.547613
851.881723	-43.648585
852.123860	-44.154718
852.366135	-42.645037
852.608547	-42.628148
852.851098	-42.257254
853.093786	-42.833740
853.336613	-43.359371
853.579578	-43.070396
853.822681	-42.696266
854.065923	-42.192829
854.309304	-42.481721
854.552823	-42.392371
854.796481	-42.286533
855.040278	-42.409153
855.284215	-42.140027
855.528290	-42.148185
855.772505	-42.108644
856.016859	-41.769266
856.261353	-41.945339
856.505987	-41.584965
856.750760	-41.690137
856.995673	-41.384012
857.240727	-41.027134
857.485920	-41.154280
857.731254	-40.808631
857.976729	-41.565757
858.222343	-41.432148
858.468099	-41.875768
858.713995	-41.249350
858.960032	-40.322949
859.206211	-40.563328
859.452530	-40.336706
859.698991	-41.240970
859.945593	-40.902453
860.192336	-40.382809
860.439222	-40.112565
860.686248	-40.086856
860.933417	-41.075423
861.180728	-40.459964
861.428181	-40.321756
861.675776	-39.735543
861.923514	-39.818219
862.171394	-40.042631
862.419417	-39.792765
862.667582	-39.983595
862.915890	-39.514162
863.164342	-39.572656
863.412936	-39.355902
863.661674	-39.402785
863.910555	-39.557756
864.159579	-39.478198
864.408747	-39.577951
864.658059	-39.152939
864.907515	-38.933772
865.157114	-38.791784
865.406858	-38.747053
865.656746	-39.021935
865.906778	-38.736116
866.156955	-39.006384
866.407277	-38.913596
866.657743	-38.836493
866.908354	-38.836648
867.159110	-38.477264
867.410011	-38.523882
867.661057	-38.187336
867.912249	-38.554162
868.163586	-38.367897
868.415069	-38.395110
868.666697	-38.277074
868.918472	-38.031614
869.170392	-38.098500
869.422458	-38.112335
869.674671	-38.220909
869.927030	-38.215850
870.179536	-37.821235
870.432188	-37.791044
870.684987	-37.584669
870.937933	-37.990886
871.191026	-37.772439
871.444266	-37.662902
871.697653	-37.549124
871.951188	-37.571097
872.204870	-37.907890
872.458700	-37.228945
872.712677	-37.568696
872.966803	-37.209017
873.221076	-37.663922
873.475498	-37.396480
873.730068	-37.278031
873.984787	-37.263654
874.239654	-36.933307
874.494669	-37.339189
874.749834	-36.738757
875.005147	-37.172764
875.260610	-36.926880
875.516222	-37.283827
875.771983	-37.093143
876.027894	-36.872066
876.283954	-36.783729
876.540164	-36.616971
876.796524	-36.721338
877.053033	-36.682083
877.309693	-36.882553
877.566503	-36.886096
877.823464	-36.660434
878.080575	-36.638788
878.337837	-36.488550
878.595249	-36.532723
878.852813	-36.518897
879.110528	-36.594354
879.368393	-36.567225
879.626410	-36.358166
879.884579	-36.346743
880.142899	-36.075735
880.401371	-36.366174
880.659994	-36.221765
880.918770	-36.480359
881.177698	-36.260204
881.436778	-36.185343
881.696010	-36.083728
881.955395	-36.091808
882.214933	-36.247786
882.474623	-36.090721
882.734467	-36.254778
882.994463	-35.986069
883.254613	-36.357846
883.514916	-35.787409
883.775372	-36.019088
884.035982	-35.752462
884.296746	-36.206286
884.557664	-35.977058
884.818735	-35.884159
885.079961	-35.755647
885.341341	-35.568606
885.602876	-36.133352
885.864565	-35.564196
886.126409	-36.061736
886.388407	-35.519508
886.650561	-35.846670
886.912870	-35.648607
887.175334	-35.545252
887.437953	-35.931372
887.700728	-35.487965
887.963658	-35.871222
888.226745	-35.153432
888.489987	-35.615477
888.753385	-35.409448
889.016940	-35.671252
889.280651	-35.633741
889.544518	-35.506640
889.808543	-35.512553
890.072723	-35.185914
890.337061	-35.532300
890.601556	-35.327531
890.866208	-35.782478
891.131017	-35.337894
891.395984	-35.568714
891.661109	-35.145911
891.926391	-35.594281
892.191831	-35.182108
892.457429	-35.372882
892.723186	-35.389069
892.989100	-35.222116
893.255173	-35.609890
893.521405	-35.084735
893.787796	-35.561725
894.054345	-35.159421
894.321053	-35.495209
894.587921	-35.240696
894.854948	-35.260162
895.122134	-35.335010
895.389480	-35.294571
895.656986	-35.390334
895.924651	-35.151161
896.192477	-35.306552
896.460463	-35.228011
896.728609	-35.359117
896.996915	-35.352743
897.265382	-35.133823
897.534010	-35.283519
897.802799	-35.397092
898.071749	-35.204323
898.340860	-35.318033
898.610132	-35.010122
898.879566	-35.412937
899.149162	-35.068398
899.418919	-35.351339
899.688838	-35.104397
899.958919	-35.325973
900.229162	-35.186448
900.499568	-35.159912
900.770136	-35.427727
901.040867	-35.130664
901.311761	-35.442431
901.582817	-34.947733
901.854037	-35.353198
902.125420	-34.906642
902.396966	-35.484186
902.668676	-34.922933
902.940550	-35.484636
903.212587	-35.049532
903.484788	-35.225323
903.757153	-35.315511
904.029683	-35.141944
904.302377	-35.597243
904.575236	-34.770644
904.848259	-35.549751
905.121447	-34.849191
905.394800	-35.594767
905.668319	-35.164486
905.942002	-35.263327
906.215852	-35.433358
906.489866	-35.260732
906.764047	-35.280546
907.038393	-35.250969
907.312906	-35.084631
907.587584	-35.392035
907.862429	-35.004127
908.137441	-35.396413
908.412619	-35.168464
908.687964	-35.222153
908.963476	-35.405313
909.239155	-34.984132
909.515002	-35.368953
909.791015	-35.049861
910.067197	-35.546531
910.343546	-34.912298
910.620063	-35.491654
910.896748	-34.833406
911.173601	-35.575510
911.450623	-34.939391
911.727813	-35.466207
912.005171	-34.988460
912.282699	-35.247858
912.560395	-35.026313
912.838261	-35.038045
913.116296	-35.067560
913.394500	-34.905865
913.672874	-35.219389
913.951418	-34.837107
914.230131	-35.154066
914.509015	-34.968807
914.788068	-34.903374
915.067292	-35.026108
915.346687	-34.909224
915.626252	-34.938764
915.905988	-34.976486
916.185895	-34.794769
916.465973	-35.171884
916.746223	-34.573989
917.026644	-35.240269
917.307236	-34.471083
917.588000	-35.204047
917.868937	-34.404698
918.150045	-34.886119
918.431325	-34.652095
918.712778	-34.681082
918.994404	-34.585163
919.276202	-34.534988
919.558173	-34.591628
919.840317	-34.608009
920.122634	-34.390923
920.405125	-34.578181
920.687789	-34.270735
920.970627	-34.566988
921.253639	-34.347856
921.536824	-34.329353
921.820184	-34.418528
922.103718	-34.321626
922.387427	-34.176335
922.671310	-34.351602
922.955368	-34.156594
923.239601	-34.014172
923.524009	-34.312713
923.808592	-33.819250
924.093351	-34.357494
924.378285	-33.811815
924.663396	-33.983824
924.948682	-34.039903
925.234144	-33.607294
925.519782	-34.108397
925.805597	-33.875372
926.091589	-33.698794
926.377757	-33.990634
926.664102	-33.495160
926.950624	-34.105287
927.237323	-33.643232
927.524200	-33.962275
927.811255	-33.503187
928.098487	-33.981004
928.385897	-33.309688
928.673485	-34.001578
928.961251	-33.410530
929.249196	-33.774272
929.537319	-33.394822
929.825621	-33.459452
930.114102	-33.399797
930.402762	-33.332471
930.691601	-33.193377
930.980620	-33.355640
931.269818	-33.030828
931.559196	-33.399085
931.848753	-32.765557
932.138491	-33.440300
932.428409	-32.629707
932.718508	-33.220821
933.008787	-32.798548
933.299246	-33.081201
933.589887	-32.806181
933.880709	-32.705029
934.171712	-32.845363
934.462896	-32.733581
934.754262	-32.392160
935.045810	-33.034299
935.337539	-32.003029
935.629451	-33.008530
935.921545	-31.954709
936.213822	-32.648855
936.506281	-32.105468
936.798922	-32.299849
937.091747	-31.935076
937.384755	-32.216333
937.677946	-31.810570
937.971321	-32.081281
938.264879	-31.813188
938.558621	-31.903462
938.852547	-31.901602
939.146657	-31.675116
939.440952	-31.775967
939.735431	-31.829000
940.030095	-31.555534
940.324943	-31.926042
940.619977	-31.590491
940.915196	-31.546436
941.210600	-31.634100
941.506189	-31.290048
941.801965	-31.428579
942.097926	-31.399127
942.394074	-31.268503
942.690407	-31.280568
942.986927	-31.412793
943.283634	-30.737009
943.580527	-31.414717
943.877608	-30.507690
944.174875	-31.086818
944.472330	-30.785321
944.769972	-30.806551
945.067802	-30.700472
945.365820	-30.675334
945.664026	-30.658571
945.962420	-30.392162
946.261002	-30.893668
946.559773	-30.233068
946.858733	-30.505828
947.157881	-30.699803
947.457219	-29.908609
947.756746	-30.894083
948.056462	-30.034998
948.356368	-30.380231
948.656464	-30.285419
948.956749	-30.056104
949.257225	-30.316451
949.557891	-29.912067
949.858748	-30.234308
950.159796	-29.736048
950.461034	-30.154890
950.762463	-29.776673
951.064084	-29.812266
951.365896	-29.826197
951.667900	-29.834139
951.970095	-29.438861
952.272483	-29.934539
952.575063	-29.474185
952.877835	-29.561457
953.180799	-29.846421
953.483956	-29.164931
953.787307	-29.964551
954.090850	-29.220165
954.394586	-29.566564
954.698516	-29.519007
955.002640	-29.453518
955.306957	-29.306450
955.611469	-29.522781
955.916174	-29.208745
956.221074	-29.395330
956.526169	-29.392497
956.831458	-29.035679
957.136942	-29.426465
957.442622	-28.941658
957.748496	-29.199881
958.054567	-29.007512
958.360833	-28.984125
958.667294	-28.926672
958.973952	-28.889434
959.280806	-28.752672
959.587857	-28.781538
959.895104	-28.779253
960.202548	-28.460742
960.510189	-28.842138
960.818027	-28.420763
961.126062	-28.494176
961.434295	-28.520474
961.742726	-28.462032
962.051355	-28.323577
962.360182	-28.351027
962.669207	-28.485608
962.978431	-27.984678
963.287854	-28.533351
963.597475	-28.013049
963.907296	-28.293162
964.217315	-27.972702
964.527535	-28.260182
964.837954	-27.796771
965.148573	-28.145723
965.459392	-27.903847
965.770411	-27.857945
966.081630	-27.739434
966.393051	-27.909391
966.704672	-27.618033
967.016494	-27.681024
967.328517	-27.716179
967.640742	-27.413842
967.953169	-27.670685
968.265797	-27.376059
968.578627	-27.554093
968.891660	-27.186261
969.204895	-27.645220
969.518332	-27.048405
969.831972	-27.441361
970.145816	-27.094006
970.459862	-27.398547
970.774112	-26.925656
971.088565	-27.398594
971.403223	-26.909288
971.718084	-27.144374
972.033149	-27.031782
972.348419	-27.067893
972.663893	-26.870205
972.979572	-27.091126
973.295456	-26.839997
973.611546	-26.886014
973.927840	-26.963008
974.244340	-26.827943
974.561046	-26.729943
974.877958	-26.891570
975.195076	-26.738725
975.512401	-26.705836
975.829932	-26.714692
976.147670	-26.752121
976.465615	-26.489153
976.783767	-26.777782
977.102126	-26.490387
977.420693	-26.616773
977.739468	-26.397451
978.058451	-26.707677
978.377642	-26.239150
978.697041	-26.602278
979.016649	-26.285900
979.336466	-26.462854
979.656492	-26.146019
979.976727	-26.558652
980.297171	-26.038226
980.617825	-26.331693
980.938689	-26.096033
981.259763	-26.260643
981.581048	-25.939119
981.902542	-26.232692
982.224248	-25.967588
982.546164	-25.970531
982.868291	-26.030981
983.190630	-25.927768
983.513180	-25.826858
983.835942	-25.880954
984.158916	-25.906813
984.482101	-25.683626
984.805500	-25.801859
985.129110	-25.697455
985.452934	-25.639765
985.776970	-25.610995
986.101220	-25.668176
986.425683	-25.490083
986.750359	-25.466930
987.075250	-25.577216
987.400354	-25.381765
987.725673	-25.356378
988.051206	-25.373111
988.376954	-25.342387
988.702916	-25.192293
989.029094	-25.290339
989.355487	-25.201774
989.682095	-25.095933
990.008919	-25.150442
990.335959	-25.089401
990.663216	-25.020437
990.990688	-24.941630
991.318377	-25.062102
991.646283	-24.848865
991.974406	-24.924142
992.302746	-24.861819
992.631304	-24.861069
992.960079	-24.723594
993.289072	-24.830267
993.618283	-24.760899
993.947713	-24.636001
994.277361	-24.732505
994.607227	-24.650091
994.937313	-24.647759
995.267618	-24.539260
995.598142	-24.678851
995.928886	-24.471010
996.259849	-24.536764
996.591033	-24.537641
996.922437	-24.478987
997.254061	-24.434693
997.585906	-24.407797
997.917972	-24.500046
998.250260	-24.299380
998.582768	-24.421156
998.915498	-24.337084
999.248450	-24.351406
999.581624	-24.228832
999.915020	-24.352368
1000.248639	-24.257501
1000.582480	-24.192747
1000.916545	-24.248652
1001.250832	-24.208074
1001.585343	-24.174597
1001.920077	-24.092074
1002.255035	-24.226812
1002.590218	-24.050270
1002.925624	-24.075519
1003.261255	-24.076403
1003.597111	-24.054332
1003.933192	-23.963006
1004.269497	-23.991644
1004.606029	-24.020938
1004.942785	-23.870124
1005.279768	-23.923581
1005.616977	-23.887923
1005.954412	-23.898354
1006.292074	-23.750830
1006.629962	-23.859158
1006.968077	-23.804906
1007.306420	-23.702760
1007.644990	-23.728926
1007.983787	-23.743957
1008.322813	-23.692724
1008.662067	-23.567054
1009.001549	-23.715104
1009.341259	-23.600539
1009.681199	-23.546738
1010.021367	-23.534684
1010.361765	-23.611774
1010.702392	-23.468145
1011.043250	-23.417628
1011.384337	-23.534999
1011.725654	-23.425663
1012.067202	-23.365736
1012.408980	-23.348923
1012.750989	-23.456356
1013.093230	-23.232586
1013.435702	-23.269858
1013.778405	-23.335606
1014.121341	-23.229030
1014.464508	-23.141021
1014.807908	-23.191153
1015.151540	-23.241717
1015.495405	-23.007533
1015.839503	-23.119072
1016.183835	-23.111014
1016.528400	-23.032580
1016.873198	-22.960345
1017.218231	-23.023507
1017.563498	-23.016962
1017.908999	-22.874608
1018.254735	-22.960849
1018.600707	-22.922338
1018.946913	-22.910020
1019.293354	-22.828806
1019.640032	-22.905666
1019.986945	-22.890643
1020.334094	-22.816715
1020.681480	-22.840480
1021.029102	-22.820967
1021.376961	-22.878354
1021.725058	-22.778512
1022.073391	-22.823812
1022.421962	-22.826247
1022.770772	-22.815094
1023.119819	-22.763412
1023.469104	-22.777751
1023.818628	-22.871766
1024.168391	-22.731883
1024.518393	-22.745982
1024.868634	-22.776920
1025.219115	-22.805351
1025.569836	-22.679778
1025.920796	-22.706793
1026.271997	-22.808838
1026.623438	-22.664039
1026.975121	-22.653414
1027.327044	-22.677673
1027.679208	-22.722747
1028.031614	-22.590761
1028.384262	-22.609730
1028.737152	-22.662615
1029.090284	-22.596304
1029.443659	-22.563334
1029.797276	-22.514225
1030.151137	-22.622443
1030.505240	-22.530001
1030.859587	-22.496467
1031.214178	-22.491484
1031.569013	-22.513435
1031.924093	-22.494143
1032.279417	-22.380813
1032.634985	-22.477327
1032.990799	-22.451254
1033.346858	-22.403023
1033.703162	-22.324625
1034.059712	-22.383638
1034.416509	-22.403755
1034.773551	-22.260893
1035.130841	-22.288511
1035.488377	-22.289586
1035.846160	-22.314830
1036.204190	-22.171895
1036.562468	-22.182221
1036.920994	-22.227530
1037.279768	-22.148632
1037.638790	-22.111780
1037.998061	-22.074927
1038.357581	-22.156393
1038.717350	-22.051519
1039.077368	-22.015641
1039.437636	-22.017382
1039.798154	-22.029586
1040.158922	-22.018609
1040.519940	-21.900950
1040.881209	-21.974789
1041.242729	-21.978941
1041.604501	-21.950802
1041.966524	-21.864809
1042.328798	-21.901516
1042.691325	-21.965776
1043.054103	-21.864111
1043.417135	-21.857168
1043.780419	-21.869233
1044.143956	-21.939969
1044.507746	-21.858189
1044.871791	-21.803954
1045.236088	-21.878398
1045.600641	-21.878847
1045.965447	-21.854207
1046.330508	-21.794701
1046.695824	-21.844705
1047.061395	-21.884754
1047.427222	-21.817688
1047.793304	-21.787813
1048.159642	-21.784682
1048.526237	-21.890179
1048.893088	-21.793232
1049.260196	-21.757762
1049.627561	-21.780871
1049.995183	-21.808870
1050.363063	-21.805012
1050.731201	-21.696974
1051.099597	-21.763385
1051.468251	-21.780314
1051.837164	-21.763164
1052.206336	-21.675416
1052.575767	-21.698417
1052.945458	-21.754781
1053.315409	-21.699433
1053.685619	-21.675921
1054.056090	-21.618460
1054.426821	-21.684865
1054.797814	-21.662824
1055.169067	-21.589644
1055.540582	-21.557241
1055.912359	-21.571533
1056.284398	-21.608017
1056.656698	-21.488652
1057.029262	-21.458536
1057.402088	-21.474327
1057.775177	-21.470956
1058.148530	-21.419568
1058.522146	-21.328649
1058.896027	-21.360679
1059.270171	-21.343362
1059.644580	-21.309487
1060.019254	-21.239626
1060.394193	-21.212611
1060.769397	-21.248452
1061.144867	-21.200081
1061.520602	-21.153573
1061.896604	-21.080458
1062.272872	-21.138511
1062.649407	-21.135849
1063.026210	-21.046250
1063.403279	-21.023928
1063.780616	-21.022097
1064.158221	-21.058881
1064.536094	-21.000177
1064.914235	-20.948311
1065.292645	-20.942087
1065.671325	-20.973685
1066.050273	-20.973697
1066.429491	-20.892213
1066.808979	-20.892765
1067.188738	-20.901630
1067.568766	-20.922053
1067.949066	-20.901282
1068.329636	-20.826294
1068.710478	-20.867951
1069.091592	-20.889942
1069.472977	-20.895786
1069.854635	-20.820368
1070.236565	-20.832155
1070.618768	-20.864421
1071.001243	-20.861307
1071.383993	-20.847377
1071.767016	-20.794538
1072.150313	-20.828192
1072.533884	-20.844529
1072.917730	-20.827068
1073.301850	-20.790550
1073.686246	-20.754315
1074.070917	-20.813050
1074.455864	-20.806927
1074.841087	-20.750836
1075.226586	-20.707761
1075.612362	-20.723862
1075.998415	-20.759936
1076.384745	-20.702479
1076.771353	-20.663499
1077.158238	-20.618152
1077.545401	-20.663270
1077.932843	-20.635438
1078.320564	-20.582186
1078.708564	-20.534637
1079.096842	-20.505548
1079.485401	-20.524348
1079.874240	-20.491470
1080.263358	-20.417041
1080.652757	-20.371751
1081.042438	-20.358486
1081.432399	-20.380113
1081.822641	-20.287599
1082.213166	-20.258502
1082.603972	-20.211165
1082.995061	-20.218145
1083.386433	-20.201339
1083.778087	-20.132377
1084.170025	-20.084886
1084.562246	-20.063548
1084.954751	-20.080642
1085.347541	-20.028653
1085.740615	-19.967765
1086.133973	-19.951304
1086.527617	-19.911393
1086.921546	-19.945044
1087.315761	-19.890463
1087.710262	-19.839518
1088.105050	-19.814229
1088.500124	-19.834100
1088.895485	-19.833065
1089.291134	-19.794983
1089.687070	-19.758039
1090.083294	-19.740331
1090.479806	-19.770369
1090.876607	-19.775087
1091.273696	-19.721891
1091.671075	-19.693442
1092.068744	-19.676611
1092.466702	-19.714862
1092.864950	-19.688731
1093.263489	-19.643362
1093.662319	-19.612354
1094.061440	-19.603799
1094.460852	-19.630950
1094.860555	-19.599720
1095.260551	-19.560930
1095.660840	-19.531654
1096.061421	-19.530002
1096.462295	-19.559281
1096.863462	-19.522031
1097.264923	-19.490308
1097.666678	-19.445488
1098.068727	-19.463284
1098.471071	-19.454108
1098.873710	-19.423651
1099.276644	-19.366191
1099.679874	-19.308872
1100.083400	-19.307419
1100.487222	-19.286539
1100.891340	-19.230496
1101.295756	-19.163597
1101.700468	-19.099176
1102.105478	-19.098232
1102.510787	-19.052666
1102.916393	-19.032384
1103.322298	-18.952279
1103.728502	-18.908115
1104.135005	-18.913512
1104.541807	-18.897811
1104.948909	-18.883515
1105.356312	-18.818188
1105.764015	-18.791536
1106.172019	-18.797849
1106.580324	-18.792050
1106.988931	-18.770110
1107.397840	-18.709328
1107.807051	-18.680587
1108.216564	-18.637109
1108.626380	-18.641268
1109.036500	-18.613436
1109.446923	-18.515170
1109.857649	-18.476833
1110.268680	-18.439449
1110.680016	-18.429033
1111.091657	-18.382187
1111.503602	-18.342187
1111.915854	-18.294487
1112.328411	-18.266456
1112.741275	-18.288505
1113.154445	-18.288665
1113.567922	-18.267409
1113.981706	-18.254662
1114.395798	-18.255184
1114.810198	-18.309993
1115.224906	-18.315784
1115.639923	-18.330496
1116.055249	-18.314665
1116.470884	-18.314830
1116.886829	-18.343198
1117.303084	-18.337833
1117.719650	-18.337536
1118.136526	-18.275212
1118.553713	-18.240169
1118.971212	-18.208827
1119.389022	-18.184415
1119.807145	-18.135884
1120.225580	-18.053158
1120.644328	-17.982174
1121.063389	-17.929085
1121.482763	-17.890421
1121.902452	-17.841535
1122.322454	-17.783929
1122.742771	-17.721807
1123.163404	-17.670300
1123.584351	-17.659189
1124.005614	-17.649051
1124.427193	-17.621085
1124.849089	-17.585738
1125.271301	-17.556398
1125.693830	-17.581292
1126.116677	-17.564549
1126.539842	-17.567362
1126.963324	-17.552322
1127.387126	-17.518897
1127.811246	-17.514537
1128.235685	-17.510320
1128.660444	-17.500777
1129.085522	-17.460618
1129.510922	-17.412368
1129.936641	-17.375076
1130.362682	-17.358219
1130.789044	-17.320387
1131.215728	-17.272545
1131.642734	-17.222960
1132.070063	-17.166160
1132.497714	-17.130128
1132.925689	-17.120486
1133.353987	-17.089927
1133.782610	-17.047295
1134.211556	-17.015278
1134.640827	-17.007882
1135.070424	-17.014525
1135.500345	-17.020302
1135.930593	-17.041597
1136.361166	-17.021526
1136.792067	-17.029132
1137.223294	-17.073775
1137.654848	-17.119436
1138.086730	-17.131746
1138.518940	-17.135624
1138.951479	-17.172083
1139.384346	-17.170853
1139.817543	-17.186759
1140.251069	-17.205386
1140.684925	-17.210432
1141.119111	-17.163171
1141.553628	-17.111940
1141.988475	-17.095191
1142.423655	-17.061144
1142.859166	-17.008832
1143.295009	-16.923979
1143.731185	-16.832432
1144.167694	-16.751960
1144.604536	-16.684335
1145.041711	-16.607374
1145.479221	-16.514524
1145.917065	-16.425738
1146.355245	-16.328081
1146.793759	-16.251786
1147.232609	-16.190515
1147.671795	-16.135326
1148.111317	-16.074119
1148.551177	-16.009685
1148.991373	-15.942918
1149.431907	-15.921033
1149.872779	-15.912332
1150.313989	-15.891330
1150.755538	-15.865959
1151.197426	-15.843797
1151.639653	-15.843347
1152.082220	-15.857342
1152.525128	-15.876998
1152.968376	-15.885999
1153.411966	-15.895979
1153.855897	-15.896087
1154.300169	-15.917216
1154.744784	-15.951828
1155.189742	-15.978191
1155.635042	-15.991348
1156.080687	-15.984519
1156.526674	-15.992732
1156.973007	-16.006124
1157.419683	-16.018630
1157.866705	-16.029591
1158.314072	-16.012560
1158.761786	-15.988357
1159.209845	-15.958196
1159.658251	-15.958787
1160.107004	-15.953660
1160.556104	-15.913911
1161.005553	-15.864896
1161.455349	-15.812403
1161.905494	-15.779858
1162.355989	-15.740862
1162.806832	-15.709684
1163.258026	-15.671543
1163.709570	-15.595427
1164.161464	-15.521201
1164.613710	-15.466006
1165.066307	-15.455033
1165.519256	-15.411867
1165.972558	-15.352399
1166.426212	-15.299666
1166.880219	-15.237403
1167.334580	-15.187078
1167.789295	-15.169499
1168.244364	-15.159747
1168.699788	-15.113752
1169.155567	-15.066818
1169.611702	-15.037180
1170.068193	-15.009968
1170.525041	-15.018464
1170.982245	-15.013033
1171.439807	-14.992112
1171.897726	-14.969538
1172.356004	-14.944097
1172.814640	-14.948777
1173.273635	-14.959464
1173.732989	-14.967550
1174.192703	-14.959937
1174.652778	-14.935913
1175.113213	-14.934753
1175.574009	-14.936079
1176.035167	-14.948858
1176.496687	-14.947059
1176.958569	-14.927924
1177.420814	-14.909048
1177.883422	-14.896680
1178.346394	-14.903102
1178.809730	-14.909918
1179.273430	-14.895257
1179.737496	-14.871081
1180.201927	-14.839242
1180.666723	-14.825051
1181.131886	-14.815610
1181.597416	-14.801839
1182.063312	-14.781961
1182.529576	-14.744670
1182.996209	-14.726227
1183.463209	-14.714341
1183.930579	-14.706123
1184.398317	-14.675169
1184.866426	-14.616211
1185.334904	-14.568985
1185.803754	-14.539237
1186.272974	-14.550284
1186.742566	-14.566354
1187.212529	-14.543271
1187.682865	-14.476348
1188.153574	-14.385458
1188.624656	-14.330358
1189.096112	-14.325295
1189.567942	-14.352113
1190.040147	-14.380593
1190.512726	-14.340465
1190.985681	-14.262073
1191.459012	-14.177656
1191.932720	-14.126073
1192.406804	-14.128839
1192.881265	-14.154013
1193.356104	-14.182340
1193.831322	-14.160123
1194.306918	-14.107650
1194.782893	-14.056153
1195.259248	-14.010089
1195.735982	-14.009122
1196.213097	-14.036296
1196.690593	-14.058355
1197.168471	-14.076007
1197.646730	-14.059855
1198.125371	-14.031460
1198.604395	-14.013591
1199.083803	-14.010301
1199.563594	-14.032500
1200.043769	-14.057873
1200.524329	-14.069213
1201.005273	-14.071281
1201.486604	-14.056785
1201.968320	-14.055640
1202.450422	-14.060045
1202.932912	-14.061975
1203.415789	-14.068604
1203.899054	-14.050264
1204.382707	-14.037779
1204.866748	-14.028253
1205.351179	-14.022110
1205.836000	-14.025517
1206.321211	-14.009702
1206.806812	-13.978938
1207.292805	-13.948922
1207.779189	-13.910816
1208.265965	-13.897727
1208.753134	-13.892813
1209.240696	-13.880383
1209.728651	-13.863572
1210.217000	-13.819629
1210.705744	-13.776186
1211.194883	-13.747622
1211.684417	-13.721916
1212.174347	-13.721668
1212.664673	-13.710827
1213.155396	-13.686291
1213.646516	-13.654487
1214.138034	-13.610718
1214.629951	-13.580656
1215.122266	-13.570217
1215.614980	-13.558502
1216.108095	-13.555763
1216.601609	-13.534257
1217.095524	-13.495684
1217.589841	-13.465227
1218.084559	-13.436282
1218.579679	-13.428359
1219.075202	-13.431408
1219.571128	-13.415177
1220.067458	-13.393967
1220.564191	-13.359880
1221.061330	-13.327003
1221.558874	-13.321640
1222.056823	-13.319798
1222.555178	-13.312961
1223.053940	-13.300705
1223.553109	-13.265254
1224.052686	-13.237804
1224.552671	-13.231501
1225.053065	-13.223603
1225.553867	-13.227113
1226.055079	-13.208806
1226.556702	-13.178191
1227.058735	-13.159656
1227.561179	-13.146436
1228.064035	-13.141054
1228.567303	-13.140624
1229.070983	-13.119815
1229.575077	-13.095660
1230.079585	-13.082454
1230.584506	-13.065934
1231.089842	-13.065916
1231.595594	-13.055527
1232.101761	-13.032330
1232.608345	-13.016893
1233.115345	-13.004866
1233.622762	-12.992024
1234.130597	-12.989770
1234.638851	-12.968529
1235.147523	-12.945894
1235.656615	-12.933733
1236.166126	-12.921821
1236.676058	-12.909763
1237.186411	-12.902465
1237.697185	-12.870371
1238.208381	-12.847897
1238.719999	-12.836308
1239.232040	-12.818918
1239.744505	-12.812658
1240.257394	-12.792286
1240.770708	-12.757244
1241.284446	-12.734827
1241.798610	-12.722283
1242.313201	-12.704252
1242.828218	-12.701310
1243.343662	-12.669760
1243.859534	-12.642456
1244.375834	-12.616748
1244.892563	-12.611425
1245.409721	-12.590436
1245.927309	-12.593651
1246.445327	-12.556871
1246.963777	-12.536925
1247.482657	-12.515530
1248.001970	-12.510770
1248.521716	-12.498525
1249.041894	-12.498460
1249.562506	-12.466087
1250.083553	-12.448083
1250.605034	-12.436444
1251.126950	-12.432427
1251.649302	-12.426576
1252.172091	-12.423531
1252.695316	-12.395371
1253.218979	-12.382015
1253.743079	-12.379043
1254.267619	-12.377121
1254.792597	-12.373372
1255.318015	-12.368757
1255.843874	-12.344591
1256.370173	-12.338282
1256.896913	-12.340019
1257.424095	-12.340724
1257.951720	-12.333989
1258.479787	-12.330927
1259.008298	-12.308670
1259.537254	-12.309746
1260.066654	-12.313183
1260.596499	-12.313040
1261.126790	-12.302192
1261.657527	-12.299190
1262.188711	-12.282811
1262.720342	-12.284268
1263.252422	-12.290493
1263.784950	-12.283683
1264.317928	-12.272712
1264.851355	-12.269312
1265.385232	-12.260018
1265.919560	-12.259197
1266.454340	-12.265459
1266.989572	-12.256360
1267.525256	-12.244427
1268.061394	-12.244726
1268.597985	-12.239957
1269.135031	-12.238826
1269.672531	-12.242877
1270.210487	-12.234834
1270.748899	-12.223351
1271.287768	-12.226573
1271.827094	-12.227727
1272.366877	-12.222637
1272.907119	-12.223985
1273.447820	-12.218098
1273.988981	-12.208329
1274.530601	-12.210634
1275.072683	-12.214975
1275.615226	-12.204784
1276.158230	-12.200807
1276.701697	-12.197526
1277.245627	-12.189532
1277.790021	-12.186806
1278.334879	-12.189217
1278.880202	-12.176592
1279.425991	-12.166507
1279.972245	-12.164843
1280.518966	-12.158714
1281.066155	-12.149799
1281.613811	-12.147175
1282.161936	-12.136162
1282.710529	-12.122655
1283.259593	-12.120124
1283.809126	-12.116451
1284.359131	-12.103364
1284.909607	-12.094248
1285.460555	-12.088091
1286.011976	-12.075338
1286.563870	-12.069912
1287.116237	-12.066317
1287.669080	-12.053485
1288.222397	-12.039304
1288.776191	-12.036685
1289.330460	-12.029059
1289.885207	-12.018127
1290.440431	-12.011844
1290.996133	-12.002077
1291.552314	-11.987942
1292.108975	-11.982828
1292.666115	-11.980772
1293.223737	-11.965868
1293.781839	-11.953722
1294.340424	-11.948297
1294.899491	-11.939398
1295.459041	-11.928570
1296.019075	-11.924780
1296.579593	-11.914010
1297.140597	-11.897352
1297.702086	-11.892039
1298.264061	-11.890925
1298.826524	-11.877204
1299.389474	-11.864057
1299.952912	-11.859092
1300.516839	-11.849370
1301.081255	-11.838596
1301.646162	-11.836065
1302.211559	-11.828534
1302.777448	-11.809989
1303.343829	-11.803961
1303.910702	-11.804779
1304.478069	-11.795598
1305.045930	-11.780838
1305.614285	-11.777003
1306.183136	-11.770593
1306.752483	-11.759391
1307.322326	-11.758621
1307.892666	-11.755436
1308.463504	-11.740944
1309.034841	-11.730554
1309.606677	-11.737169
1310.179012	-11.733979
1310.751849	-11.720794
1311.325186	-11.716481
1311.899025	-11.717814
1312.473366	-11.711388
1313.048211	-11.708552
1313.623559	-11.713426
1314.199412	-11.706786
1314.775770	-11.696563
1315.352634	-11.702860
1315.930004	-11.713317
1316.507881	-11.704549
1317.086266	-11.696889
1317.665159	-11.705515
1318.244562	-11.711743
1318.824474	-11.707348
1319.404897	-11.710700
1319.985831	-11.717883
1320.567276	-11.713935
1321.149234	-11.714885
1321.731706	-11.729947
1322.314691	-11.736742
1322.898190	-11.726322
1323.482205	-11.729837
1324.066736	-11.750376
1324.651783	-11.755686
1325.237347	-11.749648
1325.823430	-11.758479
1326.410031	-11.772595
1326.997151	-11.775300
1327.584791	-11.780400
1328.172952	-11.796966
1328.761634	-11.801733
1329.350839	-11.798733
1329.940566	-11.816509
1330.530817	-11.838457
1331.121592	-11.837704
1331.712891	-11.834897
1332.304716	-11.856550
1332.897068	-11.877176
1333.489946	-11.877158
1334.083352	-11.883106
1334.677287	-11.902438
1335.271750	-11.913172
1335.866744	-11.919528
1336.462268	-11.938662
1337.058323	-11.951703
1337.654910	-11.952911
1338.252029	-11.965718
1338.849682	-11.992526
1339.447869	-12.003048
1340.046591	-12.002626
1340.645848	-12.019010
1341.245641	-12.042206
1341.845972	-12.055129
1342.446840	-12.062847
1343.048246	-12.074282
1343.650191	-12.090094
1344.252677	-12.109018
1344.855702	-12.121721
1345.459269	-12.128453
1346.063379	-12.142911
1346.668030	-12.159040
1347.273226	-12.167766
1347.878965	-12.182242
1348.485250	-12.197200
1349.092080	-12.197627
1349.699456	-12.207566
1350.307380	-12.234143
1350.915851	-12.238490
1351.524871	-12.232941
1352.134441	-12.248947
1352.744560	-12.269508
1353.355231	-12.273909
1353.966453	-12.273730
1354.578227	-12.283383
1355.190555	-12.298555
1355.803436	-12.308541
1356.416872	-12.312057
1357.030863	-12.315887
1357.645411	-12.331076
1358.260515	-12.342413
1358.876177	-12.342275
1359.492397	-12.354151
1360.109176	-12.366448
1360.726516	-12.365563
1361.344416	-12.378490
1361.962877	-12.391675
1362.581901	-12.393057
1363.201487	-12.398340
1363.821637	-12.407033
1364.442352	-12.419043
1365.063632	-12.428422
1365.685478	-12.425051
1366.307891	-12.428762
1366.930871	-12.447725
1367.554420	-12.456251
1368.178538	-12.446562
1368.803226	-12.450253
1369.428485	-12.471602
1370.054315	-12.474877
1370.680717	-12.465032
1371.307693	-12.471017
1371.935242	-12.482065
1372.563366	-12.488513
1373.192065	-12.485444
1373.821341	-12.478678
1374.451193	-12.489839
1375.081623	-12.502433
1375.712632	-12.491912
1376.344221	-12.486983
1376.976389	-12.501022
1377.609139	-12.505857
1378.242470	-12.498639
1378.876384	-12.499375
1379.510881	-12.506171
1380.145963	-12.512008
1380.781629	-12.511975
1381.417881	-12.508426
1382.054720	-12.514202
1382.692147	-12.526132
1383.330161	-12.524400
1383.968765	-12.521621
1384.607959	-12.532313
1385.247743	-12.542050
1385.888119	-12.542097
1386.529087	-12.544245
1387.170648	-12.553709
1387.812804	-12.565328
1388.455554	-12.568511
1389.098899	-12.570055
1389.742842	-12.581117
1390.387381	-12.594246
1391.032519	-12.598549
1391.678256	-12.599298
1392.324592	-12.609908
1392.971529	-12.624997
1393.619068	-12.629790
1394.267208	-12.630363
1394.915952	-12.640048
1395.565300	-12.655792
1396.215253	-12.663272
1396.865812	-12.662744
1397.516977	-12.669830
1398.168749	-12.686152
1398.821130	-12.694843
1399.474120	-12.692845
1400.127719	-12.696107
1400.781930	-12.711079
1401.436752	-12.721687
1402.092186	-12.717849
1402.748234	-12.716350
1403.404897	-12.729306
1404.062174	-12.741839
1404.720067	-12.739835
1405.378577	-12.734133
1406.037705	-12.744177
1406.697451	-12.760705
1407.357817	-12.763007
1408.018803	-12.755915
1408.680410	-12.761497
1409.342639	-12.779466
1410.005492	-12.787731
1410.668968	-12.780230
1411.333068	-12.780358
1411.997795	-12.797522
1412.663147	-12.810864
1413.329127	-12.806385
1413.995736	-12.801373
1414.662973	-12.815647
1415.330840	-12.833522
1415.999339	-12.833284
1416.668469	-12.826202
1417.338232	-12.836840
1418.008628	-12.858644
1418.679659	-12.865642
1419.351325	-12.859418
1420.023628	-12.866846
1420.696568	-12.890579
1421.370145	-12.904532
1422.044362	-12.900402
1422.719219	-12.902374
1423.394717	-12.923672
1424.070856	-12.943701
1424.747638	-12.944601
1425.425064	-12.942534
1426.103134	-12.957884
1426.781850	-12.981676
1427.461212	-12.991711
1428.141221	-12.988413
1428.821878	-12.992503
1429.503185	-13.011832
1430.185141	-13.029634
1430.867749	-13.031993
1431.551008	-13.027277
1432.234920	-13.035918
1432.919486	-13.058833
1433.604707	-13.074665
1434.290583	-13.071732
1434.977116	-13.067967
1435.664307	-13.083737
1436.352156	-13.107965
1437.040664	-13.112580
1437.729833	-13.100114
1438.419663	-13.099498
1439.110156	-13.120837
1439.801312	-13.138759
1440.493132	-13.134946
1441.185617	-13.124762
1441.878768	-13.133731
1442.572586	-13.157342
1443.267072	-13.169370
1443.962228	-13.159738
1444.658053	-13.145146
1445.354549	-13.148911
1446.051717	-13.166199
1446.749558	-13.169381
1447.448073	-13.149111
1448.147263	-13.130230
1448.847128	-13.140436
1449.547671	-13.165908
1450.248891	-13.170487
1450.950789	-13.152035
1451.653368	-13.142204
1452.356627	-13.157983
1453.060568	-13.177189
1453.765192	-13.170992
1454.470500	-13.145494
1455.176492	-13.128092
1455.883170	-13.130925
1456.590534	-13.141020
1457.298586	-13.138006
1458.007327	-13.124237
1458.716758	-13.120967
1459.426880	-13.137739
1460.137693	-13.162419
1460.849199	-13.178117
1461.561398	-13.183402
1462.274293	-13.184910
1462.987883	-13.185810
1463.702170	-13.188671
1464.417155	-13.192908
1465.132838	-13.186775
1465.849222	-13.165590
1466.566306	-13.144827
1467.284093	-13.146444
1468.002582	-13.171378
1468.721775	-13.194216
1469.441674	-13.204613
1470.162278	-13.217524
1470.883590	-13.257397
1471.605609	-13.320686
1472.328338	-13.369723
1473.051777	-13.382568
1473.775928	-13.378873
1474.500790	-13.391270
1475.226367	-13.410800
1475.952657	-13.398178
1476.679663	-13.347470
1477.407386	-13.294665
1478.135826	-13.266439
1478.864985	-13.251578
1479.594863	-13.225353
1480.325463	-13.189409
1481.056784	-13.168170
1481.788828	-13.171098
1482.521597	-13.179781
1483.255090	-13.167992
1483.989309	-13.135992
1484.724256	-13.097957
1485.459931	-13.044386
1486.196336	-12.954416
1486.933471	-12.827677
1487.671337	-12.683289
1488.409937	-12.529471
1489.149270	-12.358557
1489.889337	-12.177399
1490.630141	-12.008471
1491.371682	-11.870893
1492.113961	-11.763699
1492.856979	-11.679637
1493.600738	-11.622005
1494.345238	-11.615417
1495.090481	-11.666593
1495.836467	-11.760294
1496.583198	-11.874828
1497.330675	-12.017018
1498.078899	-12.203820
1498.827872	-12.423294
1499.577593	-12.644278
1500.328065	-12.842191
1501.079289	-13.025180
1501.831265	-13.202844
1502.583995	-13.355799
1503.337480	-13.453179
1504.091721	-13.497101
1504.846719	-13.526355
1505.602475	-13.559740
1506.358991	-13.580915
1507.116268	-13.586467
1507.874306	-13.606947
1508.633108	-13.674319
1509.392673	-13.779494
1510.153004	-13.896300
1510.914101	-14.015691
1511.675965	-14.146300
1512.438599	-14.273693
1513.202002	-14.339184
1513.966176	-14.287429
1514.731122	-14.105207
1515.496842	-13.797951
1516.263336	-13.356043
1517.030607	-12.783705
1517.798654	-12.130239
1518.567479	-11.454104
1519.337083	-10.785530
1520.107468	-10.135337
1520.878634	-9.517755
1521.650584	-8.952578
1522.423317	-8.450630
1523.196836	-8.008230
1523.971141	-7.616992
1524.746233	-7.276435
1525.522115	-6.992431
1526.298786	-6.763585
1527.076249	-6.581141
1527.854504	-6.439863
1528.633553	-6.340134
1529.413397	-6.285229
1530.194037	-6.272462
1530.975474	-6.295042
1531.757709	-6.347672
1532.540745	-6.431885
1533.324581	-6.549016
1534.109220	-6.692977
1534.894662	-6.856199
1535.680909	-7.034604
1536.467961	-7.228787
1537.255821	-7.441059
1538.044489	-7.668451
1538.833967	-7.906427
1539.624256	-8.158166
1540.415357	-8.433682
1541.207271	-8.741394
1542.000000	-9.086505
1542.793545	-9.472256
1543.587907	-9.906812
1544.383087	-10.406435
1545.179088	-10.983034
1545.975909	-11.638368
1546.773552	-12.372992
1547.572019	-13.192042
1548.371311	-14.100832
1549.171428	-15.092294
1549.972373	-16.125694
1550.774147	-17.121279
1551.576751	-17.970314
1552.380185	-18.536781
1553.184453	-18.707799
1553.989554	-18.470669
1554.795490	-17.915528
1555.602263	-17.189880
1556.409873	-16.427023
1557.218322	-15.705756
1558.027612	-15.056689
1558.837743	-14.482191
1559.648717	-13.982792
1560.460536	-13.571990
1561.273200	-13.254117
1562.086710	-13.013977
1562.901069	-12.838890
1563.716278	-12.729386
1564.532337	-12.692751
1565.349249	-12.726554
1566.167014	-12.815844
1566.985634	-12.951747
1567.805111	-13.143460
1568.625444	-13.395667
1569.446637	-13.691657
1570.268690	-14.014541
1571.091605	-14.366569
1571.915382	-14.750649
1572.740024	-15.147200
1573.565532	-15.523707
1574.391907	-15.865897
1575.219150	-16.174520
1576.047262	-16.425480
1576.876246	-16.577368
1577.706103	-16.624831
1578.536833	-16.593595
1579.368439	-16.484904
1580.200922	-16.287808
1581.034282	-16.028184
1581.868522	-15.748070
1582.703643	-15.459220
1583.539646	-15.155194
1584.376532	-14.850538
1585.214304	-14.572675
1586.052962	-14.326184
1586.892508	-14.095533
1587.732943	-13.881922
1588.574269	-13.704457
1589.416487	-13.563472
1590.259599	-13.440365
1591.103605	-13.331169
1591.948508	-13.249141
1592.794309	-13.194608
1593.641009	-13.149972
1594.488609	-13.107430
1595.337112	-13.078476
1596.186518	-13.066912
1597.036829	-13.055885
1597.888047	-13.036834
1598.740172	-13.022850
1599.593207	-13.020114
1600.447153	-13.014845
1601.302010	-12.999466
1602.157782	-12.987858
1603.014469	-12.989982
1603.872072	-12.993513
1604.730593	-12.990394
1605.590034	-12.995761
1606.450397	-13.018757
1607.311681	-13.045573
1608.173890	-13.069726
1609.037024	-13.105896
1609.901085	-13.160873
1610.766075	-13.220748
1611.631995	-13.280415
1612.498846	-13.353788
1613.366630	-13.445296
1614.235349	-13.538713
1615.105004	-13.629868
1615.975596	-13.734703
1616.847128	-13.852191
1617.719600	-13.964064
1618.593014	-14.072261
1619.467372	-14.191530
1620.342675	-14.314094
1621.218924	-14.424343
1622.096122	-14.529026
1622.974270	-14.640514
1623.853369	-14.749316
1624.733420	-14.842774
1625.614427	-14.933212
1626.496389	-15.032179
1627.379308	-15.124810
1628.263187	-15.204831
1629.148026	-15.291334
1630.033828	-15.386167
1630.920593	-15.471822
1631.808324	-15.553964
1632.697022	-15.648266
1633.586688	-15.746006
1634.477324	-15.835343
1635.368932	-15.926433
1636.261514	-16.025848
1637.155070	-16.118947
1638.049602	-16.199904
1638.945113	-16.283040
1639.841603	-16.365348
1640.739075	-16.429344
1641.637529	-16.483268
1642.536968	-16.539687
1643.437393	-16.582820
1644.338806	-16.607698
1645.241209	-16.632870
1646.144602	-16.655096
1647.048988	-16.660044
1647.954368	-16.659779
1648.860744	-16.664346
1649.768118	-16.660655
1650.676491	-16.646242
1651.585865	-16.635331
1652.496241	-16.624799
1653.407621	-16.602016
1654.320008	-16.574866
1655.233401	-16.551902
1656.147804	-16.519892
1657.063218	-16.475930
1657.979645	-16.434625
1658.897085	-16.390612
1659.815542	-16.333495
1660.735016	-16.275593
1661.655509	-16.220680
1662.577023	-16.156930
1663.499560	-16.089578
1664.423121	-16.027760
1665.347709	-15.963016
1666.273324	-15.893359
1667.199969	-15.827897
1668.127645	-15.763527
1669.056353	-15.693601
1669.986097	-15.624315
1670.916877	-15.557730
1671.848695	-15.486554
1672.781553	-15.413413
1673.715452	-15.344187
1674.650395	-15.273534
1675.586383	-15.200530
1676.523418	-15.131926
1677.461501	-15.064249
1678.400635	-14.994055
1679.340821	-14.927397
1680.282061	-14.862921
1681.224357	-14.796385
1682.167710	-14.732193
1683.112122	-14.670526
1684.057595	-14.607181
1685.004132	-14.545157
1685.951732	-14.485685
1686.900400	-14.425342
1687.850135	-14.365931
1688.800940	-14.309958
1689.752818	-14.254433
1690.705768	-14.199335
1691.659795	-14.147461
1692.614898	-14.096269
1693.571081	-14.044398
1694.528345	-13.995427
1695.486691	-13.947790
1696.446122	-13.899168
1697.406640	-13.853409
1698.368245	-13.809298
1699.330941	-13.763716
1700.294729	-13.720544
1701.259611	-13.679102
1702.225588	-13.636174
1703.192664	-13.595779
1704.160838	-13.557143
1705.130114	-13.517191
1706.100493	-13.479568
1707.071977	-13.443238
1708.044568	-13.405581
1709.018268	-13.370161
1709.993079	-13.336127
1710.969003	-13.301386
1711.946041	-13.269139
1712.924196	-13.237894
1713.903469	-13.206295
1714.883862	-13.177141
1715.865378	-13.149023
1716.848017	-13.121155
1717.831783	-13.095955
1718.816677	-13.071461
1719.802701	-13.047246
1720.789857	-13.024974
1721.778147	-13.002749
1722.767573	-12.981149
1723.758136	-12.961759
1724.749840	-12.942665
1725.742685	-12.924392
1726.736673	-12.907786
1727.731808	-12.890546
1728.728090	-12.873701
1729.725521	-12.857965
1730.724105	-12.841505
1731.723842	-12.826211
1732.724735	-12.812552
1733.726785	-12.798383
1734.729995	-12.785526
1735.734366	-12.773587
1736.739902	-12.760853
1737.746603	-12.749698
1738.754472	-12.739148
1739.763510	-12.728272
1740.773721	-12.719453
1741.785105	-12.710990
1742.797665	-12.702667
1743.811403	-12.696289
1744.826321	-12.689727
1745.842422	-12.683899
1746.859706	-12.679694
1747.878177	-12.675006
1748.897835	-12.671436
1749.918685	-12.668369
1750.940726	-12.664526
1751.963963	-12.661972
1752.988395	-12.659223
1754.014027	-12.656542
1755.040860	-12.655455
1756.068895	-12.653671
1757.098135	-12.652223
1758.128583	-12.651140
1759.160240	-12.648987
1760.193109	-12.647653
1761.227191	-12.646302
1762.262488	-12.645043
1763.299004	-12.644883
1764.336740	-12.644456
1765.375697	-12.644742
1766.415880	-12.644902
1767.457288	-12.644761
1768.499926	-12.645827
1769.543794	-12.646503
1770.588895	-12.647967
1771.635231	-12.650283
1772.682805	-12.652264
1773.731619	-12.655607
1774.781674	-12.658850
1775.832973	-12.662582
1776.885519	-12.667395
1777.939312	-12.671318
1778.994357	-12.676582
1780.050654	-12.681904
1781.108207	-12.686731
1782.167017	-12.693404
1783.227087	-12.699498
1784.288418	-12.706593
1785.351013	-12.714624
1786.414875	-12.722041
1787.480006	-12.730966
1788.546407	-12.739098
1789.614082	-12.747639
1790.683032	-12.757329
1791.753259	-12.766163
1792.824767	-12.776826
1793.897557	-12.787545
1794.971632	-12.798286
1796.046994	-12.810199
1797.123645	-12.820966
1798.201588	-12.832309
1799.280824	-12.843540
1800.361357	-12.854494
1801.443188	-12.866633
1802.526320	-12.878234
1803.610756	-12.890348
1804.696497	-12.902289
1805.783546	-12.914202
1806.871906	-12.926895
1807.961578	-12.939090
1809.052565	-12.951699
1810.144870	-12.963832
1811.238494	-12.976329
1812.333441	-12.989398
1813.429713	-13.003090
1814.527311	-13.018034
1815.626239	-13.032942
1816.726499	-13.048412
1817.828094	-13.063528
1818.931025	-13.078506
1820.035295	-13.094429
1821.140906	-13.110662
1822.247862	-13.128470
1823.356165	-13.146689
1824.465816	-13.164921
1825.576819	-13.183105
1826.689175	-13.200967
1827.802888	-13.219438
1828.917960	-13.238349
1830.034394	-13.258051
1831.152191	-13.278268
1832.271354	-13.298281
1833.391887	-13.318647
1834.513790	-13.338759
1835.637068	-13.359813
1836.761722	-13.380863
1837.887755	-13.402198
1839.015169	-13.424204
1840.143968	-13.445866
1841.274153	-13.469627
1842.405727	-13.493007
1843.538693	-13.518452
1844.673053	-13.543053
1845.808810	-13.568021
1846.945966	-13.592766
1848.084525	-13.617862
1849.224488	-13.644412
1850.365858	-13.671081
1851.508638	-13.699094
1852.652831	-13.726312
1853.798438	-13.753780
1854.945463	-13.780157
1856.093909	-13.807389
1857.243777	-13.834798
1858.395071	-13.863114
1859.547794	-13.891561
1860.701947	-13.920417
1861.857533	-13.948926
1863.014556	-13.977540
1864.173018	-14.006280
1865.332922	-14.035039
1866.494270	-14.063895
1867.657065	-14.092908
1868.821309	-14.122258
1869.987006	-14.151437
1871.154158	-14.179854
1872.322768	-14.207580
1873.492839	-14.234228
1874.664373	-14.260881
1875.837373	-14.287763
1877.011841	-14.315170
1878.187782	-14.342641
1879.365197	-14.369507
1880.544089	-14.395711
1881.724460	-14.421222
1882.906315	-14.446976
1884.089655	-14.472714
1885.274483	-14.499046
1886.460803	-14.525248
1887.648616	-14.551620
1888.837927	-14.577665
1890.028736	-14.603382
1891.221049	-14.628472
1892.414866	-14.652849
1893.610192	-14.677459
1894.807028	-14.702969
1896.005379	-14.729622
1897.205246	-14.756144
1898.406633	-14.782104
1899.609542	-14.807062
1900.813977	-14.831798
1902.019940	-14.856656
1903.227434	-14.881987
1904.436462	-14.907433
1905.647028	-14.931499
1906.859133	-14.954593
1908.072781	-14.975966
1909.287976	-14.996540
1910.504719	-15.015682
1911.723013	-15.034365
1912.942863	-15.051779
1914.164270	-15.068076
1915.387238	-15.083090
1916.611770	-15.096621
1917.837868	-15.108928
1919.065536	-15.119742
1920.294777	-15.129878
1921.525594	-15.138742
1922.757989	-15.146846
1923.991967	-15.153361
1925.227529	-15.158354
1926.464679	-15.161179
1927.703420	-15.162962
1928.943755	-15.163398
1930.185688	-15.162721
1931.429221	-15.160359
1932.674356	-15.156385
1933.921099	-15.151035
1935.169451	-15.144456
1936.419415	-15.137182
1937.670996	-15.129231
1938.924195	-15.120720
1940.179017	-15.110762
1941.435463	-15.100121
1942.693538	-15.088488
1943.953245	-15.076695
1945.214586	-15.064656
1946.477566	-15.052755
1947.742186	-15.040289
1949.008451	-15.026969
1950.276363	-15.012711
1951.545926	-14.997754
1952.817143	-14.982512
1954.090017	-14.966905
1955.364551	-14.950898
1956.640749	-14.933612
1957.918615	-14.915034
1959.198150	-14.895071
1960.479359	-14.874151
1961.762244	-14.852602
1963.046810	-14.830404
1964.333059	-14.807514
1965.620995	-14.784140
1966.910621	-14.759685
1968.201940	-14.734087
1969.494956	-14.707703
1970.789672	-14.680912
1972.086091	-14.653223
1973.384217	-14.624160
1974.684053	-14.593577
1975.985602	-14.561652
1977.288869	-14.528288
1978.593855	-14.493699
1979.900566	-14.458194
1981.209003	-14.422046
1982.519171	-14.385246
1983.831073	-14.347327
1985.144712	-14.308638
1986.460093	-14.269414
1987.777217	-14.229949
1989.096089	-14.190624
1990.416713	-14.152195
1991.739092	-14.114320
1993.063228	-14.076303
1994.389127	-14.037870
1995.716791	-14.000052
1997.046223	-13.963414
1998.377428	-13.927728
1999.710409	-13.892321
2001.045169	-13.857029
2002.381713	-13.821911
2003.720043	-13.787037
2005.060163	-13.752499
2006.402077	-13.718931
2007.745788	-13.686289
2009.091301	-13.653822
2010.438618	-13.621193
2011.787743	-13.588641
2013.138680	-13.557305
2014.491433	-13.527326
2015.846005	-13.497097
2017.202399	-13.465831
2018.560621	-13.434334
2019.920673	-13.403608
2021.282558	-13.373955
2022.646281	-13.344308
2024.011846	-13.313778
2025.379256	-13.282356
2026.748515	-13.250706
2028.119626	-13.219226
2029.492594	-13.187538
2030.867422	-13.154664
2032.244114	-13.121022
2033.622673	-13.086908
2035.003104	-13.052760
2036.385411	-13.018682
2037.769597	-12.985344
2039.155665	-12.952380
2040.543621	-12.918924
2041.933467	-12.885286
2043.325208	-12.852792
2044.718847	-12.821833
2046.114389	-12.791764
2047.511837	-12.761681
2048.911195	-12.732324
2050.312467	-12.704974
2051.715657	-12.679828
2053.120769	-12.655168
2054.527807	-12.629951
2055.936775	-12.605351
2057.347677	-12.582713
2058.760516	-12.561461
2060.175297	-12.540056
2061.592025	-12.518707
2063.010701	-12.498687
2064.431332	-12.480367
2065.853921	-12.463421
2067.278472	-12.447266
2068.704988	-12.431794
2070.133475	-12.416985
2071.563936	-12.402868
2072.996375	-12.389658
2074.430796	-12.377179
2075.867204	-12.364437
2077.305603	-12.350665
2078.745996	-12.336171
2080.188389	-12.321959
2081.632784	-12.308017
2083.079187	-12.292974
2084.527601	-12.276460
2085.978030	-12.259065
2087.430480	-12.242008
2088.884954	-12.225221
2090.341455	-12.207867
2091.799990	-12.190103
2093.260561	-12.173176
2094.723173	-12.157448
2096.187831	-12.142657
2097.654538	-12.128503
2099.123300	-12.114438
2100.594119	-12.100453
2102.067001	-12.087324
2103.541950	-12.075881
2105.018971	-12.065477
2106.498067	-12.055611
2107.979243	-12.047000
2109.462503	-12.040346
2110.947853	-12.035045
2112.435295	-12.029895
2113.924836	-12.024889
2115.416478	-12.020893
2116.910227	-12.018350
2118.406087	-12.016280
2119.904063	-12.013864
2121.404158	-12.011972
2122.906378	-12.011944
2124.410727	-12.013602
2125.917210	-12.016043
2127.425831	-12.019807
2128.936594	-12.026225
2130.449505	-12.035939
2131.964567	-12.047679
2133.481786	-12.060171
2135.001166	-12.073295
2136.522711	-12.088089
2138.046427	-12.104314
2139.572317	-12.119517
2141.100388	-12.132227
2142.630642	-12.142847
2144.163085	-12.152871
2145.697722	-12.161817
2147.234558	-12.168074
2148.773596	-12.172263
2150.314842	-12.176117
2151.858301	-12.180232
2153.403977	-12.183885
2154.951875	-12.186645
2156.502000	-12.189547
2158.054357	-12.194492
2159.608950	-12.201957
2161.165785	-12.210620
2162.724866	-12.219380
2164.286198	-12.230131
2165.849786	-12.244284
2167.415635	-12.261238
2168.983749	-12.278642
2170.554134	-12.296998
2172.126795	-12.318613
2173.701737	-12.343639
2175.278964	-12.370087
2176.858481	-12.396848
2178.440294	-12.425304
2180.024408	-12.456299
2181.610827	-12.488718
2183.199557	-12.520690
2184.790602	-12.552115
2186.383968	-12.584383
2187.979660	-12.617260
2189.577683	-12.648461
2191.178041	-12.677349
2192.780741	-12.706089
2194.385787	-12.734511
2195.993185	-12.759716
2197.602939	-12.780883
2199.215054	-12.800643
2200.829537	-12.820364
2202.446392	-12.839779
2204.065624	-12.858698
2205.687239	-12.879045
2207.311242	-12.902492
2208.937638	-12.929447
2210.566433	-12.959757
2212.197631	-12.993782
2213.831239	-13.033320
2215.467261	-13.078347
2217.105703	-13.126731
2218.746570	-13.179078
2220.389867	-13.236168
2222.035601	-13.296793
2223.683776	-13.356963
2225.334398	-13.418847
2226.987472	-13.479019
2228.643004	-13.543501
2230.300999	-13.600692
2231.961463	-13.663670
2233.624402	-13.717779
2235.289820	-13.779082
2236.957723	-13.832960
2238.628118	-13.891276
2240.301009	-13.945129
2241.976402	-14.001486
2243.654303	-14.058328
2245.334717	-14.111350
2247.017650	-14.169522
2248.703108	-14.220157
2250.391096	-14.276940
2252.081620	-14.327517
2253.774686	-14.381655
2255.470300	-14.435384
2257.168467	-14.486197
2258.869193	-14.546771
2260.572484	-14.602698
2262.278345	-14.667291
2263.986783	-14.732864
2265.697804	-14.800477
2267.411412	-14.877522
2269.127615	-14.951183
2270.846417	-15.033166
2272.567826	-15.115159
2274.291846	-15.197782
2276.018484	-15.289017
2277.747745	-15.376141
2279.479637	-15.468578
2281.214164	-15.563705
2282.951333	-15.655425
2284.691149	-15.755329
2286.433619	-15.852587
2288.178750	-15.949154
2289.926546	-16.051106
2291.677014	-16.147473
2293.430161	-16.245241
2295.185992	-16.347489
2296.944513	-16.442410
2298.705732	-16.540622
2300.469653	-16.636076
2302.236283	-16.727569
2304.005629	-16.825629
2305.777696	-16.916873
2307.552492	-17.005640
2309.330022	-17.103685
2311.110292	-17.191248
2312.893310	-17.274749
2314.679080	-17.370875
2316.467611	-17.467017
2318.258907	-17.564429
2320.052976	-17.666231
2321.849824	-17.765945
2323.649457	-17.882906
2325.451883	-18.005537
2327.257106	-18.117046
2329.065135	-18.241752
2330.875975	-18.381254
2332.689633	-18.511572
2334.506116	-18.639304
2336.325430	-18.773143
2338.147581	-18.920678
2339.972578	-19.065315
2341.800425	-19.191522
2343.631130	-19.338232
2345.464700	-19.497220
2347.301141	-19.628201
2349.140461	-19.765617
2350.982665	-19.919121
2352.827760	-20.054507
2354.675754	-20.190149
2356.526653	-20.333062
2358.380464	-20.462135
2360.237195	-20.595208
2362.096851	-20.727212
2363.959440	-20.841299
2365.824968	-20.963255
2367.693444	-21.090544
2369.564873	-21.201973
2371.439263	-21.311089
2373.316620	-21.437293
2375.196953	-21.565290
2377.080267	-21.678223
2378.966570	-21.810913
2380.855869	-21.970144
2382.748171	-22.111990
2384.643484	-22.257807
2386.541815	-22.440441
2388.443170	-22.619111
2390.347557	-22.776616
2392.254984	-22.950712
2394.165457	-23.144184
2396.078984	-23.320792
2397.995572	-23.491573
2399.915229	-23.687187
2401.837961	-23.874127
2403.763777	-24.037989
2405.692684	-24.220076
2407.624689	-24.409526
2409.559800	-24.574272
2411.498023	-24.742049
2413.439368	-24.912210
2415.383840	-25.069045
2417.331449	-25.227599
2419.282201	-25.375371
2421.236104	-25.510452
2423.193165	-25.651305
2425.153393	-25.772685
2427.116795	-25.885972
2429.083378	-26.011763
2431.053151	-26.126088
2433.026121	-26.241051
2435.002297	-26.366742
2436.981685	-26.501197
2438.964293	-26.661799
2440.950131	-26.816692
2442.939204	-26.987777
2444.931522	-27.203804
2446.927092	-27.402374
2448.925923	-27.603737
2450.928022	-27.847242
2452.933397	-28.056677
2454.942056	-28.257065
2456.954008	-28.499399
2458.969260	-28.700896
2460.987821	-28.906111
2463.009699	-29.136156
2465.034902	-29.314027
2467.063437	-29.530892
2469.095315	-29.738617
2471.130542	-29.901589
2473.169127	-30.092864
2475.211078	-30.245300
2477.256404	-30.391494
2479.305112	-30.548804
2481.357212	-30.651300
2483.412713	-30.760271
2485.471621	-30.878545
2487.533946	-30.940641
2489.599696	-31.020712
2491.668880	-31.107457
2493.741507	-31.160930
2495.817585	-31.285856
2497.897122	-31.400553
2499.980127	-31.511460
2502.066609	-31.706942
2504.156578	-31.908582
2506.250040	-32.129468
2508.347006	-32.381201
2510.447483	-32.641984
2512.551482	-32.917343
2514.659010	-33.196569
2516.770076	-33.477761
2518.884690	-33.735812
2521.002861	-33.977925
2523.124597	-34.239213
2525.249907	-34.506446
2527.378801	-34.739762
2529.511287	-34.987367
2531.647375	-35.216173
2533.787074	-35.400696
2535.930393	-35.586277
2538.077340	-35.714600
2540.227927	-35.838642
2542.382160	-35.938311
2544.540051	-35.990916
2546.701608	-36.006603
2548.866840	-36.008940
2551.035757	-36.030080
2553.208369	-35.988162
2555.384684	-35.948584
2557.564713	-35.950372
2559.748465	-35.981121
2561.935948	-36.056435
2564.127174	-36.150672
2566.322152	-36.327745
2568.520890	-36.555688
2570.723399	-36.778865
2572.929689	-37.113257
2575.139769	-37.422459
2577.353649	-37.775290
2579.571340	-38.121676
2581.792849	-38.423650
2584.018189	-38.826087
2586.247368	-39.158136
2588.480396	-39.501340
2590.717284	-39.925909
2592.958041	-40.280167
2595.202678	-40.721436
2597.451204	-41.036307
2599.703630	-41.332374
2601.959966	-41.602393
2604.220222	-41.700562
2606.484408	-41.872862
2608.752535	-41.836899
2611.024612	-41.829936
2613.300651	-41.644124
2615.580661	-41.492087
2617.864653	-41.299182
2620.152638	-40.981176
2622.444625	-40.854155
2624.740626	-40.656569
2627.040651	-40.583592
2629.344710	-40.527539
2631.652814	-40.558897
2633.964974	-40.745287
2636.281200	-40.837301
2638.601504	-41.112754
2640.925896	-41.356743
2643.254386	-41.655059
2645.586987	-41.874996
2647.923707	-42.277367
2650.264559	-42.600168
2652.609554	-42.780429
2654.958702	-43.391628
2657.312015	-43.745484
2659.669503	-44.358836
2662.031178	-44.933008
2664.397051	-45.751163
2666.767132	-46.218975
2669.141434	-46.997330
2671.519968	-47.594809
2673.902745	-48.107253
2676.289776	-48.543401
2678.681072	-48.853739
2681.076646	-48.843578
2683.476508	-48.368446
2685.880671	-48.243171
2688.289145	-47.296931
2690.701942	-47.129690
2693.119075	-46.446687
2695.540554	-46.267263
2697.966391	-45.813284
2700.396599	-45.971928
2702.831189	-45.621378
2705.270172	-45.918250
2707.713561	-45.766063
2710.161368	-45.898048
2712.613605	-45.904130
2715.070283	-45.973993
2717.531416	-45.921121
2719.997014	-45.998537
2722.467090	-46.047230
2724.941657	-46.243360
2727.420726	-46.538688
2729.904310	-46.915659
2732.392421	-47.386728
2734.885072	-47.849422
2737.382275	-48.473405
2739.884042	-49.080212
2742.390387	-49.903835
2744.901321	-50.633165
2747.416857	-51.972892
2749.937008	-52.857490
2752.461787	-53.882427
2754.991206	-54.669182
2757.525279	-54.613058
2760.064017	-54.778270
2762.607434	-53.944712
2765.155544	-54.062277
2767.708358	-53.140402
2770.265890	-53.542806
2772.828153	-52.971118
2775.395160	-53.348381
2777.966924	-53.131686
2780.543459	-53.502877
2783.124778	-52.796189
2785.710894	-53.074380
2788.301821	-52.080603
2790.897572	-52.026676
2793.498160	-51.150479
2796.103599	-51.116587
2798.713903	-50.883431
2801.329085	-50.745357
2803.949159	-51.029044
2806.574139	-50.653818
2809.204038	-51.150594
2811.838871	-51.059279
2814.478650	-51.617516
2817.123391	-51.907761
2819.773107	-52.904915
2822.427812	-53.476531
2825.087521	-54.577813
2827.752247	-55.371347
2830.422005	-55.978396
2833.096808	-56.576895
2835.776672	-56.373849
2838.461611	-56.704656
2841.151638	-56.222022
2843.846769	-56.533059
2846.547019	-56.353322
2849.252401	-57.013605
2851.962930	-57.711672
2854.678621	-58.112188
2857.399489	-59.958267
2860.125549	-60.714122
2862.856815	-62.092678
2865.593302	-62.300396
2868.335026	-61.365767
2871.082002	-61.318277
2873.834244	-60.205043
2876.591767	-59.649835
2879.354588	-59.125358
2882.122721	-57.580662
2884.896181	-57.167354
2887.674984	-56.319849
2890.459146	-56.319927
2893.248681	-56.119596
2896.043606	-56.267900
2898.843937	-57.485457
2901.649687	-57.333588
2904.460875	-58.902885
2907.277515	-59.392618
2910.099623	-59.878451
2912.927215	-61.424452
2915.760308	-60.111272
2918.598916	-60.197192
2921.443057	-59.914048
2924.292747	-58.836239
2927.148002	-58.934895
2930.008837	-58.915380
2932.875270	-58.392318
2935.747318	-59.516232
2938.624995	-59.531271
2941.508320	-59.953354
2944.397308	-61.245190
2947.291977	-60.471809
2950.192343	-62.142147
2953.098423	-62.883678
2956.010234	-64.711068
2958.927792	-68.361079
2961.851116	-70.470034
2964.780221	-69.365549
2967.715126	-67.363019
2970.655847	-65.955066
2973.602402	-63.660011
2976.554808	-62.930688
2979.513083	-63.226479
2982.477243	-61.773381
2985.447308	-62.784626
2988.423293	-63.441581
2991.405218	-63.675470
2994.393099	-65.401024
2997.386955	-66.508708
