# 2022-03-21_14.46.35
# shape = sech2
# FWHM_ps = 0.1
# carrier_nm = 1542
# frep_MHz = 12126
# pow_mW = 8000
# GDD = 0.0
# propa_len = 0.15222222222222223
# untap_len = 0.01
# taper_len = 0.09222222222222223
# waist_len = 0.02
# uptap_len = 0.02
# untap_scale = 1.0
# waist_scale = 0.16666666666666669
# workingDir = NL_20110305_12 (Spirou)
# axis = slow
# window_ps = 10.0
# steps = 200
# points = 13000
# 
# wavelength [nm]	 power spectral density [dB]
1000.248639	-23.599549
1000.582480	-23.534546
1000.916545	-23.590880
1001.250832	-23.417849
1001.585343	-23.515545
1001.920077	-23.447227
1002.255035	-23.255866
1002.590218	-23.529286
1002.925624	-23.193082
1003.261255	-23.394037
1003.597111	-23.208053
1003.933192	-23.338414
1004.269497	-23.056659
1004.606029	-23.380321
1004.942785	-23.020533
1005.279768	-23.253863
1005.616977	-23.103559
1005.954412	-23.101138
1006.292074	-23.074093
1006.629962	-23.106309
1006.968077	-23.027506
1007.306420	-23.019706
1007.644990	-23.083106
1007.983787	-22.925205
1008.322813	-23.019532
1008.662067	-22.942685
1009.001549	-22.941269
1009.341259	-22.895614
1009.681199	-22.944449
1010.021367	-22.834584
1010.361765	-22.882180
1010.702392	-22.802309
1011.043250	-22.856940
1011.384337	-22.680295
1011.725654	-22.951223
1012.067202	-22.520723
1012.408980	-22.945158
1012.750989	-22.549174
1013.093230	-22.765222
1013.435702	-22.615569
1013.778405	-22.642551
1014.121341	-22.636182
1014.464508	-22.566532
1014.807908	-22.683123
1015.151540	-22.424407
1015.495405	-22.737255
1015.839503	-22.371845
1016.183835	-22.627805
1016.528400	-22.416871
1016.873198	-22.552720
1017.218231	-22.375311
1017.563498	-22.548446
1017.908999	-22.341893
1018.254735	-22.455889
1018.600707	-22.383083
1018.946913	-22.307025
1019.293354	-22.413086
1019.640032	-22.267959
1019.986945	-22.306811
1020.334094	-22.263438
1020.681480	-22.241278
1021.029102	-22.193969
1021.376961	-22.227986
1021.725058	-22.126816
1022.073391	-22.127739
1022.421962	-22.115099
1022.770772	-22.068552
1023.119819	-22.010890
1023.469104	-22.116429
1023.818628	-21.860694
1024.168391	-22.100934
1024.518393	-21.844111
1024.868634	-21.960153
1025.219115	-21.896408
1025.569836	-21.857893
1025.920796	-21.862077
1026.271997	-21.827588
1026.623438	-21.837059
1026.975121	-21.739726
1027.327044	-21.884668
1027.679208	-21.619481
1028.031614	-21.880016
1028.384262	-21.622739
1028.737152	-21.773423
1029.090284	-21.643122
1029.443659	-21.766353
1029.797276	-21.559468
1030.151137	-21.761143
1030.505240	-21.556945
1030.859587	-21.658643
1031.214178	-21.662381
1031.569013	-21.486841
1031.924093	-21.723277
1032.279417	-21.481435
1032.634985	-21.649907
1032.990799	-21.518880
1033.346858	-21.608003
1033.703162	-21.471629
1034.059712	-21.657937
1034.416509	-21.437115
1034.773551	-21.619899
1035.130841	-21.477024
1035.488377	-21.557015
1035.846160	-21.519105
1036.204190	-21.541027
1036.562468	-21.490407
1036.920994	-21.539419
1037.279768	-21.525157
1037.638790	-21.452005
1037.998061	-21.622701
1038.357581	-21.354941
1038.717350	-21.656318
1039.077368	-21.376820
1039.437636	-21.558895
1039.798154	-21.449406
1040.158922	-21.483831
1040.519940	-21.444409
1040.881209	-21.493993
1041.242729	-21.376469
1041.604501	-21.474265
1041.966524	-21.387579
1042.328798	-21.385843
1042.691325	-21.408393
1043.054103	-21.319791
1043.417135	-21.372638
1043.780419	-21.330214
1044.143956	-21.278740
1044.507746	-21.324571
1044.871791	-21.254582
1045.236088	-21.243306
1045.600641	-21.272895
1045.965447	-21.164813
1046.330508	-21.247413
1046.695824	-21.145710
1047.061395	-21.183017
1047.427222	-21.122610
1047.793304	-21.153082
1048.159642	-21.058048
1048.526237	-21.166679
1048.893088	-20.992921
1049.260196	-21.133963
1049.627561	-20.992047
1049.995183	-21.026490
1050.363063	-21.046381
1050.731201	-20.938345
1051.099597	-21.043550
1051.468251	-20.910934
1051.837164	-20.989342
1052.206336	-20.916770
1052.575767	-20.948454
1052.945458	-20.897083
1053.315409	-20.936295
1053.685619	-20.864922
1054.056090	-20.920314
1054.426821	-20.883317
1054.797814	-20.866615
1055.169067	-20.912957
1055.540582	-20.816365
1055.912359	-20.906905
1056.284398	-20.847707
1056.656698	-20.827941
1057.029262	-20.902915
1057.402088	-20.768904
1057.775177	-20.911338
1058.148530	-20.760112
1058.522146	-20.857772
1058.896027	-20.814902
1059.270171	-20.781087
1059.644580	-20.819065
1060.019254	-20.766237
1060.394193	-20.803126
1060.769397	-20.742389
1061.144867	-20.763090
1061.520602	-20.712534
1061.896604	-20.749250
1062.272872	-20.660030
1062.649407	-20.708469
1063.026210	-20.624297
1063.403279	-20.644865
1063.780616	-20.617296
1064.158221	-20.555620
1064.536094	-20.567095
1064.914235	-20.509643
1065.292645	-20.493068
1065.671325	-20.489593
1066.050273	-20.385273
1066.429491	-20.459316
1066.808979	-20.327835
1067.188738	-20.362186
1067.568766	-20.298082
1067.949066	-20.260529
1068.329636	-20.286718
1068.710478	-20.161193
1069.091592	-20.231220
1069.472977	-20.119508
1069.854635	-20.140645
1070.236565	-20.095349
1070.618768	-20.063761
1071.001243	-20.066961
1071.383993	-20.006295
1071.767016	-20.006478
1072.150313	-19.995427
1072.533884	-19.954651
1072.917730	-19.978202
1073.301850	-19.913618
1073.686246	-19.955140
1074.070917	-19.905990
1074.455864	-19.914818
1074.841087	-19.900018
1075.226586	-19.890745
1075.612362	-19.898627
1075.998415	-19.871454
1076.384745	-19.883820
1076.771353	-19.861940
1077.158238	-19.878394
1077.545401	-19.853919
1077.932843	-19.868740
1078.320564	-19.853895
1078.708564	-19.866875
1079.096842	-19.852410
1079.485401	-19.851332
1079.874240	-19.865882
1080.263358	-19.844903
1080.652757	-19.847873
1081.042438	-19.841548
1081.432399	-19.831894
1081.822641	-19.828418
1082.213166	-19.799649
1082.603972	-19.806064
1082.995061	-19.773274
1083.386433	-19.760408
1083.778087	-19.737207
1084.170025	-19.720877
1084.562246	-19.689597
1084.954751	-19.673376
1085.347541	-19.628107
1085.740615	-19.633797
1086.133973	-19.577743
1086.527617	-19.558328
1086.921546	-19.523493
1087.315761	-19.496312
1087.710262	-19.462064
1088.105050	-19.407848
1088.500124	-19.395158
1088.895485	-19.334127
1089.291134	-19.296767
1089.687070	-19.263012
1090.083294	-19.195054
1090.479806	-19.182556
1090.876607	-19.106487
1091.273696	-19.091972
1091.671075	-19.036647
1092.068744	-18.998278
1092.466702	-18.970782
1092.864950	-18.937059
1093.263489	-18.901432
1093.662319	-18.892505
1094.061440	-18.838191
1094.460852	-18.860198
1094.860555	-18.796434
1095.260551	-18.813896
1095.660840	-18.777420
1096.061421	-18.756780
1096.462295	-18.757281
1096.863462	-18.699687
1097.264923	-18.728980
1097.666678	-18.675762
1098.068727	-18.642630
1098.471071	-18.661524
1098.873710	-18.588320
1099.276644	-18.627437
1099.679874	-18.544226
1100.083400	-18.570251
1100.487222	-18.546496
1100.891340	-18.516916
1101.295756	-18.537811
1101.700468	-18.495531
1102.105478	-18.520398
1102.510787	-18.499717
1102.916393	-18.491441
1103.322298	-18.512293
1103.728502	-18.470696
1104.135005	-18.486019
1104.541807	-18.470275
1104.948909	-18.441511
1105.356312	-18.426102
1105.764015	-18.395362
1106.172019	-18.358580
1106.580324	-18.341135
1106.988931	-18.255301
1107.397840	-18.253014
1107.807051	-18.185115
1108.216564	-18.125917
1108.626380	-18.109790
1109.036500	-18.019488
1109.446923	-18.023222
1109.857649	-17.939231
1110.268680	-17.927085
1110.680016	-17.903051
1111.091657	-17.842986
1111.503602	-17.856527
1111.915854	-17.811490
1112.328411	-17.807570
1112.741275	-17.791222
1113.154445	-17.776183
1113.567922	-17.770990
1113.981706	-17.750349
1114.395798	-17.727964
1114.810198	-17.735287
1115.224906	-17.689545
1115.639923	-17.672829
1116.055249	-17.662579
1116.470884	-17.596562
1116.886829	-17.599249
1117.303084	-17.544329
1117.719650	-17.508918
1118.136526	-17.495760
1118.553713	-17.419679
1118.971212	-17.436907
1119.389022	-17.374875
1119.807145	-17.352517
1120.225580	-17.362752
1120.644328	-17.309308
1121.063389	-17.323128
1121.482763	-17.319082
1121.902452	-17.299847
1122.322454	-17.332346
1122.742771	-17.315098
1123.163404	-17.330800
1123.584351	-17.360319
1124.005614	-17.324536
1124.427193	-17.383405
1124.849089	-17.353506
1125.271301	-17.356516
1125.693830	-17.370706
1126.116677	-17.336189
1126.539842	-17.327726
1126.963324	-17.306058
1127.387126	-17.262577
1127.811246	-17.237405
1128.235685	-17.188624
1128.660444	-17.127050
1129.085522	-17.112753
1129.510922	-17.010039
1129.936641	-16.993777
1130.362682	-16.930509
1130.789044	-16.858930
1131.215728	-16.838791
1131.642734	-16.769500
1132.070063	-16.726364
1132.497714	-16.708280
1132.925689	-16.645715
1133.353987	-16.638086
1133.782610	-16.607522
1134.211556	-16.573713
1134.640827	-16.586055
1135.070424	-16.543423
1135.500345	-16.546053
1135.930593	-16.549828
1136.361166	-16.519528
1136.792067	-16.527224
1137.223294	-16.531309
1137.654848	-16.495508
1138.086730	-16.517597
1138.518940	-16.492793
1138.951479	-16.468920
1139.384346	-16.490816
1139.817543	-16.427171
1140.251069	-16.434801
1140.684925	-16.418876
1141.119111	-16.356883
1141.553628	-16.374556
1141.988475	-16.312113
1142.423655	-16.294962
1142.859166	-16.269774
1143.295009	-16.223626
1143.731185	-16.204187
1144.167694	-16.178398
1144.604536	-16.127861
1145.041711	-16.124263
1145.479221	-16.093398
1145.917065	-16.043708
1146.355245	-16.062976
1146.793759	-16.013773
1147.232609	-15.993906
1147.671795	-16.005320
1148.111317	-15.957527
1148.551177	-15.958062
1148.991373	-15.961272
1149.431907	-15.912635
1149.872779	-15.937206
1150.313989	-15.910243
1150.755538	-15.887939
1151.197426	-15.900199
1151.639653	-15.862774
1152.082220	-15.857759
1152.525128	-15.846212
1152.968376	-15.810734
1153.411966	-15.806790
1153.855897	-15.778216
1154.300169	-15.740067
1154.744784	-15.735011
1155.189742	-15.693393
1155.635042	-15.652501
1156.080687	-15.645781
1156.526674	-15.595952
1156.973007	-15.548648
1157.419683	-15.550715
1157.866705	-15.479487
1158.314072	-15.452702
1158.761786	-15.441549
1159.209845	-15.369535
1159.658251	-15.357327
1160.107004	-15.335903
1160.556104	-15.266268
1161.005553	-15.273258
1161.455349	-15.234318
1161.905494	-15.185654
1162.355989	-15.195135
1162.806832	-15.150547
1163.258026	-15.123308
1163.709570	-15.125746
1164.161464	-15.089238
1164.613710	-15.071786
1165.066307	-15.076029
1165.519256	-15.040715
1165.972558	-15.037470
1166.426212	-15.035915
1166.880219	-15.009301
1167.334580	-15.005979
1167.789295	-15.012198
1168.244364	-14.975612
1168.699788	-14.989525
1169.155567	-14.982896
1169.611702	-14.953080
1170.068193	-14.966541
1170.525041	-14.954586
1170.982245	-14.925140
1171.439807	-14.939601
1171.897726	-14.916117
1172.356004	-14.896153
1172.814640	-14.896571
1173.273635	-14.876326
1173.732989	-14.848287
1174.192703	-14.849544
1174.652778	-14.819352
1175.113213	-14.790579
1175.574009	-14.787832
1176.035167	-14.750339
1176.496687	-14.720365
1176.958569	-14.714188
1177.420814	-14.670539
1177.883422	-14.637620
1178.346394	-14.631142
1178.809730	-14.579845
1179.273430	-14.547153
1179.737496	-14.540879
1180.201927	-14.485772
1180.666723	-14.453642
1181.131886	-14.451626
1181.597416	-14.392446
1182.063312	-14.367563
1182.529576	-14.365664
1182.996209	-14.306000
1183.463209	-14.292561
1183.930579	-14.290161
1184.398317	-14.229230
1184.866426	-14.233096
1185.334904	-14.222227
1185.803754	-14.169471
1186.272974	-14.183668
1186.742566	-14.168425
1187.212529	-14.121792
1187.682865	-14.142615
1188.153574	-14.123872
1188.624656	-14.085611
1189.096112	-14.102882
1189.567942	-14.089638
1190.040147	-14.052638
1190.512726	-14.069756
1190.985681	-14.054546
1191.459012	-14.025583
1191.932720	-14.038231
1192.406804	-14.019570
1192.881265	-13.998690
1193.356104	-14.008325
1193.831322	-13.985775
1194.306918	-13.972606
1194.782893	-13.978561
1195.259248	-13.959621
1195.735982	-13.944341
1196.213097	-13.954194
1196.690593	-13.939517
1197.168471	-13.918610
1197.646730	-13.932375
1198.125371	-13.926555
1198.604395	-13.893915
1199.083803	-13.916165
1199.563594	-13.908476
1200.043769	-13.882447
1200.524329	-13.893706
1201.005273	-13.886592
1201.486604	-13.871735
1201.968320	-13.872614
1202.450422	-13.851161
1202.932912	-13.854976
1203.415789	-13.849153
1203.899054	-13.807795
1204.382707	-13.817482
1204.866748	-13.823617
1205.351179	-13.758182
1205.836000	-13.760084
1206.321211	-13.780888
1206.806812	-13.718663
1207.292805	-13.682612
1207.779189	-13.716351
1208.265965	-13.687436
1208.753134	-13.604086
1209.240696	-13.629381
1209.728651	-13.652744
1210.217000	-13.539501
1210.705744	-13.536449
1211.194883	-13.591395
1211.684417	-13.497854
1212.174347	-13.455105
1212.664673	-13.501555
1213.155396	-13.464218
1213.646516	-13.395062
1214.138034	-13.402564
1214.629951	-13.418041
1215.122266	-13.353333
1215.614980	-13.320696
1216.108095	-13.352343
1216.601609	-13.313002
1217.095524	-13.271361
1217.589841	-13.278723
1218.084559	-13.265843
1218.579679	-13.242135
1219.075202	-13.217251
1219.571128	-13.216727
1220.067458	-13.212660
1220.564191	-13.173745
1221.061330	-13.180866
1221.558874	-13.171005
1222.056823	-13.145300
1222.555178	-13.151329
1223.053940	-13.131020
1223.553109	-13.119005
1224.052686	-13.119846
1224.552671	-13.101530
1225.053065	-13.090559
1225.553867	-13.077942
1226.055079	-13.080557
1226.556702	-13.056333
1227.058735	-13.034816
1227.561179	-13.048819
1228.064035	-13.021459
1228.567303	-12.997433
1229.070983	-12.997604
1229.575077	-12.984372
1230.079585	-12.966658
1230.584506	-12.935479
1231.089842	-12.941783
1231.595594	-12.928833
1232.101761	-12.884447
1232.608345	-12.889092
1233.115345	-12.879082
1233.622762	-12.848616
1234.130597	-12.827848
1234.638851	-12.824302
1235.147523	-12.813960
1235.656615	-12.770817
1236.166126	-12.768492
1236.676058	-12.766292
1237.186411	-12.727245
1237.697185	-12.713795
1238.208381	-12.704714
1238.719999	-12.694270
1239.232040	-12.657222
1239.744505	-12.646011
1240.257394	-12.652719
1240.770708	-12.607839
1241.284446	-12.593736
1241.798610	-12.597778
1242.313201	-12.569918
1242.828218	-12.544421
1243.343662	-12.537988
1243.859534	-12.536578
1244.375834	-12.496575
1244.892563	-12.487434
1245.409721	-12.494843
1245.927309	-12.455787
1246.445327	-12.447225
1246.963777	-12.442900
1247.482657	-12.427777
1248.001970	-12.404827
1248.521716	-12.397935
1249.041894	-12.398527
1249.562506	-12.365088
1250.083553	-12.365035
1250.605034	-12.360108
1251.126950	-12.336458
1251.649302	-12.332622
1252.172091	-12.323608
1252.695316	-12.316034
1253.218979	-12.295480
1253.743079	-12.301196
1254.267619	-12.291085
1254.792597	-12.266030
1255.318015	-12.283469
1255.843874	-12.265346
1256.370173	-12.253678
1256.896913	-12.253155
1257.424095	-12.257749
1257.951720	-12.239858
1258.479787	-12.228558
1259.008298	-12.253132
1259.537254	-12.227598
1260.066654	-12.220126
1260.596499	-12.232481
1261.126790	-12.231710
1261.657527	-12.213113
1262.188711	-12.210287
1262.720342	-12.237098
1263.252422	-12.204872
1263.784950	-12.203526
1264.317928	-12.217732
1264.851355	-12.212443
1265.385232	-12.195018
1265.919560	-12.192206
1266.454340	-12.216783
1266.989572	-12.183837
1267.525256	-12.180061
1268.061394	-12.192183
1268.597985	-12.188784
1269.135031	-12.163592
1269.672531	-12.164184
1270.210487	-12.186255
1270.748899	-12.148804
1271.287768	-12.150127
1271.827094	-12.153237
1272.366877	-12.157095
1272.907119	-12.126205
1273.447820	-12.128164
1273.988981	-12.149768
1274.530601	-12.114052
1275.072683	-12.113502
1275.615226	-12.117172
1276.158230	-12.124408
1276.701697	-12.086926
1277.245627	-12.101199
1277.790021	-12.107409
1278.334879	-12.085573
1278.880202	-12.079394
1279.425991	-12.080117
1279.972245	-12.093005
1280.518966	-12.049778
1281.066155	-12.070601
1281.613811	-12.062449
1282.161936	-12.057039
1282.710529	-12.034763
1283.259593	-12.044974
1283.809126	-12.043957
1284.359131	-12.014858
1284.909607	-12.021954
1285.460555	-12.011933
1286.011976	-12.016591
1286.563870	-11.977063
1287.116237	-12.002489
1287.669080	-11.979806
1288.222397	-11.975413
1288.776191	-11.956306
1289.330460	-11.965020
1289.885207	-11.953856
1290.440431	-11.930428
1290.996133	-11.939339
1291.552314	-11.925128
1292.108975	-11.923687
1292.666115	-11.894305
1293.223737	-11.917524
1293.781839	-11.886427
1294.340424	-11.892524
1294.899491	-11.868415
1295.459041	-11.884829
1296.019075	-11.858865
1296.579593	-11.855252
1297.140597	-11.850386
1297.702086	-11.846282
1298.264061	-11.835237
1298.826524	-11.819776
1299.389474	-11.832540
1299.952912	-11.807438
1300.516839	-11.812057
1301.081255	-11.789644
1301.646162	-11.808813
1302.211559	-11.775174
1302.777448	-11.785878
1303.343829	-11.767747
1303.910702	-11.779226
1304.478069	-11.751127
1305.045930	-11.760238
1305.614285	-11.749726
1306.183136	-11.749247
1306.752483	-11.733512
1307.322326	-11.736910
1307.892666	-11.733435
1308.463504	-11.725306
1309.034841	-11.719718
1309.606677	-11.718715
1310.179012	-11.722840
1310.751849	-11.704412
1311.325186	-11.713095
1311.899025	-11.707348
1312.473366	-11.711056
1313.048211	-11.696855
1313.623559	-11.707932
1314.199412	-11.701875
1314.775770	-11.707099
1315.352634	-11.694538
1315.930004	-11.709277
1316.507881	-11.703266
1317.086266	-11.707991
1317.665159	-11.699652
1318.244562	-11.716781
1318.824474	-11.709996
1319.404897	-11.714833
1319.985831	-11.712225
1320.567276	-11.728589
1321.149234	-11.720987
1321.731706	-11.729783
1322.314691	-11.726586
1322.898190	-11.748611
1323.482205	-11.735087
1324.066736	-11.750351
1324.651783	-11.747909
1325.237347	-11.770199
1325.823430	-11.755750
1326.410031	-11.776345
1326.997151	-11.773522
1327.584791	-11.798574
1328.172952	-11.781535
1328.761634	-11.810187
1329.350839	-11.804303
1329.940566	-11.834307
1330.530817	-11.816057
1331.121592	-11.849393
1331.712891	-11.845461
1332.304716	-11.875089
1332.897068	-11.858493
1333.489946	-11.896010
1334.083352	-11.890923
1334.677287	-11.923483
1335.271750	-11.904430
1335.866744	-11.948055
1336.462268	-11.940960
1337.058323	-11.970978
1337.654910	-11.956526
1338.252029	-11.996161
1338.849682	-11.992134
1339.447869	-12.018175
1340.046591	-12.004996
1340.645848	-12.047033
1341.245641	-12.037904
1341.845972	-12.065549
1342.446840	-12.052791
1343.048246	-12.091401
1343.650191	-12.086913
1344.252677	-12.107673
1344.855702	-12.101676
1345.459269	-12.135983
1346.063379	-12.133918
1346.668030	-12.153808
1347.273226	-12.147130
1347.878965	-12.182762
1348.485250	-12.181751
1349.092080	-12.197413
1349.699456	-12.196585
1350.307380	-12.228982
1350.915851	-12.228799
1351.524871	-12.243324
1352.134441	-12.244467
1352.744560	-12.274420
1353.355231	-12.276583
1353.966453	-12.288595
1354.578227	-12.293216
1355.190555	-12.318954
1355.803436	-12.323763
1356.416872	-12.335113
1357.030863	-12.335571
1357.645411	-12.365928
1358.260515	-12.365919
1358.876177	-12.376831
1359.492397	-12.378055
1360.109176	-12.405550
1360.726516	-12.404243
1361.344416	-12.415874
1361.962877	-12.413934
1362.581901	-12.439838
1363.201487	-12.438937
1363.821637	-12.447451
1364.442352	-12.443459
1365.063632	-12.469659
1365.685478	-12.464654
1366.307891	-12.475784
1366.930871	-12.466772
1367.554420	-12.493192
1368.178538	-12.487258
1368.803226	-12.496766
1369.428485	-12.488276
1370.054315	-12.510410
1370.680717	-12.510340
1371.307693	-12.512807
1371.935242	-12.512543
1372.563366	-12.524391
1373.192065	-12.534471
1373.821341	-12.529902
1374.451193	-12.535401
1375.081623	-12.541915
1375.712632	-12.558550
1376.344221	-12.550691
1376.976389	-12.561187
1377.609139	-12.562728
1378.242470	-12.586003
1378.876384	-12.574327
1379.510881	-12.591058
1380.145963	-12.585829
1380.781629	-12.616679
1381.417881	-12.603447
1382.054720	-12.620716
1382.692147	-12.618122
1383.330161	-12.643597
1383.968765	-12.642118
1384.607959	-12.647879
1385.247743	-12.656898
1385.888119	-12.669878
1386.529087	-12.683622
1387.170648	-12.677174
1387.812804	-12.695402
1388.455554	-12.698027
1389.098899	-12.721702
1389.742842	-12.707253
1390.387381	-12.730042
1391.032519	-12.725790
1391.678256	-12.754124
1392.324592	-12.741313
1392.971529	-12.757453
1393.619068	-12.761651
1394.267208	-12.777481
1394.915952	-12.782457
1395.565300	-12.779498
1396.215253	-12.798502
1396.865812	-12.799038
1397.516977	-12.818894
1398.168749	-12.803830
1398.821130	-12.828845
1399.474120	-12.823775
1400.127719	-12.846536
1400.781930	-12.834982
1401.436752	-12.849274
1402.092186	-12.857373
1402.748234	-12.865685
1403.404897	-12.875549
1404.062174	-12.870491
1404.720067	-12.897256
1405.378577	-12.893236
1406.037705	-12.917436
1406.697451	-12.905372
1407.357817	-12.932257
1408.018803	-12.933729
1408.680410	-12.949808
1409.342639	-12.953339
1410.005492	-12.960106
1410.668968	-12.983507
1411.333068	-12.981744
1411.997795	-13.004381
1412.663147	-12.996115
1413.329127	-13.026561
1413.995736	-13.025143
1414.662973	-13.043142
1415.330840	-13.046364
1415.999339	-13.059773
1416.668469	-13.081160
1417.338232	-13.081386
1418.008628	-13.105201
1418.679659	-13.101845
1419.351325	-13.133869
1420.023628	-13.131438
1420.696568	-13.149573
1421.370145	-13.154233
1422.044362	-13.167353
1422.719219	-13.186643
1423.394717	-13.183784
1424.070856	-13.208009
1424.747638	-13.204349
1425.425064	-13.233443
1426.103134	-13.228864
1426.781850	-13.242486
1427.461212	-13.248183
1428.141221	-13.253446
1428.821878	-13.270058
1429.503185	-13.260049
1430.185141	-13.282397
1430.867749	-13.277571
1431.551008	-13.300614
1432.234920	-13.300189
1432.919486	-13.308016
1433.604707	-13.321941
1434.290583	-13.318817
1434.977116	-13.337327
1435.664307	-13.321125
1436.352156	-13.338262
1437.040664	-13.332659
1437.729833	-13.341553
1438.419663	-13.348093
1439.110156	-13.345381
1439.801312	-13.370096
1440.493132	-13.364846
1441.185617	-13.386801
1441.878768	-13.380333
1442.572586	-13.388473
1443.267072	-13.393378
1443.962228	-13.380929
1444.658053	-13.389678
1445.354549	-13.369683
1446.051717	-13.384465
1446.749558	-13.377699
1447.448073	-13.384147
1448.147263	-13.397657
1448.847128	-13.398342
1449.547671	-13.427675
1450.248891	-13.420897
1450.950789	-13.438301
1451.653368	-13.433730
1452.356627	-13.429524
1453.060568	-13.430784
1453.765192	-13.403580
1454.470500	-13.408530
1455.176492	-13.388446
1455.883170	-13.395229
1456.590534	-13.399784
1457.298586	-13.402086
1458.007327	-13.436073
1458.716758	-13.442670
1459.426880	-13.479934
1460.137693	-13.488434
1460.849199	-13.500098
1461.561398	-13.512255
1462.274293	-13.490500
1462.987883	-13.490096
1463.702170	-13.452433
1464.417155	-13.436759
1465.132838	-13.419412
1465.849222	-13.395239
1466.566306	-13.408937
1467.284093	-13.402584
1468.002582	-13.441562
1468.721775	-13.473754
1469.441674	-13.510658
1470.162278	-13.570475
1470.883590	-13.595207
1471.605609	-13.645600
1472.328338	-13.653540
1473.051777	-13.651140
1473.775928	-13.643558
1474.500790	-13.592039
1475.226367	-13.564600
1475.952657	-13.500508
1476.679663	-13.454931
1477.407386	-13.426278
1478.135826	-13.387808
1478.864985	-13.402504
1479.594863	-13.402958
1480.325463	-13.440383
1481.056784	-13.492844
1481.788828	-13.525359
1482.521597	-13.585491
1483.255090	-13.593901
1483.989309	-13.595401
1484.724256	-13.559989
1485.459931	-13.460716
1486.196336	-13.354301
1486.933471	-13.179728
1487.671337	-13.001613
1488.409937	-12.809501
1489.149270	-12.597760
1489.889337	-12.430650
1490.630141	-12.258902
1491.371682	-12.136209
1492.113961	-12.056349
1492.856979	-11.997962
1493.600738	-12.016076
1494.345238	-12.053834
1495.090481	-12.141606
1495.836467	-12.275248
1496.583198	-12.409525
1497.330675	-12.590375
1498.078899	-12.752769
1498.827872	-12.902602
1499.577593	-13.046194
1500.328065	-13.119453
1501.079289	-13.181602
1501.831265	-13.181750
1502.583995	-13.139074
1503.337480	-13.096544
1504.091721	-13.011110
1504.846719	-12.959533
1505.602475	-12.921972
1506.358991	-12.906937
1507.116268	-12.971119
1507.874306	-13.063931
1508.633108	-13.237227
1509.392673	-13.485547
1510.153004	-13.772768
1510.914101	-14.154837
1511.675965	-14.550737
1512.438599	-14.954379
1513.202002	-15.331839
1513.966176	-15.545552
1514.731122	-15.599582
1515.496842	-15.373984
1516.263336	-14.892399
1517.030607	-14.234555
1517.798654	-13.420238
1518.567479	-12.586993
1519.337083	-11.748968
1520.107468	-10.941413
1520.878634	-10.214906
1521.650584	-9.536671
1522.423317	-8.938108
1523.196836	-8.417399
1523.971141	-7.949421
1524.746233	-7.562532
1525.522115	-7.234974
1526.298786	-6.959381
1527.076249	-6.754895
1527.854504	-6.595803
1528.633553	-6.488703
1529.413397	-6.442916
1530.194037	-6.433615
1530.975474	-6.476554
1531.757709	-6.571674
1532.540745	-6.698160
1533.324581	-6.875806
1534.109220	-7.094786
1534.894662	-7.340279
1535.680909	-7.632740
1536.467961	-7.954319
1537.255821	-8.295054
1538.044489	-8.676433
1538.833967	-9.075822
1539.624256	-9.490374
1540.415357	-9.943891
1541.207271	-10.413153
1542.000000	-10.906172
1542.793545	-11.451345
1543.587907	-12.024077
1544.383087	-12.641558
1545.179088	-13.336378
1545.975909	-14.076207
1546.773552	-14.880574
1547.572019	-15.775502
1548.371311	-16.705480
1549.171428	-17.663137
1549.972373	-18.628802
1550.774147	-19.455223
1551.576751	-20.038209
1552.380185	-20.313354
1553.184453	-20.180003
1553.989554	-19.704739
1554.795490	-19.069085
1555.602263	-18.337812
1556.409873	-17.579613
1557.218322	-16.893863
1558.027612	-16.266307
1558.837743	-15.695090
1559.648717	-15.224314
1560.460536	-14.821027
1561.273200	-14.478290
1562.086710	-14.225489
1562.901069	-14.027988
1563.716278	-13.884408
1564.532337	-13.817943
1565.349249	-13.793621
1566.167014	-13.816314
1566.985634	-13.902738
1567.805111	-14.015674
1568.625444	-14.168548
1569.446637	-14.366943
1570.268690	-14.571125
1571.091605	-14.800368
1571.915382	-15.045187
1572.740024	-15.266637
1573.565532	-15.485358
1574.391907	-15.675594
1575.219150	-15.806793
1576.047262	-15.905784
1576.876246	-15.937718
1577.706103	-15.897353
1578.536833	-15.818568
1579.368439	-15.671769
1580.200922	-15.483101
1581.034282	-15.277658
1581.868522	-15.035625
1582.703643	-14.791599
1583.539646	-14.557578
1584.376532	-14.316051
1585.214304	-14.098874
1586.052962	-13.903305
1586.892508	-13.715161
1587.732943	-13.562070
1588.574269	-13.431711
1589.416487	-13.312560
1590.259599	-13.228146
1591.103605	-13.161009
1591.948508	-13.103275
1592.794309	-13.074209
1593.641009	-13.053393
1594.488609	-13.035178
1595.337112	-13.038363
1596.186518	-13.040830
1597.036829	-13.038889
1597.888047	-13.050872
1598.740172	-13.054734
1599.593207	-13.050206
1600.447153	-13.055843
1601.302010	-13.049904
1602.157782	-13.035049
1603.014469	-13.031303
1603.872072	-13.018410
1604.730593	-12.999884
1605.590034	-12.995617
1606.450397	-12.986587
1607.311681	-12.976601
1608.173890	-12.985700
1609.037024	-12.993723
1609.901085	-13.005000
1610.766075	-13.039584
1611.631995	-13.076828
1612.498846	-13.120280
1613.366630	-13.188369
1614.235349	-13.259879
1615.105004	-13.337423
1615.975596	-13.438881
1616.847128	-13.541741
1617.719600	-13.647119
1618.593014	-13.773609
1619.467372	-13.897544
1620.342675	-14.018699
1621.218924	-14.155374
1622.096122	-14.283664
1622.974270	-14.402529
1623.853369	-14.532192
1624.733420	-14.649527
1625.614427	-14.752436
1626.496389	-14.864261
1627.379308	-14.963810
1628.263187	-15.048090
1629.148026	-15.141777
1630.033828	-15.227238
1630.920593	-15.299107
1631.808324	-15.384785
1632.697022	-15.467842
1633.586688	-15.539772
1634.477324	-15.628170
1635.368932	-15.718229
1636.261514	-15.796759
1637.155070	-15.889630
1638.049602	-15.983420
1638.945113	-16.061514
1639.841603	-16.148126
1640.739075	-16.233377
1641.637529	-16.296637
1642.536968	-16.361377
1643.437393	-16.423347
1644.338806	-16.459545
1645.241209	-16.491884
1646.144602	-16.522649
1647.048988	-16.528675
1647.954368	-16.530017
1648.860744	-16.534663
1649.768118	-16.519806
1650.676491	-16.500855
1651.585865	-16.490836
1652.496241	-16.467982
1653.407621	-16.440405
1654.320008	-16.423893
1655.233401	-16.398284
1656.147804	-16.364886
1657.063218	-16.340849
1657.979645	-16.308689
1658.897085	-16.263864
1659.815542	-16.224712
1660.735016	-16.180122
1661.655509	-16.121766
1662.577023	-16.066872
1663.499560	-16.011333
1664.423121	-15.944109
1665.347709	-15.880712
1666.273324	-15.822524
1667.199969	-15.755300
1668.127645	-15.690487
1669.056353	-15.633745
1669.986097	-15.569890
1670.916877	-15.504465
1671.848695	-15.445721
1672.781553	-15.382217
1673.715452	-15.313302
1674.650395	-15.249987
1675.586383	-15.185040
1676.523418	-15.113555
1677.461501	-15.047713
1678.400635	-14.983810
1679.340821	-14.914401
1680.282061	-14.848758
1681.224357	-14.788064
1682.167710	-14.723186
1683.112122	-14.659410
1684.057595	-14.601097
1685.004132	-14.539913
1685.951732	-14.477084
1686.900400	-14.419512
1687.850135	-14.361214
1688.800940	-14.299791
1689.752818	-14.243293
1690.705768	-14.188778
1691.659795	-14.130482
1692.614898	-14.075057
1693.571081	-14.023222
1694.528345	-13.968693
1695.486691	-13.914994
1696.446122	-13.866056
1697.406640	-13.816258
1698.368245	-13.765474
1699.330941	-13.719264
1700.294729	-13.674022
1701.259611	-13.626304
1702.225588	-13.581876
1703.192664	-13.540518
1704.160838	-13.497397
1705.130114	-13.455715
1706.100493	-13.418129
1707.071977	-13.380263
1708.044568	-13.342309
1709.018268	-13.308114
1709.993079	-13.275337
1710.969003	-13.241585
1711.946041	-13.210549
1712.924196	-13.181887
1713.903469	-13.151825
1714.883862	-13.122881
1715.865378	-13.096986
1716.848017	-13.071171
1717.831783	-13.045440
1718.816677	-13.022375
1719.802701	-13.000463
1720.789857	-12.977599
1721.778147	-12.956428
1722.767573	-12.936997
1723.758136	-12.916966
1724.749840	-12.897700
1725.742685	-12.880562
1726.736673	-12.863422
1727.731808	-12.845575
1728.728090	-12.829676
1729.725521	-12.814693
1730.724105	-12.798923
1731.723842	-12.784288
1732.724735	-12.771329
1733.726785	-12.757500
1734.729995	-12.743491
1735.734366	-12.731174
1736.739902	-12.719064
1737.746603	-12.706258
1738.754472	-12.695282
1739.763510	-12.685693
1740.773721	-12.675402
1741.785105	-12.665684
1742.797665	-12.657530
1743.811403	-12.648692
1744.826321	-12.639249
1745.842422	-12.631372
1746.859706	-12.624615
1747.878177	-12.617211
1748.897835	-12.610815
1749.918685	-12.606246
1750.940726	-12.601312
1751.963963	-12.595990
1752.988395	-12.592320
1754.014027	-12.588991
1755.040860	-12.584929
1756.068895	-12.581840
1757.098135	-12.580269
1758.128583	-12.578623
1759.160240	-12.577382
1760.193109	-12.577903
1761.227191	-12.579027
1762.262488	-12.579599
1763.299004	-12.581129
1764.336740	-12.583687
1765.375697	-12.585710
1766.415880	-12.588124
1767.457288	-12.592156
1768.499926	-12.596871
1769.543794	-12.601580
1770.588895	-12.607151
1771.635231	-12.613549
1772.682805	-12.619248
1773.731619	-12.625091
1774.781674	-12.632462
1775.832973	-12.639760
1776.885519	-12.647166
1777.939312	-12.655558
1778.994357	-12.664585
1780.050654	-12.673143
1781.108207	-12.681751
1782.167017	-12.691192
1783.227087	-12.700206
1784.288418	-12.708871
1785.351013	-12.718317
1786.414875	-12.728185
1787.480006	-12.737336
1788.546407	-12.746704
1789.614082	-12.756995
1790.683032	-12.766646
1791.753259	-12.775621
1792.824767	-12.785566
1793.897557	-12.796124
1794.971632	-12.806385
1796.046994	-12.817176
1797.123645	-12.829164
1798.201588	-12.840995
1799.280824	-12.852159
1800.361357	-12.864353
1801.443188	-12.877461
1802.526320	-12.890076
1803.610756	-12.903093
1804.696497	-12.917505
1805.783546	-12.931977
1806.871906	-12.945813
1807.961578	-12.960326
1809.052565	-12.975787
1810.144870	-12.990679
1811.238494	-13.004983
1812.333441	-13.020192
1813.429713	-13.035742
1814.527311	-13.050877
1815.626239	-13.066765
1816.726499	-13.083618
1817.828094	-13.100057
1818.931025	-13.115814
1820.035295	-13.131985
1821.140906	-13.148686
1822.247862	-13.165209
1823.356165	-13.182268
1824.465816	-13.200494
1825.576819	-13.218791
1826.689175	-13.236813
1827.802888	-13.255173
1828.917960	-13.273929
1830.034394	-13.292528
1831.152191	-13.311504
1832.271354	-13.331650
1833.391887	-13.352351
1834.513790	-13.373017
1835.637068	-13.394026
1836.761722	-13.414991
1837.887755	-13.435291
1839.015169	-13.455480
1840.143968	-13.476505
1841.274153	-13.498024
1842.405727	-13.519549
1843.538693	-13.541634
1844.673053	-13.564118
1845.808810	-13.586283
1846.945966	-13.608134
1848.084525	-13.630462
1849.224488	-13.653233
1850.365858	-13.675900
1851.508638	-13.698991
1852.652831	-13.722755
1853.798438	-13.746330
1854.945463	-13.769285
1856.093909	-13.792231
1857.243777	-13.815356
1858.395071	-13.837765
1859.547794	-13.860016
1860.701947	-13.882773
1861.857533	-13.905441
1863.014556	-13.927545
1864.173018	-13.949368
1865.332922	-13.971500
1866.494270	-13.993518
1867.657065	-14.015658
1868.821309	-14.038932
1869.987006	-14.062919
1871.154158	-14.086458
1872.322768	-14.109491
1873.492839	-14.132740
1874.664373	-14.156399
1875.837373	-14.180434
1877.011841	-14.205211
1878.187782	-14.230787
1879.365197	-14.256257
1880.544089	-14.281023
1881.724460	-14.305882
1882.906315	-14.331151
1884.089655	-14.356596
1885.274483	-14.382124
1886.460803	-14.407715
1887.648616	-14.433334
1888.837927	-14.458587
1890.028736	-14.483468
1891.221049	-14.508188
1892.414866	-14.532406
1893.610192	-14.555627
1894.807028	-14.578652
1896.005379	-14.602156
1897.205246	-14.625058
1898.406633	-14.647180
1899.609542	-14.669182
1900.813977	-14.690321
1902.019940	-14.710114
1903.227434	-14.729759
1904.436462	-14.748960
1905.647028	-14.766550
1906.859133	-14.783172
1908.072781	-14.799110
1909.287976	-14.813181
1910.504719	-14.826098
1911.723013	-14.839243
1912.942863	-14.851324
1914.164270	-14.861352
1915.387238	-14.870380
1916.611770	-14.879064
1917.837868	-14.886933
1919.065536	-14.894598
1920.294777	-14.901805
1921.525594	-14.907509
1922.757989	-14.911977
1923.991967	-14.916219
1925.227529	-14.920322
1926.464679	-14.924096
1927.703420	-14.927235
1928.943755	-14.929135
1930.185688	-14.930147
1931.429221	-14.930754
1932.674356	-14.930996
1933.921099	-14.930599
1935.169451	-14.930017
1936.419415	-14.929134
1937.670996	-14.927512
1938.924195	-14.925044
1940.179017	-14.921516
1941.435463	-14.916564
1942.693538	-14.910264
1943.953245	-14.903382
1945.214586	-14.895960
1946.477566	-14.887306
1947.742186	-14.876815
1949.008451	-14.864344
1950.276363	-14.850248
1951.545926	-14.835222
1952.817143	-14.819473
1954.090017	-14.802491
1955.364551	-14.783762
1956.640749	-14.763620
1957.918615	-14.742076
1959.198150	-14.719053
1960.479359	-14.694638
1961.762244	-14.669225
1963.046810	-14.643056
1964.333059	-14.616202
1965.620995	-14.588444
1966.910621	-14.559687
1968.201940	-14.529836
1969.494956	-14.499617
1970.789672	-14.469278
1972.086091	-14.438586
1973.384217	-14.406900
1974.684053	-14.374258
1975.985602	-14.341543
1977.288869	-14.309381
1978.593855	-14.277848
1979.900566	-14.247163
1981.209003	-14.216864
1982.519171	-14.186423
1983.831073	-14.155954
1985.144712	-14.126078
1986.460093	-14.096812
1987.777217	-14.068029
1989.096089	-14.039636
1990.416713	-14.011667
1991.739092	-13.983534
1993.063228	-13.955098
1994.389127	-13.926893
1995.716791	-13.899477
1997.046223	-13.872218
1998.377428	-13.844012
1999.710409	-13.814423
2001.045169	-13.783966
2002.381713	-13.752940
2003.720043	-13.721491
2005.060163	-13.689450
2006.402077	-13.656587
2007.745788	-13.622968
2009.091301	-13.589095
2010.438618	-13.555578
2011.787743	-13.522913
2013.138680	-13.490533
2014.491433	-13.457798
2015.846005	-13.424581
2017.202399	-13.390995
2018.560621	-13.357165
2019.920673	-13.323322
2021.282558	-13.289523
2022.646281	-13.255317
2024.011846	-13.220818
2025.379256	-13.186414
2026.748515	-13.152529
2028.119626	-13.119642
2029.492594	-13.087964
2030.867422	-13.057046
2032.244114	-13.026822
2033.622673	-12.997424
2035.003104	-12.969649
2036.385411	-12.943388
2037.769597	-12.917525
2039.155665	-12.891609
2040.543621	-12.865921
2041.933467	-12.840443
2043.325208	-12.815247
2044.718847	-12.790052
2046.114389	-12.764366
2047.511837	-12.738349
2048.911195	-12.712479
2050.312467	-12.686800
2051.715657	-12.661091
2053.120769	-12.635891
2054.527807	-12.611194
2055.936775	-12.586707
2057.347677	-12.562345
2058.760516	-12.538480
2060.175297	-12.515205
2061.592025	-12.492416
2063.010701	-12.470121
2064.431332	-12.448454
2065.853921	-12.427893
2067.278472	-12.408852
2068.704988	-12.391247
2070.133475	-12.375168
2071.563936	-12.361108
2072.996375	-12.349308
2074.430796	-12.339535
2075.867204	-12.331422
2077.305603	-12.324545
2078.745996	-12.318348
2080.188389	-12.312151
2081.632784	-12.305649
2083.079187	-12.298793
2084.527601	-12.291037
2085.978030	-12.281839
2087.430480	-12.271252
2088.884954	-12.259395
2090.341455	-12.245994
2091.799990	-12.230871
2093.260561	-12.214518
2094.723173	-12.197705
2096.187831	-12.180446
2097.654538	-12.162366
2099.123300	-12.144043
2100.594119	-12.126495
2102.067001	-12.110500
2103.541950	-12.096179
2105.018971	-12.083873
2106.498067	-12.074239
2107.979243	-12.067355
2109.462503	-12.062964
2110.947853	-12.060639
2112.435295	-12.060028
2113.924836	-12.060876
2115.416478	-12.062871
2116.910227	-12.065301
2118.406087	-12.067865
2119.904063	-12.070754
2121.404158	-12.074121
2122.906378	-12.077535
2124.410727	-12.080413
2125.917210	-12.082884
2127.425831	-12.085525
2128.936594	-12.087937
2130.449505	-12.089085
2131.964567	-12.088562
2133.481786	-12.087178
2135.001166	-12.085675
2136.522711	-12.083851
2138.046427	-12.081696
2139.572317	-12.079478
2141.100388	-12.077411
2142.630642	-12.076191
2144.163085	-12.076519
2145.697722	-12.078651
2147.234558	-12.082673
2148.773596	-12.089091
2150.314842	-12.098978
2151.858301	-12.112148
2153.403977	-12.127123
2154.951875	-12.144457
2156.502000	-12.165258
2158.054357	-12.188523
2159.608950	-12.211967
2161.165785	-12.235193
2162.724866	-12.259500
2164.286198	-12.284274
2165.849786	-12.307146
2167.415635	-12.327839
2168.983749	-12.348426
2170.554134	-12.368895
2172.126795	-12.387397
2173.701737	-12.403990
2175.278964	-12.419422
2176.858481	-12.434527
2178.440294	-12.449445
2180.024408	-12.463704
2181.610827	-12.477984
2183.199557	-12.493230
2184.790602	-12.510143
2186.383968	-12.528002
2187.979660	-12.546416
2189.577683	-12.566647
2191.178041	-12.589663
2192.780741	-12.614595
2194.385787	-12.640684
2195.993185	-12.669081
2197.602939	-12.700403
2199.215054	-12.727216
