# 2022-03-21_14.14.26
# shape = sech2
# FWHM_ps = 0.1
# carrier_nm = 1542
# frep_MHz = 12126
# pow_mW = 8000
# GDD = 0.0
# propa_len = 0.12111111111111113
# untap_len = 0.01
# taper_len = 0.061111111111111116
# waist_len = 0.02
# uptap_len = 0.02
# untap_scale = 1.0
# waist_scale = 0.2
# workingDir = NL_20110305_12 (Spirou)
# axis = slow
# window_ps = 10.0
# steps = 200
# points = 13000
# 
# wavelength [nm]	 power spectral density [dB]
1000.248639	-21.584227
1000.582480	-21.474796
1000.916545	-21.511734
1001.250832	-21.551121
1001.585343	-21.457632
1001.920077	-21.477042
1002.255035	-21.518525
1002.590218	-21.431607
1002.925624	-21.442900
1003.261255	-21.488916
1003.597111	-21.414330
1003.933192	-21.429946
1004.269497	-21.473582
1004.606029	-21.387382
1004.942785	-21.401760
1005.279768	-21.460210
1005.616977	-21.370866
1005.954412	-21.377543
1006.292074	-21.446235
1006.629962	-21.348734
1006.968077	-21.337132
1007.306420	-21.421878
1007.644990	-21.340321
1007.983787	-21.314351
1008.322813	-21.393550
1008.662067	-21.319264
1009.001549	-21.286498
1009.341259	-21.360523
1009.681199	-21.295298
1010.021367	-21.264450
1010.361765	-21.325453
1010.702392	-21.249200
1011.043250	-21.220319
1011.384337	-21.285341
1011.725654	-21.207106
1012.067202	-21.178413
1012.408980	-21.241306
1012.750989	-21.152037
1013.093230	-21.121464
1013.435702	-21.194321
1013.778405	-21.105148
1014.121341	-21.065135
1014.464508	-21.132375
1014.807908	-21.040932
1015.151540	-20.998177
1015.495405	-21.065603
1015.839503	-20.980567
1016.183835	-20.937032
1016.528400	-20.991100
1016.873198	-20.906461
1017.218231	-20.876222
1017.563498	-20.926582
1017.908999	-20.837682
1018.254735	-20.815122
1018.600707	-20.855459
1018.946913	-20.756866
1019.293354	-20.749534
1019.640032	-20.794251
1019.986945	-20.686658
1020.334094	-20.681681
1020.681480	-20.725768
1021.029102	-20.620792
1021.376961	-20.627368
1021.725058	-20.669857
1022.073391	-20.564175
1022.421962	-20.574795
1022.770772	-20.607294
1023.119819	-20.508094
1023.469104	-20.533740
1023.818628	-20.554027
1024.168391	-20.454461
1024.518393	-20.492420
1024.868634	-20.502729
1025.219115	-20.412565
1025.569836	-20.467998
1025.920796	-20.462970
1026.271997	-20.374313
1026.623438	-20.440696
1026.975121	-20.423115
1027.327044	-20.345727
1027.679208	-20.420445
1028.031614	-20.382016
1028.384262	-20.314583
1028.737152	-20.397653
1029.090284	-20.346952
1029.443659	-20.298732
1029.797276	-20.381339
1030.151137	-20.310206
1030.505240	-20.281452
1030.859587	-20.361199
1031.214178	-20.276468
1031.569013	-20.268288
1031.924093	-20.330733
1032.279417	-20.233267
1032.634985	-20.252239
1032.990799	-20.297137
1033.346858	-20.196484
1033.703162	-20.240561
1034.059712	-20.255091
1034.416509	-20.154663
1034.773551	-20.223541
1035.130841	-20.209027
1035.488377	-20.114594
1035.846160	-20.190809
1036.204190	-20.143475
1036.562468	-20.073563
1036.920994	-20.153812
1037.279768	-20.076580
1037.638790	-20.036595
1037.998061	-20.104382
1038.357581	-20.004153
1038.717350	-20.003471
1039.077368	-20.047545
1039.437636	-19.929320
1039.798154	-19.959134
1040.158922	-19.970341
1040.519940	-19.858934
1040.881209	-19.916782
1041.242729	-19.886834
1041.604501	-19.796279
1041.966524	-19.868262
1042.328798	-19.801244
1042.691325	-19.749482
1043.054103	-19.814043
1043.417135	-19.709949
1043.780419	-19.701636
1044.143956	-19.746651
1044.507746	-19.630239
1044.871791	-19.663422
1045.236088	-19.669044
1045.600641	-19.564048
1045.965447	-19.632483
1046.330508	-19.594170
1046.695824	-19.519056
1047.061395	-19.594465
1047.427222	-19.513040
1047.793304	-19.486383
1048.159642	-19.548059
1048.526237	-19.442132
1048.893088	-19.465567
1049.260196	-19.489973
1049.627561	-19.391330
1049.995183	-19.458378
1050.363063	-19.429231
1050.731201	-19.358072
1051.099597	-19.440129
1051.468251	-19.363072
1051.837164	-19.342512
1052.206336	-19.407208
1052.575767	-19.301032
1052.945458	-19.336976
1053.315409	-19.362678
1053.685619	-19.263433
1054.056090	-19.335830
1054.426821	-19.302854
1054.797814	-19.240697
1055.169067	-19.318550
1055.540582	-19.236091
1055.912359	-19.227553
1056.284398	-19.272622
1056.656698	-19.174381
1057.029262	-19.222180
1057.402088	-19.210091
1057.775177	-19.129888
1058.148530	-19.202611
1058.522146	-19.130595
1058.896027	-19.097672
1059.270171	-19.152005
1059.644580	-19.042142
1060.019254	-19.063921
1060.394193	-19.071705
1060.769397	-18.970867
1061.144867	-19.024901
1061.520602	-18.972417
1061.896604	-18.917381
1062.272872	-18.963336
1062.649407	-18.867293
1063.026210	-18.866082
1063.403279	-18.865050
1063.780616	-18.771424
1064.158221	-18.810971
1064.536094	-18.750972
1064.914235	-18.698971
1065.292645	-18.738935
1065.671325	-18.640538
1066.050273	-18.642289
1066.429491	-18.636911
1066.808979	-18.539319
1067.188738	-18.578576
1067.568766	-18.519231
1067.949066	-18.464924
1068.329636	-18.500475
1068.710478	-18.411867
1069.091592	-18.415988
1069.472977	-18.407450
1069.854635	-18.327863
1070.236565	-18.362280
1070.618768	-18.301682
1071.001243	-18.272261
1071.383993	-18.294479
1071.767016	-18.212133
1072.150313	-18.240954
1072.533884	-18.219594
1072.917730	-18.161565
1073.301850	-18.209716
1073.686246	-18.140642
1074.070917	-18.136787
1074.455864	-18.157384
1074.841087	-18.080937
1075.226586	-18.123665
1075.612362	-18.093593
1075.998415	-18.061624
1076.384745	-18.105912
1076.771353	-18.038358
1077.158238	-18.062544
1077.545401	-18.059342
1077.932843	-18.005203
1078.320564	-18.055913
1078.708564	-17.999210
1079.096842	-18.003647
1079.485401	-18.030660
1079.874240	-17.962535
1080.263358	-18.013870
1080.652757	-17.979521
1081.042438	-17.952146
1081.432399	-17.996524
1081.822641	-17.923685
1082.213166	-17.954974
1082.603972	-17.946302
1082.995061	-17.899794
1083.386433	-17.948666
1083.778087	-17.884955
1084.170025	-17.896781
1084.562246	-17.898221
1084.954751	-17.833603
1085.347541	-17.875886
1085.740615	-17.814403
1086.133973	-17.807145
1086.527617	-17.818939
1086.921546	-17.743625
1087.315761	-17.780459
1087.710262	-17.724252
1088.105050	-17.694959
1088.500124	-17.708683
1088.895485	-17.623505
1089.291134	-17.648523
1089.687070	-17.599937
1090.083294	-17.559789
1090.479806	-17.578015
1090.876607	-17.494480
1091.273696	-17.512917
1091.671075	-17.466860
1092.068744	-17.417200
1092.466702	-17.437171
1092.864950	-17.353570
1093.263489	-17.369737
1093.662319	-17.333113
1094.061440	-17.283325
1094.460852	-17.308873
1094.860555	-17.227315
1095.260551	-17.237741
1095.660840	-17.205055
1096.061421	-17.153654
1096.462295	-17.178507
1096.863462	-17.103435
1097.264923	-17.115846
1097.666678	-17.088393
1098.068727	-17.040974
1098.471071	-17.060252
1098.873710	-16.987840
1099.276644	-17.000586
1099.679874	-16.968478
1100.083400	-16.929017
1100.487222	-16.949972
1100.891340	-16.884552
1101.295756	-16.904421
1101.700468	-16.867777
1102.105478	-16.836701
1102.510787	-16.855910
1102.916393	-16.790900
1103.322298	-16.818205
1103.728502	-16.783138
1104.135005	-16.766375
1104.541807	-16.786055
1104.948909	-16.726497
1105.356312	-16.759234
1105.764015	-16.719658
1106.172019	-16.710848
1106.580324	-16.723440
1106.988931	-16.674542
1107.397840	-16.712620
1107.807051	-16.667419
1108.216564	-16.670231
1108.626380	-16.670380
1109.036500	-16.625086
1109.446923	-16.654751
1109.857649	-16.600279
1110.268680	-16.614145
1110.680016	-16.597967
1111.091657	-16.561478
1111.503602	-16.581979
1111.915854	-16.520174
1112.328411	-16.535605
1112.741275	-16.495903
1113.154445	-16.470538
1113.567922	-16.477657
1113.981706	-16.418544
1114.395798	-16.437792
1114.810198	-16.385084
1115.224906	-16.376314
1115.639923	-16.360756
1116.055249	-16.311454
1116.470884	-16.331010
1116.886829	-16.273182
1117.303084	-16.286391
1117.719650	-16.257271
1118.136526	-16.232517
1118.553713	-16.244257
1118.971212	-16.189396
1119.389022	-16.216043
1119.807145	-16.175316
1120.225580	-16.180318
1120.644328	-16.178923
1121.063389	-16.146799
1121.482763	-16.176892
1121.902452	-16.128544
1122.322454	-16.154149
1122.742771	-16.130148
1123.163404	-16.125553
1123.584351	-16.140571
1124.005614	-16.102645
1124.427193	-16.136983
1124.849089	-16.092515
1125.271301	-16.107747
1125.693830	-16.090041
1126.116677	-16.070894
1126.539842	-16.086802
1126.963324	-16.040665
1127.387126	-16.066037
1127.811246	-16.019721
1128.235685	-16.020447
1128.660444	-15.999328
1129.085522	-15.965938
1129.510922	-15.974227
1129.936641	-15.919673
1130.362682	-15.933368
1130.789044	-15.883464
1131.215728	-15.872540
1131.642734	-15.847129
1132.070063	-15.805836
1132.497714	-15.807283
1132.925689	-15.751106
1133.353987	-15.758997
1133.782610	-15.709290
1134.211556	-15.698150
1134.640827	-15.670948
1135.070424	-15.632779
1135.500345	-15.633076
1135.930593	-15.580474
1136.361166	-15.590820
1136.792067	-15.543741
1137.223294	-15.539219
1137.654848	-15.512284
1138.086730	-15.483160
1138.518940	-15.482413
1138.951479	-15.437807
1139.384346	-15.451216
1139.817543	-15.406311
1140.251069	-15.410807
1140.684925	-15.380279
1141.119111	-15.361514
1141.553628	-15.355488
1141.988475	-15.317523
1142.423655	-15.328805
1142.859166	-15.282774
1143.295009	-15.291778
1143.731185	-15.250611
1144.167694	-15.241016
1144.604536	-15.220286
1145.041711	-15.188740
1145.479221	-15.189938
1145.917065	-15.141102
1146.355245	-15.149678
1146.793759	-15.094666
1147.232609	-15.093657
1147.671795	-15.052098
1148.111317	-15.032045
1148.551177	-15.013617
1148.991373	-14.971252
1149.431907	-14.969610
1149.872779	-14.909416
1150.313989	-14.913232
1150.755538	-14.853865
1151.197426	-14.851059
1151.639653	-14.808479
1152.082220	-14.787281
1152.525128	-14.764671
1152.968376	-14.719890
1153.411966	-14.716573
1153.855897	-14.658537
1154.300169	-14.667101
1154.744784	-14.610777
1155.189742	-14.614752
1155.635042	-14.570024
1156.080687	-14.555911
1156.526674	-14.533053
1156.973007	-14.500187
1157.419683	-14.501578
1157.866705	-14.455206
1158.314072	-14.469095
1158.761786	-14.416505
1159.209845	-14.429081
1159.658251	-14.386216
1160.107004	-14.387981
1160.556104	-14.367395
1161.005553	-14.350175
1161.455349	-14.350893
1161.905494	-14.312127
1162.355989	-14.330687
1162.806832	-14.280652
1163.258026	-14.309533
1163.709570	-14.261585
1164.161464	-14.284619
1164.613710	-14.247022
1165.066307	-14.251877
1165.519256	-14.235711
1165.972558	-14.219137
1166.426212	-14.229716
1166.880219	-14.191841
1167.334580	-14.219547
1167.789295	-14.165964
1168.244364	-14.201176
1168.699788	-14.146256
1169.155567	-14.180201
1169.611702	-14.136513
1170.068193	-14.154383
1170.525041	-14.127868
1170.982245	-14.122085
1171.439807	-14.119325
1171.897726	-14.092103
1172.356004	-14.113489
1172.814640	-14.066475
1173.273635	-14.100989
1173.732989	-14.041941
1174.192703	-14.079883
1174.652778	-14.024499
1175.113213	-14.056706
1175.574009	-14.014377
1176.035167	-14.027207
1176.496687	-14.003546
1176.958569	-13.991859
1177.420814	-13.994245
1177.883422	-13.959832
1178.346394	-13.986422
1178.809730	-13.928960
1179.273430	-13.971045
1179.737496	-13.898467
1180.201927	-13.950603
1180.666723	-13.875939
1181.131886	-13.927946
1181.597416	-13.857641
1182.063312	-13.896884
1182.529576	-13.839271
1182.996209	-13.862376
1183.463209	-13.825927
1183.930579	-13.829786
1184.398317	-13.812885
1184.866426	-13.793914
1185.334904	-13.795037
1185.803754	-13.759832
1186.272974	-13.777551
1186.742566	-13.732413
1187.212529	-13.756610
1187.682865	-13.705038
1188.153574	-13.728905
1188.624656	-13.681136
1189.096112	-13.701273
1189.567942	-13.663469
1190.040147	-13.670973
1190.512726	-13.644179
1190.985681	-13.636654
1191.459012	-13.625975
1191.932720	-13.605814
1192.406804	-13.610310
1192.881265	-13.575188
1193.356104	-13.589874
1193.831322	-13.543906
1194.306918	-13.568677
1194.782893	-13.518235
1195.259248	-13.547848
1195.735982	-13.493288
1196.213097	-13.521515
1196.690593	-13.468705
1197.168471	-13.495377
1197.646730	-13.449221
1198.125371	-13.469529
1198.604395	-13.428658
1199.083803	-13.439693
1199.563594	-13.408259
1200.043769	-13.412189
1200.524329	-13.391495
1201.005273	-13.385276
1201.486604	-13.371958
1201.968320	-13.356383
1202.450422	-13.353054
1202.932912	-13.331432
1203.415789	-13.336629
1203.899054	-13.306457
1204.382707	-13.316896
1204.866748	-13.281339
1205.351179	-13.298826
1205.836000	-13.260857
1206.321211	-13.281738
1206.806812	-13.239432
1207.292805	-13.261683
1207.779189	-13.219617
1208.265965	-13.244067
1208.753134	-13.203987
1209.240696	-13.225389
1209.728651	-13.186719
1210.217000	-13.204660
1210.705744	-13.172385
1211.194883	-13.186570
1211.684417	-13.160269
1212.174347	-13.165620
1212.664673	-13.146122
1213.155396	-13.144315
1213.646516	-13.135157
1214.138034	-13.124913
1214.629951	-13.123008
1215.122266	-13.102001
1215.614980	-13.108956
1216.108095	-13.080713
1216.601609	-13.096943
1217.095524	-13.059588
1217.589841	-13.080650
1218.084559	-13.035790
1218.579679	-13.063415
1219.075202	-13.014941
1219.571128	-13.045800
1220.067458	-12.991958
1220.564191	-13.023029
1221.061330	-12.968430
1221.558874	-13.000804
1222.056823	-12.947093
1222.555178	-12.975591
1223.053940	-12.922311
1223.553109	-12.947117
1224.052686	-12.899250
1224.552671	-12.919907
1225.053065	-12.875767
1225.553867	-12.888437
1226.055079	-12.849610
1226.556702	-12.857332
1227.058735	-12.826002
1227.561179	-12.826351
1228.064035	-12.799313
1228.567303	-12.792323
1229.070983	-12.772767
1229.575077	-12.761285
1230.079585	-12.747042
1230.584506	-12.728279
1231.089842	-12.717854
1231.595594	-12.695788
1232.101761	-12.691166
1232.608345	-12.665560
1233.115345	-12.662306
1233.622762	-12.632950
1234.130597	-12.632896
1234.638851	-12.603864
1235.147523	-12.605296
1235.656615	-12.573927
1236.166126	-12.574581
1236.676058	-12.544322
1237.186411	-12.546760
1237.697185	-12.517516
1238.208381	-12.517782
1238.719999	-12.488426
1239.232040	-12.488943
1239.744505	-12.462854
1240.257394	-12.462895
1240.770708	-12.436520
1241.284446	-12.434741
1241.798610	-12.410980
1242.313201	-12.410492
1242.828218	-12.388533
1243.343662	-12.385547
1243.859534	-12.364665
1244.375834	-12.361909
1244.892563	-12.345605
1245.409721	-12.341126
1245.927309	-12.326440
1246.445327	-12.318927
1246.963777	-12.310211
1247.482657	-12.301427
1248.001970	-12.297378
1248.521716	-12.283171
1249.041894	-12.284359
1249.562506	-12.268568
1250.083553	-12.276493
1250.605034	-12.257144
1251.126950	-12.267216
1251.649302	-12.247274
1252.172091	-12.261203
1252.695316	-12.244131
1253.218979	-12.255429
1253.743079	-12.241665
1254.267619	-12.249507
1254.792597	-12.245690
1255.318015	-12.247032
1255.843874	-12.251037
1256.370173	-12.243203
1256.896913	-12.258526
1257.424095	-12.245400
1257.951720	-12.267900
1258.479787	-12.248663
1259.008298	-12.274129
1259.537254	-12.257873
1260.066654	-12.282257
1260.596499	-12.271243
1261.126790	-12.285801
1261.657527	-12.286805
1262.188711	-12.291856
1262.720342	-12.306596
1263.252422	-12.297543
1263.784950	-12.322738
1264.317928	-12.306915
1264.851355	-12.339819
1265.385232	-12.321724
1265.919560	-12.350262
1266.454340	-12.339041
1266.989572	-12.359749
1267.525256	-12.362548
1268.061394	-12.366605
1268.597985	-12.383297
1269.135031	-12.374539
1269.672531	-12.404965
1270.210487	-12.387434
1270.748899	-12.418887
1271.287768	-12.402881
1271.827094	-12.429403
1272.366877	-12.425382
1272.907119	-12.434849
1273.447820	-12.445658
1273.988981	-12.439479
1274.530601	-12.466428
1275.072683	-12.447921
1275.615226	-12.477625
1276.158230	-12.459058
1276.701697	-12.483633
1277.245627	-12.476867
1277.790021	-12.482182
1278.334879	-12.491516
1278.880202	-12.480021
1279.425991	-12.504700
1279.972245	-12.480985
1280.518966	-12.505503
1281.066155	-12.485497
1281.613811	-12.500450
1282.161936	-12.494580
1282.710529	-12.487364
1283.259593	-12.498311
1283.809126	-12.476679
1284.359131	-12.497237
1284.909607	-12.469034
1285.460555	-12.482366
1286.011976	-12.466130
1286.563870	-12.463714
1287.116237	-12.463181
1287.669080	-12.439856
1288.222397	-12.452644
1288.776191	-12.423608
1289.330460	-12.433903
1289.885207	-12.409421
1290.440431	-12.404609
1290.996133	-12.399242
1291.552314	-12.376273
1292.108975	-12.381448
1292.666115	-12.348785
1293.223737	-12.355914
1293.781839	-12.330911
1294.340424	-12.321398
1294.899491	-12.310948
1295.459041	-12.286069
1296.019075	-12.289849
1296.579593	-12.255734
1297.140597	-12.255574
1297.702086	-12.231185
1298.264061	-12.218503
1298.826524	-12.208724
1299.389474	-12.178055
1299.952912	-12.179011
1300.516839	-12.147676
1301.081255	-12.142354
1301.646162	-12.119628
1302.211559	-12.099480
1302.777448	-12.094327
1303.343829	-12.062353
1303.910702	-12.058929
1304.478069	-12.030261
1305.045930	-12.019752
1305.614285	-12.004921
1306.183136	-11.977490
1306.752483	-11.973744
1307.322326	-11.944662
1307.892666	-11.938456
1308.463504	-11.916213
1309.034841	-11.897217
1309.606677	-11.891234
1310.179012	-11.863236
1310.751849	-11.858325
1311.325186	-11.834458
1311.899025	-11.823067
1312.473366	-11.812342
1313.048211	-11.787162
1313.623559	-11.784273
1314.199412	-11.761493
1314.775770	-11.753305
1315.352634	-11.738976
1315.930004	-11.719747
1316.507881	-11.718054
1317.086266	-11.695174
1317.665159	-11.688857
1318.244562	-11.675472
1318.824474	-11.661302
1319.404897	-11.657946
1319.985831	-11.636374
1320.567276	-11.634059
1321.149234	-11.622104
1321.731706	-11.609315
1322.314691	-11.605850
1322.898190	-11.588963
1323.482205	-11.588696
1324.066736	-11.576426
1324.651783	-11.566019
1325.237347	-11.565741
1325.823430	-11.551580
1326.410031	-11.550640
1326.997151	-11.541054
1327.584791	-11.534630
1328.172952	-11.535281
1328.761634	-11.521953
1329.350839	-11.523024
1329.940566	-11.517904
1330.530817	-11.511680
1331.121592	-11.512595
1331.712891	-11.503344
1332.304716	-11.506370
1332.897068	-11.502346
1333.489946	-11.496338
1334.083352	-11.500946
1334.677287	-11.494636
1335.271750	-11.495923
1335.866744	-11.494962
1336.462268	-11.491856
1337.058323	-11.497423
1337.654910	-11.491865
1338.252029	-11.494148
1338.849682	-11.497919
1339.447869	-11.494293
1340.046591	-11.499562
1340.645848	-11.498788
1341.245641	-11.501586
1341.845972	-11.506065
1342.446840	-11.503420
1343.048246	-11.511162
1343.650191	-11.513207
1344.252677	-11.513525
1344.855702	-11.521301
1345.459269	-11.522062
1346.063379	-11.527812
1346.668030	-11.532060
1347.273226	-11.533975
1347.878965	-11.543493
1348.485250	-11.544659
1349.092080	-11.549379
1349.699456	-11.558720
1350.307380	-11.560002
1350.915851	-11.567615
1351.524871	-11.573816
1352.134441	-11.578114
1352.744560	-11.587306
1353.355231	-11.590287
1353.966453	-11.598227
1354.578227	-11.607302
1355.190555	-11.609404
1355.803436	-11.619518
1356.416872	-11.627245
1357.030863	-11.631316
1357.645411	-11.641572
1358.260515	-11.647620
1358.876177	-11.655236
1359.492397	-11.664317
1360.109176	-11.669357
1360.726516	-11.680124
1361.344416	-11.687828
1361.962877	-11.693098
1362.581901	-11.705252
1363.201487	-11.712200
1363.821637	-11.718876
1364.442352	-11.730544
1365.063632	-11.737507
1365.685478	-11.746230
1366.307891	-11.756274
1366.930871	-11.763736
1367.554420	-11.774389
1368.178538	-11.782634
1368.803226	-11.790734
1369.428485	-11.802589
1370.054315	-11.809665
1370.680717	-11.818371
1371.307693	-11.830482
1371.935242	-11.837348
1372.563366	-11.846646
1373.192065	-11.858157
1373.821341	-11.865655
1374.451193	-11.875524
1375.081623	-11.885935
1375.712632	-11.894485
1376.344221	-11.904971
1376.976389	-11.914249
1377.609139	-11.923932
1378.242470	-11.935084
1378.876384	-11.943599
1379.510881	-11.954279
1380.145963	-11.966077
1380.781629	-11.974323
1381.417881	-11.985682
1382.054720	-11.997922
1382.692147	-12.006317
1383.330161	-12.017964
1383.968765	-12.030368
1384.607959	-12.039246
1385.247743	-12.050969
1385.888119	-12.063331
1386.529087	-12.072905
1387.170648	-12.084682
1387.812804	-12.096837
1388.455554	-12.107190
1389.098899	-12.118964
1389.742842	-12.130703
1390.387381	-12.141623
1391.032519	-12.153291
1391.678256	-12.164433
1392.324592	-12.175680
1392.971529	-12.187292
1393.619068	-12.197924
1394.267208	-12.209423
1394.915952	-12.221174
1395.565300	-12.231504
1396.215253	-12.243255
1396.865812	-12.255222
1397.516977	-12.265374
1398.168749	-12.277177
1398.821130	-12.289230
1399.474120	-12.299165
1400.127719	-12.310777
1400.781930	-12.322880
1401.436752	-12.332717
1402.092186	-12.344222
1402.748234	-12.356546
1403.404897	-12.366572
1404.062174	-12.378201
1404.720067	-12.390880
1405.378577	-12.401247
1406.037705	-12.412937
1406.697451	-12.425850
1407.357817	-12.436381
1408.018803	-12.447863
1408.680410	-12.460732
1409.342639	-12.471276
1410.005492	-12.482495
1410.668968	-12.495364
1411.333068	-12.506139
1411.997795	-12.517396
1412.663147	-12.530566
1413.329127	-12.541909
1413.995736	-12.553472
1414.662973	-12.567041
1415.330840	-12.578869
1415.999339	-12.590545
1416.668469	-12.604093
1417.338232	-12.615958
1418.008628	-12.627300
1418.679659	-12.640502
1419.351325	-12.652224
1420.023628	-12.663375
1420.696568	-12.676534
1421.370145	-12.688701
1422.044362	-12.700438
1422.719219	-12.714274
1423.394717	-12.727528
1424.070856	-12.740396
1424.747638	-12.754993
1425.425064	-12.769033
1426.103134	-12.782479
1426.781850	-12.796891
1427.461212	-12.810491
1428.141221	-12.823569
1428.821878	-12.836872
1429.503185	-12.849330
1430.185141	-12.861975
1430.867749	-12.874715
1431.551008	-12.886867
1432.234920	-12.900491
1432.919486	-12.914429
1433.604707	-12.928013
1434.290583	-12.943985
1434.977116	-12.960203
1435.664307	-12.975625
1436.352156	-12.993419
1437.040664	-13.010591
1437.729833	-13.026004
1438.419663	-13.042953
1439.110156	-13.058249
1439.801312	-13.071076
1440.493132	-13.084829
1441.185617	-13.096682
1441.878768	-13.106779
1442.572586	-13.118017
1443.267072	-13.128281
1443.962228	-13.138757
1444.658053	-13.151089
1445.354549	-13.163672
1446.051717	-13.178488
1446.749558	-13.195074
1447.448073	-13.212110
1448.147263	-13.231982
1448.847128	-13.251884
1449.547671	-13.270867
1450.248891	-13.291475
1450.950789	-13.309431
1451.653368	-13.324470
1452.356627	-13.339136
1453.060568	-13.349327
1453.765192	-13.356082
1454.470500	-13.361245
1455.176492	-13.362700
1455.883170	-13.363012
1456.590534	-13.362268
1457.298586	-13.360806
1458.007327	-13.362406
1458.716758	-13.364648
1459.426880	-13.369516
1460.137693	-13.380431
1460.849199	-13.393282
1461.561398	-13.410257
1462.274293	-13.432349
1462.987883	-13.455693
1463.702170	-13.481786
1464.417155	-13.507859
1465.132838	-13.532104
1465.849222	-13.555268
1466.566306	-13.571917
1467.284093	-13.583088
1468.002582	-13.589065
1468.721775	-13.585136
1469.441674	-13.574858
1470.162278	-13.557861
1470.883590	-13.533514
1471.605609	-13.506204
1472.328338	-13.474672
1473.051777	-13.442868
1473.775928	-13.413556
1474.500790	-13.385260
1475.226367	-13.363762
1475.952657	-13.348680
1476.679663	-13.339829
1477.407386	-13.340880
1478.135826	-13.348644
1478.864985	-13.364628
1479.594863	-13.387586
1480.325463	-13.413431
1481.056784	-13.443566
1481.788828	-13.471980
1482.521597	-13.495725
1483.255090	-13.513538
1483.989309	-13.518190
1484.724256	-13.509268
1485.459931	-13.482594
1486.196336	-13.435514
1486.933471	-13.370096
1487.671337	-13.282856
1488.409937	-13.178004
1489.149270	-13.058474
1489.889337	-12.925428
1490.630141	-12.785829
1491.371682	-12.641227
1492.113961	-12.497412
1492.856979	-12.358659
1493.600738	-12.225548
1494.345238	-12.104226
1495.090481	-11.994856
1495.836467	-11.899686
1496.583198	-11.820710
1497.330675	-11.756503
1498.078899	-11.710444
1498.827872	-11.680022
1499.577593	-11.665089
1500.328065	-11.665818
1501.079289	-11.678568
1501.831265	-11.703531
1502.583995	-11.735430
1503.337480	-11.771330
1504.091721	-11.807628
1504.846719	-11.836404
1505.602475	-11.853672
1506.358991	-11.850818
1507.116268	-11.822339
1507.874306	-11.763130
1508.633108	-11.666934
1509.392673	-11.534414
1510.153004	-11.364706
1510.914101	-11.162367
1511.675965	-10.933644
1512.438599	-10.684773
1513.202002	-10.426574
1513.966176	-10.166101
1514.731122	-9.912776
1515.496842	-9.674122
1516.263336	-9.456131
1517.030607	-9.266063
1517.798654	-9.107186
1518.567479	-8.985122
1519.337083	-8.903010
1520.107468	-8.864440
1520.878634	-8.873699
1521.650584	-8.933336
1522.423317	-9.049181
1523.196836	-9.224720
1523.971141	-9.466613
1524.746233	-9.781452
1525.522115	-10.177255
1526.298786	-10.665269
1527.076249	-11.256078
1527.854504	-11.966646
1528.633553	-12.813622
1529.413397	-13.820002
1530.194037	-15.007674
1530.975474	-16.392285
1531.757709	-17.956253
1532.540745	-19.562351
1533.324581	-20.807925
1534.109220	-21.055190
1534.894662	-20.157801
1535.680909	-18.677133
1536.467961	-17.141703
1537.255821	-15.761551
1538.044489	-14.588787
1538.833967	-13.613484
1539.624256	-12.817567
1540.415357	-12.178683
1541.207271	-11.679516
1542.000000	-11.304423
1542.793545	-11.039856
1543.587907	-10.875755
1544.383087	-10.800799
1545.179088	-10.807075
1545.975909	-10.883017
1546.773552	-11.020047
1547.572019	-11.205066
1548.371311	-11.426262
1549.171428	-11.667218
1549.972373	-11.911246
1550.774147	-12.139871
1551.576751	-12.334432
1552.380185	-12.479748
1553.184453	-12.562998
1553.989554	-12.581026
1554.795490	-12.534023
1555.602263	-12.432621
1556.409873	-12.286856
1557.218322	-12.113183
1558.027612	-11.923235
1558.837743	-11.730913
1559.648717	-11.544247
1560.460536	-11.371759
1561.273200	-11.217749
1562.086710	-11.085889
1562.901069	-10.978333
1563.716278	-10.895530
1564.532337	-10.838980
1565.349249	-10.807360
1566.167014	-10.802013
1566.985634	-10.820752
1567.805111	-10.865034
1568.625444	-10.932391
1569.446637	-11.023963
1570.268690	-11.137277
1571.091605	-11.272632
1571.915382	-11.427736
1572.740024	-11.601605
1573.565532	-11.792158
1574.391907	-11.996800
1575.219150	-12.213574
1576.047262	-12.438264
1576.876246	-12.668999
1577.706103	-12.900084
1578.536833	-13.129526
1579.368439	-13.350760
1580.200922	-13.561793
1581.034282	-13.756191
1581.868522	-13.932002
1582.703643	-14.084039
1583.539646	-14.211051
1584.376532	-14.310428
1585.214304	-14.381972
1586.052962	-14.426047
1586.892508	-14.443475
1587.732943	-14.437295
1588.574269	-14.408836
1589.416487	-14.362735
1590.259599	-14.300202
1591.103605	-14.226161
1591.948508	-14.140995
1592.794309	-14.049019
1593.641009	-13.949783
1594.488609	-13.846756
1595.337112	-13.738726
1596.186518	-13.628168
1597.036829	-13.513490
1597.888047	-13.396630
1598.740172	-13.276171
1599.593207	-13.153648
1600.447153	-13.027965
1601.302010	-12.900629
1602.157782	-12.771139
1603.014469	-12.641060
1603.872072	-12.510399
1604.730593	-12.380669
1605.590034	-12.252258
1606.450397	-12.126681
1607.311681	-12.004582
1608.173890	-11.887206
1609.037024	-11.775195
1609.901085	-11.669540
1610.766075	-11.570797
1611.631995	-11.479664
1612.498846	-11.396469
1613.366630	-11.321489
1614.235349	-11.254872
1615.105004	-11.196592
1615.975596	-11.146632
1616.847128	-11.104635
1617.719600	-11.070369
1618.593014	-11.043190
1619.467372	-11.022652
1620.342675	-11.007909
1621.218924	-10.998281
1622.096122	-10.992710
1622.974270	-10.990394
1623.853369	-10.990238
1624.733420	-10.991466
1625.614427	-10.993071
1626.496389	-10.994531
1627.379308	-10.995094
1628.263187	-10.994566
1629.148026	-10.992633
1630.033828	-10.989375
1630.920593	-10.984852
1631.808324	-10.979367
1632.697022	-10.973238
1633.586688	-10.966925
1634.477324	-10.960892
1635.368932	-10.955575
1636.261514	-10.951499
1637.155070	-10.948935
1638.049602	-10.948507
1638.945113	-10.950176
1639.841603	-10.954550
1640.739075	-10.961283
1641.637529	-10.970868
1642.536968	-10.982556
1643.437393	-10.996760
1644.338806	-11.012362
1645.241209	-11.029728
1646.144602	-11.047484
1647.048988	-11.066046
1647.954368	-11.083986
1648.860744	-11.101796
1649.768118	-11.118268
1650.676491	-11.134030
1651.585865	-11.148235
1652.496241	-11.161642
1653.407621	-11.173918
1654.320008	-11.185777
1655.233401	-11.197318
1656.147804	-11.208958
1657.063218	-11.221162
1657.979645	-11.233823
1658.897085	-11.247666
1659.815542	-11.262083
1660.735016	-11.278057
1661.655509	-11.294526
1662.577023	-11.312516
1663.499560	-11.330882
1664.423121	-11.350465
1665.347709	-11.370205
1666.273324	-11.390610
1667.199969	-11.411087
1668.127645	-11.431555
1669.056353	-11.452149
1669.986097	-11.472267
1670.916877	-11.492849
1671.848695	-11.512845
1672.781553	-11.533645
1673.715452	-11.554133
1674.650395	-11.575589
1675.586383	-11.597230
1676.523418	-11.619714
1677.461501	-11.642953
1678.400635	-11.666672
1679.340821	-11.691625
1680.282061	-11.716712
1681.224357	-11.743203
1682.167710	-11.769724
1683.112122	-11.797424
1684.057595	-11.825336
1685.004132	-11.853867
1685.951732	-11.882929
1686.900400	-11.911998
1687.850135	-11.941842
1688.800940	-11.971346
1689.752818	-12.001805
1690.705768	-12.032174
1691.659795	-12.063390
1692.614898	-12.095075
1693.571081	-12.127326
1694.528345	-12.160551
1695.486691	-12.193937
1696.446122	-12.228323
1697.406640	-12.262592
1698.368245	-12.297450
1699.330941	-12.332214
1700.294729	-12.367070
1701.259611	-12.402198
1702.225588	-12.437217
1703.192664	-12.472922
1704.160838	-12.508627
1705.130114	-12.545108
1706.100493	-12.581908
1707.071977	-12.619213
1708.044568	-12.657049
1709.018268	-12.695022
1709.993079	-12.733644
1710.969003	-12.772301
1711.946041	-12.811556
1712.924196	-12.851088
1713.903469	-12.891032
1714.883862	-12.931554
1715.865378	-12.972338
1716.848017	-13.013837
1717.831783	-13.055596
1718.816677	-13.097977
1719.802701	-13.140831
1720.789857	-13.184171
1721.778147	-13.228246
1722.767573	-13.272710
1723.758136	-13.317944
1724.749840	-13.363590
1725.742685	-13.409754
1726.736673	-13.456349
1727.731808	-13.503152
1728.728090	-13.550434
1729.725521	-13.597834
1730.724105	-13.645624
1731.723842	-13.693653
1732.724735	-13.741900
1733.726785	-13.790493
1734.729995	-13.839114
1735.734366	-13.887973
1736.739902	-13.936772
1737.746603	-13.985612
1738.754472	-14.034461
1739.763510	-14.083150
1740.773721	-14.131935
1741.785105	-14.180551
1742.797665	-14.229267
1743.811403	-14.277956
1744.826321	-14.326554
1745.842422	-14.375259
1746.859706	-14.423714
1747.878177	-14.472297
1748.897835	-14.520745
1749.918685	-14.568956
1750.940726	-14.617174
1751.963963	-14.664853
1752.988395	-14.712433
1754.014027	-14.759650
1755.040860	-14.806291
1756.068895	-14.852881
1757.098135	-14.898789
1758.128583	-14.944454
1759.160240	-14.989877
1760.193109	-15.034556
1761.227191	-15.079175
1762.262488	-15.123120
1763.299004	-15.166392
1764.336740	-15.209219
1765.375697	-15.250775
1766.415880	-15.291612
1767.457288	-15.331626
1768.499926	-15.370515
1769.543794	-15.408978
1770.588895	-15.446376
1771.635231	-15.482797
1772.682805	-15.518461
1773.731619	-15.552620
1774.781674	-15.585697
1775.832973	-15.617420
1776.885519	-15.647469
1777.939312	-15.676437
1778.994357	-15.703973
1780.050654	-15.730274
1781.108207	-15.755725
1782.167017	-15.779816
1783.227087	-15.802899
1784.288418	-15.824859
1785.351013	-15.845329
1786.414875	-15.864750
1787.480006	-15.882879
1788.546407	-15.899833
1789.614082	-15.916113
1790.683032	-15.931482
1791.753259	-15.946228
1792.824767	-15.960473
1793.897557	-15.973874
1794.971632	-15.986657
1796.046994	-15.998554
1797.123645	-16.009298
1798.201588	-16.019094
1799.280824	-16.027634
1800.361357	-16.034891
1801.443188	-16.041007
1802.526320	-16.045687
1803.610756	-16.049096
1804.696497	-16.051302
1805.783546	-16.052024
1806.871906	-16.051444
1807.961578	-16.049430
1809.052565	-16.045697
1810.144870	-16.040448
1811.238494	-16.033520
1812.333441	-16.024793
1813.429713	-16.014547
1814.527311	-16.002740
1815.626239	-15.989408
1816.726499	-15.974776
1817.828094	-15.958684
1818.931025	-15.941027
1820.035295	-15.921933
1821.140906	-15.901444
1822.247862	-15.879771
1823.356165	-15.857273
1824.465816	-15.833995
1825.576819	-15.809860
1826.689175	-15.784772
1827.802888	-15.758666
1828.917960	-15.731504
1830.034394	-15.703382
1831.152191	-15.674549
1832.271354	-15.645188
1833.391887	-15.615405
1834.513790	-15.585420
1835.637068	-15.555174
1836.761722	-15.524406
1837.887755	-15.493131
1839.015169	-15.461368
1840.143968	-15.428983
1841.274153	-15.396172
1842.405727	-15.363067
1843.538693	-15.329482
1844.673053	-15.295477
1845.808810	-15.261200
1846.945966	-15.226501
1848.084525	-15.191529
1849.224488	-15.156672
1850.365858	-15.121931
1851.508638	-15.087276
1852.652831	-15.052740
1853.798438	-15.018079
1854.945463	-14.983222
1856.093909	-14.948487
1857.243777	-14.914119
1858.395071	-14.880253
1859.547794	-14.847003
1860.701947	-14.814110
1861.857533	-14.781087
1863.014556	-14.747766
1864.173018	-14.714154
1865.332922	-14.680231
1866.494270	-14.646181
1867.657065	-14.612114
1868.821309	-14.577930
1869.987006	-14.543613
1871.154158	-14.509108
1872.322768	-14.474269
1873.492839	-14.439112
1874.664373	-14.403753
1875.837373	-14.368208
1877.011841	-14.332552
1878.187782	-14.296949
1879.365197	-14.261385
1880.544089	-14.225759
1881.724460	-14.190184
1882.906315	-14.154732
1884.089655	-14.119269
1885.274483	-14.083749
1886.460803	-14.048195
1887.648616	-14.012571
1888.837927	-13.977017
1890.028736	-13.941861
1891.221049	-13.907151
1892.414866	-13.872639
1893.610192	-13.838148
1894.807028	-13.803521
1896.005379	-13.768692
1897.205246	-13.733941
1898.406633	-13.699712
1899.609542	-13.666167
1900.813977	-13.633149
1902.019940	-13.600444
1903.227434	-13.567828
1904.436462	-13.535202
1905.647028	-13.502778
1906.859133	-13.470984
1908.072781	-13.440164
1909.287976	-13.410333
1910.504719	-13.381261
1911.723013	-13.352629
1912.942863	-13.324230
1914.164270	-13.296066
1915.387238	-13.268297
1916.611770	-13.241147
1917.837868	-13.214759
1919.065536	-13.189133
1920.294777	-13.164181
1921.525594	-13.139741
1922.757989	-13.115627
1923.991967	-13.091729
1925.227529	-13.068079
1926.464679	-13.044807
1927.703420	-13.022057
1928.943755	-12.999926
1930.185688	-12.978435
1931.429221	-12.957503
1932.674356	-12.936852
1933.921099	-12.916074
1935.169451	-12.894958
1936.419415	-12.873648
1937.670996	-12.852439
1938.924195	-12.831546
1940.179017	-12.811012
1941.435463	-12.790623
1942.693538	-12.770027
1943.953245	-12.749072
1945.214586	-12.727904
1946.477566	-12.706802
1947.742186	-12.686082
1949.008451	-12.665948
1950.276363	-12.646339
1951.545926	-12.627023
1952.817143	-12.607793
1954.090017	-12.588588
1955.364551	-12.569531
1956.640749	-12.550806
1957.918615	-12.532560
1959.198150	-12.514837
1960.479359	-12.497521
1961.762244	-12.480415
1963.046810	-12.463352
1964.333059	-12.446220
1965.620995	-12.429044
1966.910621	-12.412067
1968.201940	-12.395635
1969.494956	-12.379988
1970.789672	-12.365165
1972.086091	-12.351027
1973.384217	-12.337386
1974.684053	-12.324221
1975.985602	-12.311755
1977.288869	-12.300270
1978.593855	-12.289847
1979.900566	-12.280264
1981.209003	-12.271130
1982.519171	-12.262151
1983.831073	-12.253282
1985.144712	-12.244639
1986.460093	-12.236370
1987.777217	-12.228539
1989.096089	-12.221024
1990.416713	-12.213574
1991.739092	-12.205962
1993.063228	-12.198146
1994.389127	-12.190369
1995.716791	-12.182941
1997.046223	-12.175936
1998.377428	-12.169092
1999.710409	-12.161995
2001.045169	-12.154386
2002.381713	-12.146383
2003.720043	-12.138408
2005.060163	-12.130850
2006.402077	-12.123788
2007.745788	-12.116937
2009.091301	-12.109868
2010.438618	-12.102443
2011.787743	-12.094953
2013.138680	-12.087799
2014.491433	-12.081131
2015.846005	-12.074723
2017.202399	-12.068235
2018.560621	-12.061607
2019.920673	-12.055142
2021.282558	-12.049200
2022.646281	-12.043862
2024.011846	-12.038962
2025.379256	-12.034354
2026.748515	-12.030093
2028.119626	-12.026424
2029.492594	-12.023571
2030.867422	-12.021623
2032.244114	-12.020531
2033.622673	-12.020195
2035.003104	-12.020563
2036.385411	-12.021720
2037.769597	-12.023809
2039.155665	-12.026917
2040.543621	-12.031029
2041.933467	-12.036077
2043.325208	-12.041911
2044.718847	-12.048248
2046.114389	-12.054747
2047.511837	-12.061266
2048.911195	-12.068004
2050.312467	-12.075245
2051.715657	-12.082977
2053.120769	-12.090877
2054.527807	-12.098742
2055.936775	-12.106789
2057.347677	-12.115386
2058.760516	-12.124650
2060.175297	-12.134388
2061.592025	-12.144268
2063.010701	-12.153942
2064.431332	-12.163071
2065.853921	-12.171464
2067.278472	-12.179222
2068.704988	-12.186566
2070.133475	-12.193557
2071.563936	-12.200085
2072.996375	-12.206107
2074.430796	-12.211826
2075.867204	-12.217717
2077.305603	-12.224490
2078.745996	-12.232652
2080.188389	-12.241890
2081.632784	-12.251296
2083.079187	-12.260467
2084.527601	-12.269982
2085.978030	-12.280532
2087.430480	-12.291957
2088.884954	-12.303504
2090.341455	-12.314827
2091.799990	-12.326444
2093.260561	-12.339308
2094.723173	-12.354054
2096.187831	-12.370676
2097.654538	-12.389039
2099.123300	-12.409555
2100.594119	-12.432963
2102.067001	-12.459370
2103.541950	-12.487896
2105.018971	-12.517447
2106.498067	-12.547584
2107.979243	-12.578324
2109.462503	-12.609301
2110.947853	-12.639695
2112.435295	-12.668949
2113.924836	-12.697055
2115.416478	-12.724221
2116.910227	-12.750554
2118.406087	-12.776220
2119.904063	-12.801631
2121.404158	-12.827125
2122.906378	-12.852638
2124.410727	-12.877876
2125.917210	-12.902872
2127.425831	-12.928143
2128.936594	-12.953862
2130.449505	-12.979105
2131.964567	-13.002639
2133.481786	-13.024563
2135.001166	-13.046311
2136.522711	-13.068656
2138.046427	-13.090639
2139.572317	-13.111043
2141.100388	-13.130447
2142.630642	-13.150771
2144.163085	-13.173270
2145.697722	-13.197676
2147.234558	-13.223168
2148.773596	-13.249731
2150.314842	-13.278305
2151.858301	-13.310003
2153.403977	-13.345347
2154.951875	-13.384064
2156.502000	-13.425437
2158.054357	-13.468947
2159.608950	-13.514911
2161.165785	-13.564134
2162.724866	-13.616523
2164.286198	-13.670472
2165.849786	-13.724273
2167.415635	-13.777876
2168.983749	-13.832535
2170.554134	-13.888674
2172.126795	-13.944948
2173.701737	-13.999811
2175.278964	-14.053546
2176.858481	-14.107903
2178.440294	-14.163976
2180.024408	-14.221123
2181.610827	-14.277862
2183.199557	-14.333565
2184.790602	-14.388951
2186.383968	-14.444738
2187.979660	-14.500078
2189.577683	-14.553088
2191.178041	-14.602814
2192.780741	-14.649939
2194.385787	-14.695662
2195.993185	-14.740381
2197.602939	-14.783576
2199.215054	-14.818715
