# 2022-03-21_14.12.47
# shape = sech2
# FWHM_ps = 0.1
# carrier_nm = 1542
# frep_MHz = 12126
# pow_mW = 8000
# GDD = 0.0
# propa_len = 0.12111111111111113
# untap_len = 0.01
# taper_len = 0.061111111111111116
# waist_len = 0.02
# uptap_len = 0.02
# untap_scale = 1.0
# waist_scale = 0.13333333333333336
# workingDir = NL_20110305_12 (Spirou)
# axis = slow
# window_ps = 10.0
# steps = 200
# points = 13000
# 
# wavelength [nm]	 power spectral density [dB]
1000.248639	-21.494583
1000.582480	-21.398526
1000.916545	-21.462384
1001.250832	-21.548722
1001.585343	-21.466019
1001.920077	-21.333071
1002.255035	-21.361158
1002.590218	-21.477755
1002.925624	-21.459130
1003.261255	-21.312077
1003.597111	-21.267848
1003.933192	-21.372115
1004.269497	-21.404691
1004.606029	-21.298552
1004.942785	-21.210665
1005.279768	-21.275370
1005.616977	-21.336518
1005.954412	-21.249092
1006.292074	-21.144053
1006.629962	-21.172829
1006.968077	-21.266958
1007.306420	-21.217466
1007.644990	-21.077886
1007.983787	-21.052190
1008.322813	-21.149294
1008.662067	-21.175074
1009.001549	-21.048314
1009.341259	-20.960034
1009.681199	-21.014013
1010.021367	-21.080196
1010.361765	-21.011350
1010.702392	-20.893219
1011.043250	-20.897177
1011.384337	-20.971322
1011.725654	-20.958336
1012.067202	-20.836945
1012.408980	-20.780500
1012.750989	-20.846840
1013.093230	-20.884785
1013.435702	-20.809249
1013.778405	-20.700734
1014.121341	-20.705680
1014.464508	-20.773496
1014.807908	-20.761942
1015.151540	-20.663944
1015.495405	-20.599142
1015.839503	-20.648631
1016.183835	-20.688662
1016.528400	-20.625636
1016.873198	-20.530609
1017.218231	-20.523975
1017.563498	-20.595990
1017.908999	-20.591906
1018.254735	-20.499366
1018.600707	-20.429052
1018.946913	-20.468821
1019.293354	-20.528680
1019.640032	-20.486288
1019.986945	-20.397036
1020.334094	-20.366481
1020.681480	-20.426809
1021.029102	-20.449771
1021.376961	-20.385433
1021.725058	-20.315953
1022.073391	-20.328457
1022.421962	-20.391428
1022.770772	-20.377274
1023.119819	-20.299762
1023.469104	-20.252961
1023.818628	-20.299758
1024.168391	-20.352016
1024.518393	-20.313971
1024.868634	-20.235125
1025.219115	-20.210909
1025.569836	-20.270473
1025.920796	-20.302414
1026.271997	-20.255619
1026.623438	-20.185386
1026.975121	-20.177624
1027.327044	-20.235378
1027.679208	-20.248901
1028.031614	-20.200732
1028.384262	-20.132794
1028.737152	-20.139394
1029.090284	-20.188160
1029.443659	-20.194151
1029.797276	-20.137432
1030.151137	-20.074573
1030.505240	-20.090130
1030.859587	-20.124738
1031.214178	-20.124870
1031.569013	-20.056401
1031.924093	-20.008571
1032.279417	-20.019743
1032.634985	-20.049550
1032.990799	-20.034587
1033.346858	-19.960404
1033.703162	-19.919962
1034.059712	-19.925378
1034.416509	-19.957338
1034.773551	-19.927148
1035.130841	-19.860040
1035.488377	-19.807522
1035.846160	-19.812980
1036.204190	-19.838060
1036.562468	-19.810707
1036.920994	-19.747416
1037.279768	-19.688116
1037.638790	-19.692252
1037.998061	-19.702775
1038.357581	-19.686267
1038.717350	-19.620059
1039.077368	-19.570258
1039.437636	-19.562956
1039.798154	-19.573419
1040.158922	-19.557383
1040.519940	-19.496082
1040.881209	-19.450184
1041.242729	-19.432395
1041.604501	-19.448541
1041.966524	-19.432158
1042.328798	-19.386882
1042.691325	-19.332880
1043.054103	-19.313284
1043.417135	-19.324023
1043.780419	-19.319114
1044.143956	-19.284610
1044.507746	-19.228209
1044.871791	-19.208778
1045.236088	-19.211016
1045.600641	-19.219640
1045.965447	-19.188795
1046.330508	-19.143906
1046.695824	-19.114116
1047.061395	-19.115638
1047.427222	-19.129924
1047.793304	-19.111603
1048.159642	-19.077047
1048.526237	-19.036677
1048.893088	-19.040718
1049.260196	-19.048873
1049.627561	-19.054451
1049.995183	-19.019294
1050.363063	-18.990026
1050.731201	-18.977874
1051.099597	-18.992951
1051.468251	-19.002578
1051.837164	-18.983878
1052.206336	-18.957015
1052.575767	-18.937306
1052.945458	-18.952839
1053.315409	-18.962417
1053.685619	-18.965240
1054.056090	-18.934655
1054.426821	-18.920520
1054.797814	-18.914180
1055.169067	-18.936775
1055.540582	-18.939587
1055.912359	-18.929102
1056.284398	-18.898992
1056.656698	-18.888332
1057.029262	-18.895695
1057.402088	-18.906638
1057.775177	-18.900816
1058.148530	-18.869978
1058.522146	-18.846819
1058.896027	-18.831907
1059.270171	-18.842522
1059.644580	-18.833327
1060.019254	-18.812528
1060.394193	-18.767995
1060.769397	-18.742893
1061.144867	-18.726554
1061.520602	-18.723146
1061.896604	-18.700983
1062.272872	-18.661419
1062.649407	-18.614384
1063.026210	-18.580271
1063.403279	-18.566962
1063.780616	-18.547874
1064.158221	-18.518951
1064.536094	-18.464272
1064.914235	-18.423409
1065.292645	-18.387229
1065.671325	-18.377322
1066.050273	-18.351773
1066.429491	-18.321321
1066.808979	-18.264157
1067.188738	-18.229171
1067.568766	-18.199819
1067.949066	-18.197916
1068.329636	-18.174343
1068.710478	-18.146927
1069.091592	-18.097822
1069.472977	-18.072331
1069.854635	-18.053159
1070.236565	-18.057883
1070.618768	-18.042899
1071.001243	-18.024279
1071.383993	-17.988665
1071.767016	-17.973486
1072.150313	-17.966366
1072.533884	-17.976250
1072.917730	-17.969941
1073.301850	-17.957639
1073.686246	-17.935512
1074.070917	-17.930297
1074.455864	-17.935382
1074.841087	-17.946461
1075.226586	-17.942776
1075.612362	-17.930071
1075.998415	-17.916508
1076.384745	-17.915357
1076.771353	-17.924775
1077.158238	-17.932448
1077.545401	-17.928291
1077.932843	-17.909800
1078.320564	-17.895139
1078.708564	-17.888413
1079.096842	-17.895052
1079.485401	-17.896591
1079.874240	-17.889742
1080.263358	-17.862290
1080.652757	-17.840834
1081.042438	-17.825581
1081.432399	-17.828298
1081.822641	-17.822256
1082.213166	-17.811491
1082.603972	-17.780110
1082.995061	-17.755559
1083.386433	-17.732994
1083.778087	-17.730815
1084.170025	-17.720446
1084.562246	-17.709169
1084.954751	-17.678013
1085.347541	-17.655906
1085.740615	-17.630083
1086.133973	-17.624848
1086.527617	-17.609890
1086.921546	-17.600192
1087.315761	-17.568865
1087.710262	-17.548862
1088.105050	-17.520078
1088.500124	-17.514170
1088.895485	-17.493598
1089.291134	-17.483864
1089.687070	-17.448157
1090.083294	-17.427073
1090.479806	-17.392714
1090.876607	-17.383908
1091.273696	-17.358209
1091.671075	-17.345858
1092.068744	-17.306093
1092.466702	-17.281376
1092.864950	-17.241777
1093.263489	-17.227062
1093.662319	-17.199013
1094.061440	-17.184979
1094.460852	-17.148168
1094.860555	-17.120126
1095.260551	-17.081294
1095.660840	-17.060287
1096.061421	-17.036259
1096.462295	-17.020446
1096.863462	-16.994268
1097.264923	-16.965725
1097.666678	-16.935409
1098.068727	-16.910422
1098.471071	-16.895571
1098.873710	-16.878376
1099.276644	-16.864465
1099.679874	-16.837885
1100.083400	-16.818929
1100.487222	-16.794074
1100.891340	-16.787753
1101.295756	-16.772833
1101.700468	-16.769095
1102.105478	-16.746746
1102.510787	-16.734842
1102.916393	-16.711416
1103.322298	-16.709274
1103.728502	-16.698767
1104.135005	-16.701465
1104.541807	-16.686136
1104.948909	-16.678952
1105.356312	-16.659029
1105.764015	-16.655766
1106.172019	-16.648303
1106.580324	-16.653153
1106.988931	-16.645395
1107.397840	-16.639493
1107.807051	-16.624780
1108.216564	-16.617499
1108.626380	-16.614932
1109.036500	-16.616509
1109.446923	-16.618431
1109.857649	-16.608450
1110.268680	-16.600609
1110.680016	-16.583431
1111.091657	-16.584485
1111.503602	-16.577805
1111.915854	-16.586735
1112.328411	-16.573322
1112.741275	-16.568791
1113.154445	-16.544938
1113.567922	-16.539622
1113.981706	-16.526825
1114.395798	-16.528542
1114.810198	-16.516581
1115.224906	-16.503696
1115.639923	-16.480441
1116.055249	-16.459429
1116.470884	-16.445320
1116.886829	-16.431582
1117.303084	-16.421450
1117.719650	-16.395895
1118.136526	-16.372279
1118.553713	-16.336679
1118.971212	-16.317629
1119.389022	-16.292560
1119.807145	-16.279312
1120.225580	-16.249418
1120.644328	-16.220262
1121.063389	-16.180738
1121.482763	-16.150602
1121.902452	-16.125534
1122.322454	-16.104119
1122.742771	-16.082402
1123.163404	-16.047109
1123.584351	-16.015475
1124.005614	-15.975788
1124.427193	-15.956695
1124.849089	-15.930698
1125.271301	-15.917726
1125.693830	-15.887035
1126.116677	-15.860610
1126.539842	-15.827145
1126.963324	-15.805778
1127.387126	-15.790838
1127.811246	-15.774869
1128.235685	-15.761315
1128.660444	-15.732188
1129.085522	-15.713348
1129.510922	-15.687018
1129.936641	-15.681937
1130.362682	-15.667426
1130.789044	-15.660707
1131.215728	-15.639074
1131.642734	-15.619152
1132.070063	-15.600114
1132.497714	-15.583961
1132.925689	-15.579488
1133.353987	-15.563287
1133.782610	-15.555270
1134.211556	-15.529044
1134.640827	-15.515652
1135.070424	-15.491921
1135.500345	-15.479540
1135.930593	-15.462042
1136.361166	-15.443214
1136.792067	-15.429203
1137.223294	-15.405446
1137.654848	-15.393572
1138.086730	-15.365194
1138.518940	-15.345959
1138.951479	-15.314130
1139.384346	-15.292217
1139.817543	-15.274895
1140.251069	-15.256968
1140.684925	-15.244710
1141.119111	-15.212755
1141.553628	-15.186285
1141.988475	-15.148214
1142.423655	-15.127167
1142.859166	-15.111041
1143.295009	-15.099254
1143.731185	-15.086477
1144.167694	-15.057257
1144.604536	-15.031727
1145.041711	-14.997179
1145.479221	-14.981254
1145.917065	-14.966581
1146.355245	-14.960403
1146.793759	-14.948703
1147.232609	-14.929902
1147.671795	-14.910545
1148.111317	-14.885719
1148.551177	-14.874964
1148.991373	-14.862004
1149.431907	-14.861902
1149.872779	-14.853601
1150.313989	-14.845856
1150.755538	-14.834470
1151.197426	-14.817004
1151.639653	-14.811410
1152.082220	-14.799468
1152.525128	-14.803525
1152.968376	-14.798552
1153.411966	-14.795490
1153.855897	-14.789814
1154.300169	-14.773611
1154.744784	-14.771280
1155.189742	-14.758564
1155.635042	-14.762313
1156.080687	-14.758129
1156.526674	-14.752539
1156.973007	-14.748383
1157.419683	-14.729616
1157.866705	-14.726361
1158.314072	-14.712787
1158.761786	-14.710848
1159.209845	-14.706228
1159.658251	-14.694184
1160.107004	-14.687443
1160.556104	-14.666388
1161.005553	-14.658943
1161.455349	-14.645519
1161.905494	-14.637484
1162.355989	-14.630450
1162.806832	-14.612608
1163.258026	-14.602490
1163.709570	-14.580619
1164.161464	-14.570797
1164.613710	-14.557730
1165.066307	-14.545262
1165.519256	-14.536141
1165.972558	-14.514156
1166.426212	-14.503578
1166.880219	-14.483150
1167.334580	-14.472049
1167.789295	-14.461854
1168.244364	-14.443619
1168.699788	-14.435490
1169.155567	-14.412294
1169.611702	-14.401147
1170.068193	-14.387537
1170.525041	-14.371377
1170.982245	-14.365502
1171.439807	-14.343258
1171.897726	-14.333557
1172.356004	-14.316909
1172.814640	-14.300929
1173.273635	-14.295053
1173.732989	-14.274313
1174.192703	-14.266395
1174.652778	-14.248410
1175.113213	-14.232302
1175.574009	-14.224429
1176.035167	-14.204650
1176.496687	-14.197967
1176.958569	-14.179772
1177.420814	-14.163919
1177.883422	-14.153689
1178.346394	-14.133453
1178.809730	-14.127286
1179.273430	-14.109696
1179.737496	-14.094644
1180.201927	-14.083222
1180.666723	-14.061496
1181.131886	-14.054591
1181.597416	-14.037430
1182.063312	-14.023265
1182.529576	-14.013096
1182.996209	-13.990118
1183.463209	-13.981630
1183.930579	-13.964653
1184.398317	-13.950146
1184.866426	-13.942195
1185.334904	-13.920452
1185.803754	-13.910315
1186.272974	-13.893948
1186.742566	-13.877146
1187.212529	-13.870667
1187.682865	-13.851538
1188.153574	-13.840687
1188.624656	-13.826531
1189.096112	-13.806936
1189.567942	-13.799701
1190.040147	-13.782303
1190.512726	-13.771631
1190.985681	-13.760402
1191.459012	-13.740367
1191.932720	-13.731248
1192.406804	-13.713972
1192.881265	-13.701794
1193.356104	-13.694014
1193.831322	-13.674653
1194.306918	-13.665556
1194.782893	-13.648903
1195.259248	-13.632344
1195.735982	-13.627121
1196.213097	-13.608527
1196.690593	-13.599362
1197.168471	-13.587052
1197.646730	-13.565712
1198.125371	-13.560090
1198.604395	-13.543805
1199.083803	-13.530763
1199.563594	-13.525037
1200.043769	-13.502835
1200.524329	-13.492897
1201.005273	-13.481514
1201.486604	-13.462770
1201.968320	-13.459518
1202.450422	-13.442819
1202.932912	-13.426879
1203.415789	-13.419711
1203.899054	-13.399206
1204.382707	-13.391393
1204.866748	-13.382260
1205.351179	-13.363265
1205.836000	-13.356398
1206.321211	-13.339417
1206.806812	-13.324301
1207.292805	-13.319031
1207.779189	-13.301121
1208.265965	-13.291262
1208.753134	-13.280103
1209.240696	-13.259674
1209.728651	-13.253106
1210.217000	-13.239329
1210.705744	-13.223880
1211.194883	-13.217958
1211.684417	-13.197845
1212.174347	-13.184332
1212.664673	-13.176746
1213.155396	-13.156936
1213.646516	-13.149110
1214.138034	-13.137705
1214.629951	-13.115678
1215.122266	-13.109075
1215.614980	-13.093928
1216.108095	-13.076454
1216.601609	-13.072122
1217.095524	-13.052456
1217.589841	-13.036558
1218.084559	-13.029743
1218.579679	-13.009038
1219.075202	-12.999283
1219.571128	-12.990377
1220.067458	-12.968746
1220.564191	-12.960059
1221.061330	-12.947028
1221.558874	-12.929094
1222.056823	-12.923483
1222.555178	-12.908117
1223.053940	-12.891616
1223.553109	-12.884736
1224.052686	-12.867510
1224.552671	-12.856091
1225.053065	-12.849861
1225.553867	-12.831348
1226.055079	-12.821803
1226.556702	-12.813197
1227.058735	-12.795526
1227.561179	-12.790614
1228.064035	-12.781026
1228.567303	-12.763371
1229.070983	-12.759356
1229.575077	-12.747808
1230.079585	-12.733123
1230.584506	-12.731945
1231.089842	-12.719013
1231.595594	-12.705007
1232.101761	-12.703626
1232.608345	-12.690406
1233.115345	-12.680013
1233.622762	-12.679541
1234.130597	-12.665059
1234.638851	-12.655540
1235.147523	-12.654764
1235.656615	-12.641403
1236.166126	-12.635130
1236.676058	-12.633769
1237.186411	-12.619673
1237.697185	-12.614626
1238.208381	-12.613622
1238.719999	-12.601420
1239.232040	-12.598414
1239.744505	-12.596429
1240.257394	-12.584056
1240.770708	-12.583038
1241.284446	-12.582293
1241.798610	-12.571371
1242.313201	-12.571295
1242.828218	-12.570090
1243.343662	-12.559882
1243.859534	-12.562143
1244.375834	-12.562513
1244.892563	-12.552849
1245.409721	-12.555320
1245.927309	-12.556360
1246.445327	-12.548211
1246.963777	-12.552721
1247.482657	-12.554695
1248.001970	-12.546450
1248.521716	-12.551128
1249.041894	-12.554762
1249.562506	-12.548140
1250.083553	-12.553496
1250.605034	-12.557052
1251.126950	-12.550377
1251.649302	-12.556194
1252.172091	-12.561610
1252.695316	-12.555531
1253.218979	-12.560192
1253.743079	-12.565438
1254.267619	-12.559713
1254.792597	-12.564399
1255.318015	-12.570785
1255.843874	-12.564124
1256.370173	-12.566426
1256.896913	-12.573271
1257.424095	-12.567407
1257.951720	-12.568199
1258.479787	-12.574381
1259.008298	-12.567529
1259.537254	-12.565811
1260.066654	-12.572261
1260.596499	-12.566345
1261.126790	-12.561377
1261.657527	-12.565806
1262.188711	-12.560047
1262.720342	-12.553437
1263.252422	-12.556788
1263.784950	-12.551041
1264.317928	-12.541120
1264.851355	-12.542394
1265.385232	-12.537921
1265.919560	-12.526423
1266.454340	-12.525030
1266.989572	-12.520129
1267.525256	-12.506885
1268.061394	-12.503334
1268.597985	-12.499994
1269.135031	-12.485045
1269.672531	-12.477248
1270.210487	-12.474630
1270.748899	-12.460390
1271.287768	-12.448897
1271.827094	-12.445839
1272.366877	-12.432215
1272.907119	-12.416792
1273.447820	-12.412727
1273.988981	-12.401845
1274.530601	-12.383089
1275.072683	-12.374993
1275.615226	-12.366525
1276.158230	-12.347581
1276.701697	-12.335155
1277.245627	-12.327068
1277.790021	-12.308938
1278.334879	-12.292387
1278.880202	-12.283981
1279.425991	-12.267766
1279.972245	-12.247804
1280.518966	-12.236611
1281.066155	-12.222821
1281.613811	-12.201915
1282.161936	-12.187246
1282.710529	-12.174340
1283.259593	-12.153500
1283.809126	-12.135969
1284.359131	-12.123568
1284.909607	-12.103847
1285.460555	-12.083056
1286.011976	-12.069976
1286.563870	-12.052871
1287.116237	-12.030463
1287.669080	-12.014795
1288.222397	-12.000076
1288.776191	-11.978163
1289.330460	-11.959690
1289.885207	-11.946178
1290.440431	-11.926319
1290.996133	-11.905294
1291.552314	-11.891507
1292.108975	-11.875097
1292.666115	-11.853053
1293.223737	-11.836839
1293.781839	-11.823441
1294.340424	-11.803172
1294.899491	-11.784029
1295.459041	-11.771356
1296.019075	-11.754450
1296.579593	-11.733895
1297.140597	-11.719827
1297.702086	-11.706332
1298.264061	-11.686450
1298.826524	-11.669726
1299.389474	-11.658166
1299.952912	-11.641493
1300.516839	-11.622524
1301.081255	-11.610058
1301.646162	-11.597427
1302.211559	-11.579051
1302.777448	-11.563840
1303.343829	-11.553315
1303.910702	-11.538384
1304.478069	-11.521294
1305.045930	-11.510232
1305.614285	-11.499281
1306.183136	-11.482957
1306.752483	-11.469843
1307.322326	-11.461384
1307.892666	-11.448573
1308.463504	-11.433731
1309.034841	-11.425143
1309.606677	-11.416996
1310.179012	-11.403234
1310.751849	-11.392111
1311.325186	-11.386691
1311.899025	-11.377644
1312.473366	-11.364959
1313.048211	-11.358186
1313.623559	-11.354088
1314.199412	-11.344416
1314.775770	-11.334683
1315.352634	-11.331337
1315.930004	-11.327359
1316.507881	-11.318229
1317.086266	-11.312115
1317.665159	-11.310931
1318.244562	-11.306590
1318.824474	-11.299226
1319.404897	-11.296545
1319.985831	-11.296426
1320.567276	-11.291946
1321.149234	-11.287157
1321.731706	-11.287475
1322.314691	-11.287533
1322.898190	-11.283644
1323.482205	-11.281798
1324.066736	-11.284317
1324.651783	-11.284475
1325.237347	-11.281622
1325.823430	-11.282724
1326.410031	-11.286922
1326.997151	-11.287144
1327.584791	-11.285745
1328.172952	-11.289615
1328.761634	-11.294940
1329.350839	-11.295322
1329.940566	-11.295803
1330.530817	-11.301918
1331.121592	-11.307751
1331.712891	-11.308772
1332.304716	-11.311154
1332.897068	-11.318675
1333.489946	-11.324901
1334.083352	-11.326746
1334.677287	-11.330627
1335.271750	-11.339083
1335.866744	-11.345555
1336.462268	-11.348124
1337.058323	-11.353314
1337.654910	-11.362447
1338.252029	-11.368921
1338.849682	-11.372101
1339.447869	-11.378525
1340.046591	-11.388075
1340.645848	-11.394367
1341.245641	-11.398026
1341.845972	-11.405522
1342.446840	-11.415432
1343.048246	-11.421355
1343.650191	-11.425439
1344.252677	-11.433805
1344.855702	-11.443860
1345.459269	-11.449565
1346.063379	-11.454007
1346.668030	-11.462903
1347.273226	-11.473052
1347.878965	-11.478892
1348.485250	-11.483433
1349.092080	-11.492470
1349.699456	-11.502909
1350.307380	-11.508958
1350.915851	-11.513503
1351.524871	-11.522506
1352.134441	-11.533283
1352.744560	-11.539569
1353.355231	-11.544129
1353.966453	-11.553167
1354.578227	-11.564024
1355.190555	-11.570702
1355.803436	-11.575394
1356.416872	-11.584221
1357.030863	-11.595328
1357.645411	-11.602354
1358.260515	-11.607102
1358.876177	-11.615882
1359.492397	-11.627129
1360.109176	-11.634548
1360.726516	-11.639406
1361.344416	-11.647971
1361.962877	-11.659387
1362.581901	-11.667505
1363.201487	-11.672596
1363.821637	-11.680652
1364.442352	-11.692414
1365.063632	-11.701782
1365.685478	-11.707073
1366.307891	-11.714617
1366.930871	-11.726948
1367.554420	-11.737701
1368.178538	-11.743705
1368.803226	-11.751029
1369.428485	-11.763610
1370.054315	-11.775957
1370.680717	-11.783349
1371.307693	-11.790666
1371.935242	-11.803423
1372.563366	-11.817425
1373.192065	-11.826621
1373.821341	-11.834237
1374.451193	-11.847055
1375.081623	-11.862588
1375.712632	-11.873687
1376.344221	-11.882065
1376.976389	-11.894759
1377.609139	-11.911289
1378.242470	-11.924828
1378.876384	-11.934298
1379.510881	-11.946455
1380.145963	-11.963834
1380.781629	-11.980026
1381.417881	-11.991116
1382.054720	-12.002877
1382.692147	-12.020458
1383.330161	-12.039106
1383.968765	-12.052453
1384.607959	-12.064128
1385.247743	-12.081492
1385.888119	-12.102097
1386.529087	-12.118139
1387.170648	-12.130670
1387.812804	-12.147756
1388.455554	-12.169860
1389.098899	-12.188847
1389.742842	-12.203110
1390.387381	-12.220236
1391.032519	-12.243022
1391.678256	-12.265114
1392.324592	-12.281941
1392.971529	-12.298695
1393.619068	-12.321488
1394.267208	-12.346402
1394.915952	-12.366355
1395.565300	-12.383567
1396.215253	-12.405594
1396.865812	-12.432418
1397.516977	-12.456403
1398.168749	-12.475364
1398.821130	-12.496531
1399.474120	-12.524075
1400.127719	-12.551371
1400.781930	-12.573074
1401.436752	-12.594313
1402.092186	-12.620932
1402.748234	-12.649941
1403.404897	-12.674938
1404.062174	-12.696889
1404.720067	-12.722459
1405.378577	-12.752282
1406.037705	-12.780200
1406.697451	-12.804136
1407.357817	-12.829121
1408.018803	-12.858818
1408.680410	-12.889361
1409.342639	-12.915654
1410.005492	-12.940419
1410.668968	-12.969110
1411.333068	-13.000073
1411.997795	-13.028425
1412.663147	-13.054197
1413.329127	-13.081204
1413.995736	-13.111031
1414.662973	-13.141023
1415.330840	-13.168550
1415.999339	-13.195398
1416.668469	-13.224737
1417.338232	-13.255444
1418.008628	-13.284400
1418.679659	-13.312320
1419.351325	-13.341795
1420.023628	-13.372224
1420.696568	-13.401309
1421.370145	-13.429186
1422.044362	-13.457731
1422.719219	-13.487233
1423.394717	-13.516073
1424.070856	-13.543332
1424.747638	-13.570379
1425.425064	-13.599217
1426.103134	-13.629432
1426.781850	-13.658173
1427.461212	-13.685275
1428.141221	-13.714249
1428.821878	-13.746208
1429.503185	-13.777776
1430.185141	-13.806908
1430.867749	-13.835428
1431.551008	-13.865733
1432.234920	-13.897678
1432.919486	-13.928259
1433.604707	-13.955199
1434.290583	-13.981020
1434.977116	-14.009548
1435.664307	-14.039615
1436.352156	-14.067331
1437.040664	-14.092454
1437.729833	-14.118249
1438.419663	-14.147674
1439.110156	-14.180178
1439.801312	-14.211657
1440.493132	-14.240729
1441.185617	-14.271537
1441.878768	-14.307104
1442.572586	-14.344661
1443.267072	-14.380005
1443.962228	-14.412125
1444.658053	-14.443673
1445.354549	-14.477576
1446.051717	-14.512156
1446.749558	-14.542126
1447.448073	-14.566388
1448.147263	-14.589596
1448.847128	-14.615252
1449.547671	-14.641226
1450.248891	-14.663793
1450.950789	-14.683224
1451.653368	-14.704416
1452.356627	-14.730839
1453.060568	-14.760429
1453.765192	-14.789658
1454.470500	-14.818877
1455.176492	-14.851795
1455.883170	-14.890411
1456.590534	-14.931751
1457.298586	-14.971243
1458.007327	-15.008132
1458.716758	-15.045137
1459.426880	-15.082721
1460.137693	-15.117111
1460.849199	-15.143845
1461.561398	-15.162522
1462.274293	-15.176219
1462.987883	-15.186070
1463.702170	-15.189235
1464.417155	-15.183669
1465.132838	-15.171810
1465.849222	-15.157660
1466.566306	-15.142515
1467.284093	-15.125558
1468.002582	-15.107433
1468.721775	-15.091310
1469.441674	-15.079662
1470.162278	-15.072121
1470.883590	-15.067867
1471.605609	-15.067633
1472.328338	-15.072627
1473.051777	-15.082469
1473.775928	-15.094091
1474.500790	-15.104677
1475.226367	-15.114201
1475.952657	-15.122403
1476.679663	-15.125844
1477.407386	-15.119860
1478.135826	-15.101733
1478.864985	-15.071732
1479.594863	-15.030055
1480.325463	-14.973634
1481.056784	-14.899497
1481.788828	-14.808881
1482.521597	-14.705265
1483.255090	-14.590813
1483.989309	-14.465702
1484.724256	-14.330458
1485.459931	-14.189173
1486.196336	-14.047656
1486.933471	-13.908743
1487.671337	-13.772668
1488.409937	-13.640777
1489.149270	-13.516913
1489.889337	-13.405130
1490.630141	-13.306333
1491.371682	-13.218467
1492.113961	-13.140968
1492.856979	-13.075786
1493.600738	-13.024076
1494.345238	-12.983572
1495.090481	-12.950115
1495.836467	-12.921334
1496.583198	-12.897665
1497.330675	-12.878295
1498.078899	-12.858965
1498.827872	-12.834857
1499.577593	-12.803731
1500.328065	-12.765660
1501.079289	-12.719103
1501.831265	-12.659330
1502.583995	-12.582437
1503.337480	-12.487805
1504.091721	-12.376173
1504.846719	-12.246603
1505.602475	-12.096542
1506.358991	-11.925783
1507.116268	-11.737852
1507.874306	-11.536823
1508.633108	-11.325002
1509.392673	-11.104915
1510.153004	-10.881456
1510.914101	-10.661524
1511.675965	-10.451264
1512.438599	-10.254464
1513.202002	-10.075391
1513.966176	-9.919987
1514.731122	-9.794301
1515.496842	-9.702920
1516.263336	-9.648934
1517.030607	-9.636062
1517.798654	-9.669759
1518.567479	-9.755196
1519.337083	-9.896434
1520.107468	-10.097699
1520.878634	-10.364769
1521.650584	-10.705500
1522.423317	-11.128469
1523.196836	-11.642192
1523.971141	-12.257311
1524.746233	-12.987576
1525.522115	-13.847562
1526.298786	-14.848135
1527.076249	-15.985279
1527.854504	-17.215971
1528.633553	-18.400606
1529.413397	-19.224180
1530.194037	-19.279242
1530.975474	-18.466773
1531.757709	-17.124909
1532.540745	-15.634965
1533.324581	-14.203129
1534.109220	-12.905081
1534.894662	-11.756899
1535.680909	-10.752392
1536.467961	-9.878576
1537.255821	-9.122856
1538.044489	-8.474603
1538.833967	-7.924162
1539.624256	-7.463086
1540.415357	-7.084120
1541.207271	-6.781565
1542.000000	-6.550708
1542.793545	-6.386675
1543.587907	-6.284669
1544.383087	-6.240408
1545.179088	-6.249987
1545.975909	-6.309345
1546.773552	-6.413672
1547.572019	-6.557829
1548.371311	-6.737004
1549.171428	-6.946120
1549.972373	-7.179580
1550.774147	-7.431301
1551.576751	-7.695484
1552.380185	-7.967151
1553.184453	-8.241580
1553.989554	-8.514324
1554.795490	-8.781861
1555.602263	-9.042238
1556.409873	-9.294813
1557.218322	-9.539466
1558.027612	-9.776328
1558.837743	-10.006609
1559.648717	-10.232259
1560.460536	-10.455222
1561.273200	-10.676600
1562.086710	-10.897470
1562.901069	-11.119381
1563.716278	-11.343890
1564.532337	-11.571764
1565.349249	-11.803329
1566.167014	-12.039661
1566.985634	-12.282216
1567.805111	-12.531756
1568.625444	-12.788384
1569.446637	-13.052429
1570.268690	-13.324514
1571.091605	-13.604158
1571.915382	-13.889156
1572.740024	-14.177208
1573.565532	-14.465372
1574.391907	-14.749078
1575.219150	-15.021603
1576.047262	-15.275940
1576.876246	-15.505042
1577.706103	-15.700672
1578.536833	-15.854358
1579.368439	-15.960373
1580.200922	-16.015183
1581.034282	-16.016843
1581.868522	-15.966519
1582.703643	-15.869037
1583.539646	-15.731476
1584.376532	-15.560772
1585.214304	-15.364925
1586.052962	-15.152847
1586.892508	-14.931956
1587.732943	-14.707605
1588.574269	-14.485178
1589.416487	-14.269254
1590.259599	-14.062754
1591.103605	-13.866904
1591.948508	-13.683182
1592.794309	-13.512986
1593.641009	-13.355863
1594.488609	-13.210681
1595.337112	-13.077283
1596.186518	-12.955204
1597.036829	-12.842560
1597.888047	-12.737467
1598.740172	-12.639374
1599.593207	-12.547063
1600.447153	-12.458440
1601.302010	-12.372160
1602.157782	-12.287951
1603.014469	-12.204756
1603.872072	-12.121277
1604.730593	-12.037337
1605.590034	-11.953283
1606.450397	-11.868707
1607.311681	-11.783526
1608.173890	-11.698514
1609.037024	-11.614435
1609.901085	-11.531408
1610.766075	-11.450114
1611.631995	-11.371609
1612.498846	-11.296468
1613.366630	-11.225036
1614.235349	-11.158156
1615.105004	-11.096446
1615.975596	-11.040246
1616.847128	-10.989776
1617.719600	-10.945617
1618.593014	-10.907828
1619.467372	-10.876370
1620.342675	-10.851286
1621.218924	-10.832549
1622.096122	-10.819730
1622.974270	-10.812486
1623.853369	-10.810463
1624.733420	-10.813137
1625.614427	-10.819683
1626.496389	-10.829644
1627.379308	-10.842340
1628.263187	-10.856920
1629.148026	-10.872883
1630.033828	-10.889711
1630.920593	-10.906721
1631.808324	-10.923552
1632.697022	-10.940223
1633.586688	-10.956263
1634.477324	-10.971575
1635.368932	-10.986648
1636.261514	-11.001543
1637.155070	-11.016137
1638.049602	-11.031303
1638.945113	-11.047423
1639.841603	-11.064499
1640.739075	-11.083076
1641.637529	-11.103917
1642.536968	-11.126800
1643.437393	-11.151963
1644.338806	-11.179974
1645.241209	-11.210540
1646.144602	-11.243487
1647.048988	-11.279036
1647.954368	-11.316886
1648.860744	-11.356473
1649.768118	-11.397860
1650.676491	-11.440593
1651.585865	-11.484023
1652.496241	-11.528039
1653.407621	-11.572426
1654.320008	-11.616447
1655.233401	-11.660274
1656.147804	-11.703830
1657.063218	-11.746668
1657.979645	-11.789202
1658.897085	-11.831551
1659.815542	-11.873552
1660.735016	-11.915653
1661.655509	-11.958281
1662.577023	-12.001210
1663.499560	-12.044916
1664.423121	-12.089668
1665.347709	-12.135291
1666.273324	-12.181896
1667.199969	-12.229573
1668.127645	-12.278048
1669.056353	-12.327210
1669.986097	-12.377004
1670.916877	-12.427098
1671.848695	-12.477476
1672.781553	-12.527786
1673.715452	-12.578097
1674.650395	-12.628437
1675.586383	-12.678440
1676.523418	-12.728547
1677.461501	-12.778757
1678.400635	-12.828856
1679.340821	-12.879349
1680.282061	-12.930219
1681.224357	-12.981222
1682.167710	-13.032840
1683.112122	-13.084799
1684.057595	-13.136977
1685.004132	-13.189728
1685.951732	-13.242604
1686.900400	-13.295719
1687.850135	-13.349180
1688.800940	-13.402681
1689.752818	-13.456384
1690.705768	-13.510354
1691.659795	-13.564379
1692.614898	-13.618749
1693.571081	-13.673368
1694.528345	-13.728145
1695.486691	-13.783470
1696.446122	-13.838979
1697.406640	-13.894979
1698.368245	-13.951534
1699.330941	-14.008333
1700.294729	-14.065840
1701.259611	-14.123657
1702.225588	-14.181826
1703.192664	-14.240528
1704.160838	-14.299336
1705.130114	-14.358557
1706.100493	-14.418017
1707.071977	-14.477530
1708.044568	-14.537369
1709.018268	-14.597165
1709.993079	-14.656919
1710.969003	-14.716651
1711.946041	-14.776092
1712.924196	-14.835245
1713.903469	-14.894061
1714.883862	-14.952395
1715.865378	-15.010225
1716.848017	-15.067541
1717.831783	-15.124155
1718.816677	-15.180052
1719.802701	-15.235099
1720.789857	-15.289169
1721.778147	-15.342196
1722.767573	-15.394067
1723.758136	-15.444740
1724.749840	-15.494178
1725.742685	-15.542347
1726.736673	-15.589318
1727.731808	-15.635010
1728.728090	-15.679435
1729.725521	-15.722540
1730.724105	-15.764203
1731.723842	-15.804521
1732.724735	-15.843355
1733.726785	-15.880869
1734.729995	-15.917013
1735.734366	-15.951840
1736.739902	-15.985381
1737.746603	-16.017528
1738.754472	-16.048399
1739.763510	-16.077754
1740.773721	-16.105715
1741.785105	-16.132133
1742.797665	-16.157023
1743.811403	-16.180380
1744.826321	-16.201990
1745.842422	-16.222010
1746.859706	-16.240110
1747.878177	-16.256530
1748.897835	-16.271114
1749.918685	-16.283814
1750.940726	-16.294807
1751.963963	-16.303787
1752.988395	-16.311043
1754.014027	-16.316290
1755.040860	-16.319580
1756.068895	-16.320987
1757.098135	-16.320366
1758.128583	-16.317965
1759.160240	-16.313737
1760.193109	-16.307765
1761.227191	-16.300110
1762.262488	-16.290821
1763.299004	-16.279877
1764.336740	-16.267440
1765.375697	-16.253441
1766.415880	-16.237985
1767.457288	-16.221136
1768.499926	-16.202844
1769.543794	-16.183310
1770.588895	-16.162435
1771.635231	-16.140338
1772.682805	-16.117135
1773.731619	-16.092808
1774.781674	-16.067572
1775.832973	-16.041390
1776.885519	-16.014330
1777.939312	-15.986491
1778.994357	-15.957829
1780.050654	-15.928447
1781.108207	-15.898297
1782.167017	-15.867405
1783.227087	-15.835814
1784.288418	-15.803580
1785.351013	-15.770700
1786.414875	-15.737246
1787.480006	-15.703288
1788.546407	-15.668906
1789.614082	-15.634195
1790.683032	-15.599071
1791.753259	-15.563631
1792.824767	-15.527648
1793.897557	-15.491043
1794.971632	-15.453699
1796.046994	-15.415456
1797.123645	-15.376428
1798.201588	-15.336631
1799.280824	-15.296161
1800.361357	-15.255198
1801.443188	-15.213720
1802.526320	-15.171818
1803.610756	-15.129460
1804.696497	-15.086648
1805.783546	-15.043410
1806.871906	-14.999820
1807.961578	-14.955927
1809.052565	-14.911930
1810.144870	-14.867954
1811.238494	-14.824060
1812.333441	-14.780378
1813.429713	-14.736893
1814.527311	-14.693601
1815.626239	-14.650547
1816.726499	-14.607731
1817.828094	-14.565271
1818.931025	-14.523283
1820.035295	-14.481806
1821.140906	-14.440932
1822.247862	-14.400627
1823.356165	-14.360844
1824.465816	-14.321574
1825.576819	-14.282776
1826.689175	-14.244464
1827.802888	-14.206701
1828.917960	-14.169474
1830.034394	-14.132812
1831.152191	-14.096697
1832.271354	-14.061068
1833.391887	-14.025941
1834.513790	-13.991324
1835.637068	-13.957151
1836.761722	-13.923427
1837.887755	-13.890073
1839.015169	-13.856975
1840.143968	-13.824108
1841.274153	-13.791382
1842.405727	-13.758722
1843.538693	-13.726130
1844.673053	-13.693555
1845.808810	-13.661014
1846.945966	-13.628632
1848.084525	-13.596460
1849.224488	-13.564547
1850.365858	-13.532881
1851.508638	-13.501380
1852.652831	-13.469965
1853.798438	-13.438654
1854.945463	-13.407463
1856.093909	-13.376500
1857.243777	-13.345856
1858.395071	-13.315567
1859.547794	-13.285630
1860.701947	-13.256020
1861.857533	-13.226601
1863.014556	-13.197283
1864.173018	-13.167954
1865.332922	-13.138523
1866.494270	-13.109007
1867.657065	-13.079480
1868.821309	-13.050000
1869.987006	-13.020684
1871.154158	-12.991576
1872.322768	-12.962672
1873.492839	-12.934005
1874.664373	-12.905587
1875.837373	-12.877449
1877.011841	-12.849672
1878.187782	-12.822313
1879.365197	-12.795410
1880.544089	-12.769045
1881.724460	-12.743263
1882.906315	-12.718116
1884.089655	-12.693674
1885.274483	-12.669930
1886.460803	-12.646787
1887.648616	-12.624101
1888.837927	-12.601709
1890.028736	-12.579533
1891.221049	-12.557652
1892.414866	-12.536229
1893.610192	-12.515376
1894.807028	-12.495156
1896.005379	-12.475502
1897.205246	-12.456238
1898.406633	-12.437230
1899.609542	-12.418360
1900.813977	-12.399604
1902.019940	-12.381076
1903.227434	-12.362936
1904.436462	-12.345302
1905.647028	-12.328252
1906.859133	-12.311715
1908.072781	-12.295508
1909.287976	-12.279493
1910.504719	-12.263609
1911.723013	-12.247878
1912.942863	-12.232421
1914.164270	-12.217365
1915.387238	-12.202747
1916.611770	-12.188551
1917.837868	-12.174654
1919.065536	-12.160853
1920.294777	-12.147001
1921.525594	-12.133065
1922.757989	-12.119105
1923.991967	-12.105255
1925.227529	-12.091646
1926.464679	-12.078312
1927.703420	-12.065214
1928.943755	-12.052322
1930.185688	-12.039570
1931.429221	-12.026916
1932.674356	-12.014362
1933.921099	-12.001972
1935.169451	-11.989796
1936.419415	-11.977934
1937.670996	-11.966431
1938.924195	-11.955231
1940.179017	-11.944233
1941.435463	-11.933325
1942.693538	-11.922459
1943.953245	-11.911689
1945.214586	-11.901178
1946.477566	-11.891060
1947.742186	-11.881384
1949.008451	-11.872158
1950.276363	-11.863324
1951.545926	-11.854866
1952.817143	-11.846846
1954.090017	-11.839385
1955.364551	-11.832604
1956.640749	-11.826595
1957.918615	-11.821355
1959.198150	-11.816750
1960.479359	-11.812619
1961.762244	-11.808884
1963.046810	-11.805588
1964.333059	-11.802821
1965.620995	-11.800635
1966.910621	-11.798938
1968.201940	-11.797543
1969.494956	-11.796335
1970.789672	-11.795263
1972.086091	-11.794280
1973.384217	-11.793289
1974.684053	-11.792162
1975.985602	-11.790846
1977.288869	-11.789426
1978.593855	-11.788125
1979.900566	-11.787123
1981.209003	-11.786508
1982.519171	-11.786253
1983.831073	-11.786206
1985.144712	-11.786165
1986.460093	-11.786023
1987.777217	-11.785865
1989.096089	-11.785834
1990.416713	-11.786027
1991.739092	-11.786396
1993.063228	-11.786729
1994.389127	-11.786822
1995.716791	-11.786586
1997.046223	-11.786081
1998.377428	-11.785410
1999.710409	-11.784653
2001.045169	-11.783876
2002.381713	-11.783170
2003.720043	-11.782699
2005.060163	-11.782613
2006.402077	-11.782897
2007.745788	-11.783406
2009.091301	-11.784043
2010.438618	-11.784932
2011.787743	-11.786361
2013.138680	-11.788569
2014.491433	-11.791646
2015.846005	-11.795459
2017.202399	-11.799878
2018.560621	-11.804888
2019.920673	-11.810575
2021.282558	-11.817121
2022.646281	-11.824641
2024.011846	-11.833148
2025.379256	-11.842465
2026.748515	-11.852367
2028.119626	-11.862823
2029.492594	-11.873943
2030.867422	-11.885846
2032.244114	-11.898485
2033.622673	-11.911672
2035.003104	-11.925199
2036.385411	-11.938973
2037.769597	-11.953064
2039.155665	-11.967560
2040.543621	-11.982471
2041.933467	-11.997777
2043.325208	-12.013373
2044.718847	-12.029180
2046.114389	-12.045213
2047.511837	-12.061468
2048.911195	-12.077851
2050.312467	-12.094190
2051.715657	-12.110464
2053.120769	-12.126797
2054.527807	-12.143263
2055.936775	-12.159788
2057.347677	-12.176172
2058.760516	-12.192319
2060.175297	-12.208325
2061.592025	-12.224374
2063.010701	-12.240526
2064.431332	-12.256647
2065.853921	-12.272530
2067.278472	-12.288119
2068.704988	-12.303629
2070.133475	-12.319419
2071.563936	-12.335720
2072.996375	-12.352465
2074.430796	-12.369451
2075.867204	-12.386607
2077.305603	-12.404081
2078.745996	-12.422155
2080.188389	-12.441083
2081.632784	-12.461012
2083.079187	-12.481948
2084.527601	-12.503777
2085.978030	-12.526383
2087.430480	-12.549806
2088.884954	-12.574218
2090.341455	-12.599778
2091.799990	-12.626467
2093.260561	-12.654072
2094.723173	-12.682379
2096.187831	-12.711320
2097.654538	-12.741060
2099.123300	-12.771910
2100.594119	-12.804081
2102.067001	-12.837436
2103.541950	-12.871496
2105.018971	-12.905803
2106.498067	-12.940319
2107.979243	-12.975442
2109.462503	-13.011514
2110.947853	-13.048357
2112.435295	-13.085361
2113.924836	-13.121953
2115.416478	-13.158090
2116.910227	-13.194269
2118.406087	-13.231096
2119.904063	-13.268764
2121.404158	-13.306986
2122.906378	-13.345271
2124.410727	-13.383300
2125.917210	-13.421176
2127.425831	-13.459334
2128.936594	-13.498138
2130.449505	-13.537493
2131.964567	-13.576866
2133.481786	-13.615773
2135.001166	-13.654303
2136.522711	-13.693086
2138.046427	-13.732599
2139.572317	-13.772633
2141.100388	-13.812519
2142.630642	-13.851970
2144.163085	-13.891543
2145.697722	-13.932132
2147.234558	-13.974110
2148.773596	-14.017026
2150.314842	-14.060223
2151.858301	-14.103675
2153.403977	-14.148171
2154.951875	-14.194447
2156.502000	-14.242502
2158.054357	-14.291781
2159.608950	-14.341894
2161.165785	-14.392983
2162.724866	-14.445472
2164.286198	-14.499752
2165.849786	-14.555896
2167.415635	-14.613599
2168.983749	-14.672397
2170.554134	-14.732071
2172.126795	-14.792813
2173.701737	-14.854879
2175.278964	-14.918233
2176.858481	-14.982577
2178.440294	-15.047548
2180.024408	-15.112955
2181.610827	-15.178917
2183.199557	-15.245610
2184.790602	-15.312842
2186.383968	-15.380189
2187.979660	-15.447529
2189.577683	-15.515207
2191.178041	-15.583496
2192.780741	-15.652167
2194.385787	-15.720743
2195.993185	-15.788976
2197.602939	-15.857038
2199.215054	-15.918926
