# 2022-03-22_02.04.20
# shape = sech2
# FWHM_ps = 0.1
# carrier_nm = 1542
# frep_MHz = 12126
# pow_mW = 8000
# GDD = 0.0
# propa_len = 0.16
# untap_len = 0.01
# taper_len = 0.1
# waist_len = 0.02
# uptap_len = 0.02
# untap_scale = 1.0
# waist_scale = 0.1473684210526316
# workingDir = NL_20110305_12 (Spirou)
# axis = slow
# window_ps = 10.0
# steps = 200
# points = 21700
# 
# wavelength [nm]	 power spectral density [dB]
600.043425	-100.163698
600.163550	-101.910803
600.283723	-100.801435
600.403943	-106.725221
600.524212	-108.021882
600.644529	-102.219377
600.764895	-98.659834
600.885308	-95.785986
601.005770	-93.723439
601.126280	-92.423973
601.246839	-92.537440
601.367446	-92.842031
601.488101	-97.467085
601.608804	-95.881395
601.729557	-96.683483
601.850357	-100.435962
601.971206	-99.048221
602.092104	-96.823564
602.213050	-97.784000
602.334045	-96.686250
602.455089	-100.726737
602.576181	-96.220073
602.697322	-93.868918
602.818511	-94.450376
602.939749	-94.474379
603.061036	-91.488880
603.182372	-92.640542
603.303757	-93.605645
603.425191	-92.508790
603.546673	-93.821716
603.668204	-93.543749
603.789785	-91.324466
603.911414	-90.427795
604.033092	-89.414758
604.154820	-87.073588
604.276596	-86.589051
604.398422	-86.053746
604.520297	-85.752303
604.642220	-85.718259
604.764193	-86.989752
604.886216	-86.745025
605.008287	-87.428960
605.130408	-89.068884
605.252578	-90.227491
605.374798	-90.721517
605.497066	-91.296333
605.619385	-91.203939
605.741752	-91.218670
605.864169	-91.497637
605.986636	-89.087042
606.109152	-88.859693
606.231718	-88.818742
606.354333	-88.646105
606.476998	-87.855842
606.599712	-88.185265
606.722476	-88.164619
606.845290	-89.693974
606.968154	-90.859889
607.091067	-91.180959
607.214030	-92.871141
607.337043	-98.138255
607.460106	-97.950436
607.583219	-100.438038
607.706381	-99.849718
607.829594	-96.968904
607.952856	-97.532240
608.076169	-95.564308
608.199531	-93.651936
608.322944	-94.939693
608.446407	-97.639240
608.569920	-96.129770
608.693483	-99.843767
608.817096	-103.697298
608.940759	-113.178883
609.064473	-102.899787
609.188237	-95.188964
609.312051	-94.981002
609.435916	-92.093013
609.559831	-90.035575
609.683796	-89.460650
609.807812	-88.823804
609.931878	-88.582243
610.055995	-89.347255
610.180162	-89.802790
610.304380	-89.152851
610.428648	-91.910363
610.552967	-91.309014
610.677337	-91.081954
610.801757	-91.414553
610.926228	-90.446151
611.050750	-89.367677
611.175323	-90.479402
611.299946	-88.698867
611.424620	-88.790101
611.549345	-88.185734
611.674121	-87.322304
611.798948	-86.857601
611.923826	-88.415510
612.048755	-86.546367
612.173734	-86.024500
612.298765	-87.058292
612.423847	-86.646925
612.548980	-85.547480
612.674165	-85.551099
612.799400	-85.282466
612.924687	-84.971304
613.050025	-85.673879
613.175414	-85.120828
613.300854	-85.074707
613.426346	-85.730571
613.551889	-85.568741
613.677484	-85.097637
613.803130	-86.194170
613.928827	-85.124463
614.054576	-85.359864
614.180377	-86.172107
614.306229	-86.225441
614.432132	-85.828932
614.558087	-86.068186
614.684094	-85.645737
614.810153	-85.317971
614.936263	-86.407680
615.062425	-86.383038
615.188639	-86.049413
615.314904	-86.759829
615.441222	-88.233712
615.567591	-88.773064
615.694012	-90.180598
615.820486	-89.859036
615.947011	-90.623755
616.073588	-90.848082
616.200217	-91.316599
616.326898	-90.492202
616.453632	-90.898942
616.580417	-88.662315
616.707255	-88.788702
616.834144	-87.575116
616.961086	-86.867666
617.088081	-86.417360
617.215127	-86.132252
617.342226	-85.138662
617.469378	-85.845567
617.596581	-85.093317
617.723837	-84.258230
617.851146	-84.793869
617.978507	-86.278987
618.105920	-85.850446
618.233386	-87.005914
618.360905	-87.921413
618.488476	-87.827379
618.616100	-87.639138
618.743777	-86.846062
618.871506	-85.942286
618.999288	-85.757113
619.127123	-84.777859
619.255011	-84.613166
619.382951	-84.214386
619.510945	-83.506613
619.638991	-83.450558
619.767090	-83.888805
619.895243	-84.048681
620.023448	-84.680699
620.151706	-85.167371
620.280017	-85.737118
620.408382	-86.604973
620.536799	-86.777924
620.665270	-87.528938
620.793794	-89.656196
620.922371	-91.337763
621.051002	-92.861489
621.179686	-96.761703
621.308423	-98.645106
621.437213	-96.600833
621.566057	-94.248864
621.694954	-90.651858
621.823905	-89.491949
621.952909	-90.913050
622.081967	-87.643669
622.211079	-87.355944
622.340244	-87.191592
622.469462	-85.710471
622.598735	-84.049223
622.728061	-83.117292
622.857441	-81.065234
622.986874	-80.185682
623.116361	-78.813916
623.245903	-78.100069
623.375498	-77.862080
623.505147	-78.149810
623.634850	-78.231178
623.764606	-79.601519
623.894417	-80.885055
624.024282	-82.287846
624.154201	-84.066557
624.284174	-86.411769
624.414202	-88.392227
624.544283	-92.198475
624.674419	-90.749165
624.804609	-98.911057
624.934853	-103.437067
625.065151	-98.256582
625.195504	-94.486180
625.325911	-88.699381
625.456373	-88.484937
625.586889	-87.475665
625.717460	-88.054194
625.848085	-90.249561
625.978764	-95.219988
626.109498	-102.335038
626.240287	-93.996687
626.371131	-91.221326
626.502029	-89.148982
626.632982	-88.013504
626.763989	-86.931218
626.895052	-87.526796
627.026169	-88.973671
627.157341	-90.298409
627.288568	-91.147532
627.419850	-92.832308
627.551187	-96.252863
627.682579	-94.399906
627.814026	-95.214082
627.945528	-93.586543
628.077085	-92.049380
628.208697	-89.417925
628.340364	-89.345325
628.472087	-89.549103
628.603865	-91.633437
628.735698	-95.899525
628.867586	-103.507983
628.999530	-101.016753
629.131529	-90.828663
629.263584	-88.719763
629.395694	-86.863806
629.527859	-86.958366
629.660080	-86.215913
629.792357	-89.447952
629.924689	-90.923566
630.057077	-96.156292
630.189520	-100.616744
630.322019	-96.259663
630.454574	-93.269449
630.587184	-89.610848
630.719851	-91.010707
630.852573	-86.731850
630.985351	-86.301720
631.118185	-84.416528
631.251075	-81.693279
631.384021	-81.226843
631.517023	-80.189354
631.650081	-79.577670
631.783195	-79.540416
631.916365	-79.833422
632.049592	-80.284235
632.182874	-82.273685
632.316213	-82.011519
632.449608	-84.388746
632.583059	-85.249570
632.716567	-86.602648
632.850131	-89.726810
632.983751	-93.251587
633.117428	-99.507971
633.251161	-101.303949
633.384951	-95.694642
633.518797	-90.770726
633.652700	-87.799179
633.786660	-87.824032
633.920676	-86.790857
634.054749	-86.445833
634.188879	-87.498912
634.323065	-87.092272
634.457308	-86.579279
634.591608	-85.202912
634.725965	-83.164128
634.860379	-81.869876
634.994850	-80.778320
635.129377	-79.169812
635.263962	-78.447914
635.398604	-78.218000
635.533303	-77.973980
635.668058	-78.342859
635.802872	-79.282052
635.937742	-79.812532
636.072669	-81.114350
636.207654	-83.068883
636.342696	-84.405626
636.477796	-86.135819
636.612953	-86.065008
636.748167	-83.033939
636.883439	-80.695974
637.018768	-79.574930
637.154155	-78.204887
637.289599	-77.394428
637.425101	-77.660622
637.560660	-77.056198
637.696277	-77.375082
637.831952	-77.982323
637.967685	-78.223021
638.103475	-79.477726
638.239324	-80.516299
638.375230	-82.373797
638.511194	-85.801729
638.647215	-90.436613
638.783295	-99.789079
638.919433	-95.302622
639.055629	-90.060679
639.191883	-86.056976
639.328195	-85.058857
639.464565	-84.245665
639.600994	-83.734140
639.737481	-84.755928
639.874025	-83.609399
640.010629	-84.008479
640.147290	-83.902590
640.284010	-83.359867
640.420789	-83.319770
640.557625	-82.598606
640.694521	-82.273144
640.831474	-82.145572
640.968487	-81.914101
641.105558	-81.663198
641.242687	-81.754636
641.379876	-81.442850
641.517123	-81.297187
641.654429	-82.174813
641.791793	-81.887207
641.929216	-83.605676
642.066699	-84.731387
642.204240	-85.002214
642.341840	-85.862697
642.479499	-84.442118
642.617217	-83.204946
642.754994	-80.433707
642.892830	-79.341782
643.030726	-78.656426
643.168680	-78.610012
643.306694	-78.979291
643.444767	-79.188895
643.582899	-80.364632
643.721091	-80.942077
643.859342	-82.279437
643.997652	-83.123926
644.136022	-83.346040
644.274451	-84.341840
644.412940	-83.641293
644.551488	-83.498002
644.690096	-82.062262
644.828763	-80.990244
644.967490	-78.502810
645.106277	-77.557895
645.245124	-76.486385
645.384030	-75.630838
645.522997	-75.694177
645.662023	-74.873723
645.801109	-75.966314
645.940255	-77.125038
646.079460	-77.807573
646.218726	-80.155212
646.358052	-80.044203
646.497438	-82.079108
646.636884	-83.656579
646.776391	-85.190214
646.915957	-93.359678
647.055584	-111.231613
647.195271	-87.509214
647.335019	-82.969168
647.474826	-81.587459
647.614695	-78.822330
647.754623	-78.616163
647.894612	-78.581487
648.034662	-79.248341
648.174772	-81.356639
648.314943	-81.329738
648.455174	-82.977867
648.595466	-81.978592
648.735819	-83.395984
648.876233	-84.694872
649.016707	-84.056629
649.157242	-89.971386
649.297838	-90.647533
649.438495	-88.625002
649.579213	-88.241226
649.719992	-86.570352
649.860832	-85.406407
650.001733	-91.250722
650.142695	-89.228789
650.283718	-94.629110
650.424803	-90.985771
650.565949	-90.560126
650.707156	-89.553558
650.848424	-88.360342
650.989754	-95.385174
651.131145	-97.153559
651.272597	-94.246051
651.414111	-87.229575
651.555687	-86.765976
651.697324	-85.571328
651.839022	-86.935714
651.980782	-86.854492
652.122604	-88.325448
652.264488	-92.185843
652.406433	-94.181092
652.548441	-107.446902
652.690510	-94.427698
652.832640	-95.793053
652.974833	-91.983421
653.117088	-94.969493
653.259405	-99.612626
653.401784	-96.453519
653.544224	-110.799921
653.686727	-100.353001
653.829293	-99.931469
653.971920	-97.165423
654.114609	-92.466110
654.257361	-93.688786
654.400175	-89.104470
654.543052	-90.694601
654.685991	-91.441684
654.828992	-91.875444
654.972056	-100.852928
655.115183	-98.407805
655.258372	-106.338040
655.401623	-90.363338
655.544937	-87.631464
655.688314	-87.305773
655.831754	-84.415668
655.975256	-87.012404
656.118822	-89.744033
656.262450	-87.053557
656.406141	-88.582074
656.549894	-84.138013
656.693711	-84.043143
656.837591	-83.838095
656.981534	-82.198976
657.125540	-82.575815
657.269610	-80.531154
657.413742	-81.165468
657.557938	-81.274252
657.702196	-81.573935
657.846519	-86.674356
657.990904	-85.281070
658.135353	-88.123211
658.279866	-89.602945
658.424441	-90.990750
658.569081	-107.015789
658.713784	-99.192195
658.858550	-98.022985
659.003381	-97.825124
659.148274	-88.688966
659.293232	-85.910641
659.438253	-87.981753
659.583339	-85.414841
659.728488	-84.412798
659.873701	-84.478967
660.018978	-82.290494
660.164318	-83.637403
660.309723	-82.402551
660.455192	-82.263271
660.600725	-80.447721
660.746323	-78.554832
660.891984	-80.134465
661.037710	-79.963084
661.183500	-81.754237
661.329354	-81.617302
661.475272	-81.387325
661.621255	-82.643670
661.767303	-82.818091
661.913415	-85.400961
662.059591	-83.631097
662.205833	-87.458840
662.352138	-86.725303
662.498509	-95.747307
662.644944	-85.781587
662.791443	-87.406679
662.938008	-87.011405
663.084638	-85.899323
663.231332	-85.944089
663.378091	-81.977307
663.524915	-85.975101
663.671804	-81.827617
663.818759	-85.226469
663.965778	-80.552144
664.112863	-79.846478
664.260012	-80.078444
664.407227	-78.929706
664.554507	-82.342065
664.701853	-78.172713
664.849264	-80.737401
664.996740	-78.939345
665.144282	-81.321829
665.291889	-80.557230
665.439561	-80.014125
665.587300	-81.740916
665.735103	-81.669744
665.882973	-88.240403
666.030908	-84.329100
666.178909	-88.298258
666.326976	-83.770917
666.475109	-89.971690
666.623307	-82.522866
666.771571	-84.219995
666.919902	-80.587464
667.068298	-82.264825
667.216761	-81.656026
667.365289	-80.169321
667.513884	-81.988089
667.662545	-81.317271
667.811272	-83.588054
667.960065	-80.402064
668.108925	-81.288287
668.257851	-82.759472
668.406843	-87.385844
668.555902	-89.084670
668.705027	-86.716068
668.854219	-89.988803
669.003478	-90.066113
669.152803	-91.840689
669.302195	-86.311559
669.451653	-89.602841
669.601179	-97.461000
669.750771	-95.221207
669.900430	-88.872054
670.050156	-88.066308
670.199949	-91.100376
670.349808	-86.033359
670.499735	-88.825375
670.649729	-86.694591
670.799790	-83.781090
670.949918	-84.708213
671.100114	-83.649696
671.250377	-85.317860
671.400707	-79.704445
671.551104	-79.412937
671.701569	-79.363160
671.852101	-80.563100
672.002700	-79.148072
672.153368	-77.542979
672.304102	-79.564219
672.454905	-79.978795
672.605775	-81.445180
672.756713	-78.886724
672.907718	-81.053185
673.058791	-82.740197
673.209933	-85.930812
673.361142	-82.383887
673.512419	-84.136646
673.663764	-88.243710
673.815177	-102.026257
673.966658	-91.790766
674.118207	-89.834915
674.269825	-90.292315
674.421510	-89.433558
674.573264	-97.183290
674.725086	-88.441460
674.876977	-89.435766
675.028936	-86.529700
675.180963	-88.214771
675.333059	-82.019421
675.485224	-82.730236
675.637457	-82.460665
675.789758	-84.520670
675.942129	-83.925133
676.094568	-81.290940
676.247075	-81.545698
676.399652	-82.515942
676.552298	-84.219456
676.705012	-83.613613
676.857795	-82.962410
677.010648	-84.820174
677.163569	-84.688283
677.316560	-85.343716
677.469619	-81.671259
677.622748	-80.634094
677.775946	-81.979772
677.929214	-81.180954
678.082551	-81.700197
678.235957	-79.406892
678.389432	-82.807518
678.542977	-81.196757
678.696592	-80.717902
678.850276	-77.731211
679.004030	-80.340059
679.157853	-80.318109
679.311746	-82.433393
679.465709	-78.915710
679.619742	-83.799293
679.773844	-82.376264
679.928017	-87.508185
680.082259	-81.044894
680.236571	-88.701001
680.390954	-85.735002
680.545406	-94.934618
680.699929	-87.235920
680.854522	-85.413571
681.009185	-109.354691
681.163918	-87.509806
681.318722	-92.203175
681.473596	-79.876183
681.628540	-85.754884
681.783555	-82.664963
681.938641	-88.130102
682.093797	-78.370233
682.249023	-82.235463
682.404321	-80.198035
682.559689	-88.738415
682.715128	-80.086008
682.870637	-83.555822
683.026218	-79.767163
683.181869	-86.344581
683.337591	-87.406141
683.493385	-88.093084
683.649249	-87.700334
683.805185	-96.102748
683.961191	-88.878509
684.117269	-83.954354
684.273418	-88.604560
684.429639	-82.290916
684.585930	-86.009186
684.742294	-79.848328
684.898728	-81.236741
685.055234	-80.167748
685.211812	-83.406101
685.368461	-81.874821
685.525182	-83.349088
685.681975	-84.076435
685.838839	-87.384303
685.995775	-85.015316
686.152783	-84.379599
686.309863	-101.794290
686.467014	-92.545512
686.624238	-105.179029
686.781534	-85.252150
686.938902	-85.102477
687.096342	-83.070624
687.253854	-84.984950
687.411438	-82.932889
687.569095	-82.948268
687.726824	-82.335475
687.884626	-83.329486
688.042499	-82.757283
688.200446	-82.543910
688.358465	-82.563317
688.516556	-80.026178
688.674720	-80.365582
688.832957	-84.521272
688.991266	-90.238263
689.149649	-83.965916
689.308104	-87.955101
689.466632	-86.622760
689.625233	-90.606279
689.783906	-87.343561
689.942653	-103.276637
690.101473	-92.755682
690.260367	-94.735106
690.419333	-90.455652
690.578372	-91.744096
690.737485	-86.879968
690.896672	-92.954889
691.055931	-84.950471
691.215264	-90.353607
691.374671	-85.228882
691.534151	-85.445762
691.693704	-79.800469
691.853332	-83.362134
692.013033	-79.489255
692.172807	-80.495120
692.332656	-77.105327
692.492578	-79.784634
692.652575	-77.880292
692.812645	-79.983313
692.972789	-77.915362
693.133007	-79.528443
693.293300	-77.249263
693.453666	-79.425296
693.614107	-79.672332
693.774622	-79.732058
693.935211	-77.631605
694.095875	-78.127031
694.256613	-79.178434
694.417426	-80.269169
694.578313	-79.066145
694.739274	-81.554151
694.900311	-82.569293
695.061421	-85.640143
695.222607	-84.297951
695.383868	-99.428030
695.545203	-88.590016
695.706613	-92.197486
695.868098	-94.807796
696.029658	-82.221322
696.191293	-86.531222
696.353003	-88.851125
696.514789	-97.488124
696.676649	-81.408504
696.838585	-101.772659
697.000596	-91.684866
697.162682	-82.278735
697.324844	-83.582204
697.487081	-81.377128
697.649394	-82.843777
697.811782	-81.573364
697.974246	-95.569194
698.136786	-78.500857
698.299401	-86.680625
698.462092	-84.829260
698.624859	-83.638148
698.787702	-85.605994
698.950621	-82.970766
699.113616	-90.510342
699.276686	-77.046407
699.439833	-89.100117
699.603056	-76.490596
699.766355	-81.663755
699.929731	-75.615511
700.093183	-87.062299
700.256711	-78.973571
700.420315	-90.249301
700.583996	-85.392447
700.747754	-81.205617
700.911588	-109.815193
701.075499	-79.686108
701.239486	-83.281172
701.403550	-77.415453
701.567691	-82.226662
701.731909	-78.512253
701.896203	-78.049911
702.060575	-78.608597
702.225024	-79.648705
702.389549	-82.099680
702.554152	-81.689407
702.718832	-85.528534
702.883589	-82.916441
703.048424	-86.036496
703.213335	-86.991919
703.378324	-81.172728
703.543391	-87.463555
703.708535	-89.035283
703.873757	-81.515120
704.039056	-87.390806
704.204433	-79.858541
704.369887	-85.581655
704.535420	-77.743526
704.701030	-86.988981
704.866718	-76.002186
705.032484	-80.742494
705.198328	-76.030407
705.364250	-81.273665
705.530250	-74.937592
705.696328	-80.809623
705.862485	-75.004971
706.028720	-85.168656
706.195033	-74.625259
706.361424	-83.785196
706.527894	-74.566424
706.694442	-81.939027
706.861069	-74.157840
707.027775	-83.490410
707.194559	-79.005168
707.361422	-76.842809
707.528363	-78.771500
707.695384	-80.399225
707.862483	-81.470287
708.029661	-77.117602
708.196918	-80.132541
708.364254	-78.028114
708.531670	-76.621426
708.699164	-81.461441
708.866738	-74.750566
709.034391	-84.074124
709.202123	-76.554504
709.369935	-86.400614
709.537826	-77.823304
709.705796	-81.202035
709.873847	-80.783648
710.041976	-79.637342
710.210186	-87.411586
710.378475	-78.392198
710.546844	-96.288865
710.715292	-79.493751
710.883821	-86.242645
711.052429	-83.382691
711.221118	-87.284264
711.389887	-78.788680
711.558735	-81.281027
711.727664	-75.010565
711.896673	-77.973378
712.065763	-78.139761
712.234932	-87.908658
712.404183	-76.223157
712.573513	-81.501437
712.742924	-77.356307
712.912416	-88.290320
713.081988	-80.099485
713.251641	-93.595778
713.421375	-79.457491
713.591190	-82.057254
713.761085	-74.956553
713.931061	-84.136969
714.101119	-78.949782
714.271257	-80.519928
714.441476	-89.864972
714.611777	-75.347119
714.782159	-97.261671
714.952622	-76.980453
715.123166	-73.684899
715.293792	-74.222843
715.464499	-72.824106
715.635288	-75.431961
715.806158	-71.491080
715.977110	-77.896224
716.148143	-70.747986
716.319259	-80.629459
716.490456	-76.776036
716.661735	-75.241287
716.833096	-78.189905
717.004538	-77.723164
717.176063	-105.592349
717.347670	-78.101261
717.519359	-80.678617
717.691130	-77.707879
717.862984	-81.905207
718.034920	-87.973981
718.206938	-79.463623
718.379039	-77.498582
718.551222	-76.298339
718.723488	-76.678458
718.895836	-81.342531
719.068267	-75.030919
719.240781	-86.687412
719.413377	-75.834114
719.586057	-84.850020
719.758819	-82.533891
719.931664	-76.548981
720.104593	-83.288866
720.277604	-76.239960
720.450699	-81.277121
720.623876	-73.726626
720.797137	-77.046626
720.970482	-75.002398
721.143910	-74.744534
721.317421	-84.520364
721.491016	-71.329786
721.664694	-83.297937
721.838456	-75.093501
722.012302	-75.756795
722.186231	-81.562399
722.360244	-72.260513
722.534342	-90.552756
722.708523	-74.683241
722.882788	-74.835301
723.057137	-80.102222
723.231570	-71.455389
723.406088	-81.563037
723.580689	-70.473381
723.755375	-73.280272
723.930146	-72.997092
724.105000	-70.581035
724.279940	-85.550251
724.454963	-70.355555
724.630072	-80.401161
724.805265	-76.006291
724.980543	-71.746952
725.155905	-91.312203
725.331353	-72.636807
725.506885	-71.740809
725.682503	-72.239565
725.858205	-69.614383
726.033993	-79.799590
726.209865	-69.273477
726.385823	-78.073894
726.561866	-73.176014
726.737995	-72.314201
726.914209	-93.595403
727.090508	-71.783250
727.266893	-73.726849
727.443364	-74.083275
727.619920	-68.341071
727.796562	-75.694300
727.973290	-67.913362
728.150103	-73.505981
728.327003	-72.462825
728.503988	-69.628372
728.681060	-76.669204
728.858218	-69.765079
729.035461	-71.935613
729.212791	-71.368512
729.390208	-69.654973
729.567710	-75.115127
729.745299	-69.237009
729.922975	-71.775541
730.100737	-71.006468
730.278586	-73.912672
730.456521	-81.172910
730.634543	-73.571053
730.812652	-77.371384
730.990848	-79.841248
731.169130	-75.059742
731.347500	-74.105943
731.525957	-73.283023
731.704500	-71.462986
731.883131	-71.032242
732.061850	-69.559217
732.240655	-70.891986
732.419548	-73.506758
732.598528	-72.493493
732.777596	-74.178677
732.956751	-75.802873
733.135994	-75.445068
733.315325	-73.339735
733.494744	-71.157187
733.674250	-70.635930
733.853844	-70.770715
734.033526	-70.939072
734.213296	-70.950353
734.393154	-70.885917
734.573101	-73.410260
734.753135	-84.387875
734.933258	-78.062772
735.113469	-70.889740
735.293769	-70.444712
735.474157	-67.646871
735.654633	-64.943302
735.835198	-66.177887
736.015852	-64.167928
736.196594	-66.456443
736.377426	-64.605856
736.558346	-66.156687
736.739355	-69.242537
736.920453	-70.013519
737.101640	-81.546390
737.282916	-81.452949
737.464282	-73.426140
737.645736	-74.324373
737.827280	-72.468458
738.008914	-67.193054
738.190637	-74.544919
738.372449	-67.365322
738.554351	-76.912402
738.736342	-78.619304
738.918424	-68.995390
739.100595	-73.141152
739.282855	-68.165308
739.465206	-66.868319
739.647647	-74.066665
739.830178	-67.907066
740.012799	-69.746633
740.195510	-67.717645
740.378311	-68.791707
740.561203	-93.684065
740.744185	-70.942931
740.927258	-68.533239
741.110421	-73.864061
741.293674	-65.803560
741.477018	-72.536433
741.660453	-69.951555
741.843979	-71.522134
742.027596	-101.651337
742.211303	-71.911241
742.395102	-74.492519
742.578991	-81.610308
742.762972	-71.894587
742.947044	-67.809642
743.131207	-69.604406
743.315461	-68.359083
743.499807	-76.771329
743.684244	-70.723171
743.868773	-68.532000
744.053394	-71.643460
744.238106	-67.568595
744.422910	-71.258635
744.607805	-70.764671
744.792793	-67.929575
744.977872	-71.256475
745.163044	-66.758454
745.348307	-69.864339
745.533663	-77.874130
745.719111	-70.574065
745.904651	-70.189562
746.090283	-70.244131
746.276008	-67.464573
746.461826	-77.519221
746.647735	-69.467785
746.833738	-72.891433
747.019833	-75.384307
747.206021	-71.702589
747.392302	-74.747689
747.578676	-71.466771
747.765143	-68.910400
747.951703	-65.608242
748.138356	-68.418003
748.325102	-65.499428
748.511941	-70.305320
748.698874	-65.909674
748.885900	-64.693685
749.073019	-66.858463
749.260232	-63.751572
749.447539	-70.751766
749.634939	-68.335693
749.822433	-67.919191
750.010021	-74.496800
750.197703	-66.324375
750.385479	-75.606040
750.573348	-72.296696
750.761312	-84.513784
750.949370	-72.533308
751.137523	-82.407498
751.325769	-75.111284
751.514110	-70.466637
751.702545	-72.249341
751.891075	-67.400842
752.079700	-68.152825
752.268419	-71.172463
752.457233	-71.452174
752.646142	-72.776616
752.835145	-70.647413
753.024244	-67.265368
753.213437	-68.588929
753.402726	-75.334728
753.592110	-76.548042
753.781589	-69.236654
753.971163	-69.835121
754.160833	-70.849009
754.350598	-77.724556
754.540459	-75.621246
754.730415	-71.973982
754.920467	-69.498594
755.110615	-71.940793
755.300858	-72.996394
755.491198	-76.107021
755.681633	-71.028768
755.872164	-68.123298
756.062792	-66.707993
756.253515	-68.694170
756.444335	-72.318657
756.635252	-72.227320
756.826264	-68.149582
757.017373	-68.721455
757.208579	-71.913021
757.399881	-82.450006
757.591280	-74.258011
757.782776	-71.328334
757.974368	-67.730069
758.166058	-75.076943
758.357844	-72.153974
758.549728	-69.734703
758.741708	-69.350143
758.933786	-65.630774
759.125961	-63.661528
759.318233	-70.634869
759.510603	-66.327770
759.703071	-66.738517
759.895635	-72.286248
760.088298	-65.262486
760.281058	-70.521586
760.473916	-79.039797
760.666872	-69.013923
760.859926	-71.168834
761.053078	-77.529743
761.246328	-65.680312
761.439676	-66.385897
761.633122	-71.407533
761.826667	-66.156410
762.020310	-66.578275
762.214052	-67.223434
762.407892	-63.634834
762.601831	-66.035310
762.795868	-65.951274
762.990004	-64.879359
763.184239	-70.581645
763.378573	-68.771213
763.573006	-65.216097
763.767538	-73.501248
763.962169	-78.313243
764.156900	-68.712413
764.351729	-64.594286
764.546658	-65.538168
764.741687	-63.782512
764.936815	-71.063934
765.132042	-74.484134
765.327370	-65.890449
765.522797	-64.757822
765.718324	-67.094708
765.913950	-64.496597
766.109677	-66.455513
766.305504	-66.941742
766.501431	-61.452535
766.697458	-64.403852
766.893586	-66.823476
767.089814	-66.471374
767.286142	-67.983827
767.482571	-66.089916
767.679100	-61.774070
767.875730	-64.876516
768.072461	-64.655906
768.269293	-63.940267
768.466225	-65.829034
768.663259	-63.656468
768.860393	-62.015013
769.057629	-64.547405
769.254966	-64.333548
769.452404	-64.087419
769.649944	-66.489195
769.847585	-67.900915
770.045328	-64.665050
770.243172	-64.579681
770.441118	-70.314056
770.639166	-69.626751
770.837315	-63.594555
771.035567	-61.953377
771.233920	-60.783555
771.432376	-60.260611
771.630934	-64.294711
771.829594	-65.815627
772.028356	-64.749772
772.227220	-65.534547
772.426188	-65.218536
772.625257	-61.499960
772.824430	-63.796615
773.023705	-68.472350
773.223083	-64.603289
773.422563	-62.639944
773.622147	-63.486193
773.821834	-62.879533
774.021624	-62.822741
774.221517	-63.127314
774.421513	-63.170609
774.621613	-63.306729
774.821816	-63.588438
775.022122	-64.322562
775.222532	-66.725855
775.423046	-69.777310
775.623664	-64.844277
775.824385	-59.995784
776.025211	-60.901940
776.226140	-61.437151
776.427173	-60.440033
776.628311	-63.376164
776.829553	-62.402197
777.030899	-59.548920
777.232350	-60.620608
777.433905	-61.590304
777.635564	-63.067190
777.837328	-65.206009
778.039197	-63.371460
778.241171	-60.889552
778.443250	-61.118660
778.645433	-61.372296
778.847722	-60.421088
779.050116	-60.936839
779.252615	-61.980060
779.455219	-61.402656
779.657929	-60.188650
779.860744	-59.657612
780.063665	-64.087932
780.266691	-71.195121
780.469823	-62.351706
780.673061	-60.103919
780.876405	-59.819430
781.079855	-59.968534
781.283410	-61.011433
781.487072	-61.417682
781.690840	-62.732279
781.894715	-63.425862
782.098695	-62.146880
782.302783	-60.475500
782.506976	-58.910138
782.711277	-60.005816
782.915684	-62.770015
783.120198	-62.647650
783.324818	-59.968214
783.529546	-58.226275
783.734381	-58.321066
783.939322	-60.517725
784.144372	-61.560454
784.349528	-61.039138
784.554792	-61.537453
784.760163	-62.551299
784.965642	-59.538045
785.171228	-57.723512
785.376922	-59.567119
785.582724	-62.424254
785.788634	-61.438116
785.994651	-58.243565
786.200777	-58.087106
786.407011	-59.012915
786.613353	-59.336467
786.819804	-61.179380
787.026363	-61.509624
787.233030	-59.561078
787.439806	-59.420707
787.646691	-58.760223
787.853684	-57.628351
788.060786	-57.669194
788.267997	-59.455670
788.475317	-62.014821
788.682746	-59.646356
788.890285	-57.871669
789.097932	-58.477028
789.305689	-58.182754
789.513555	-59.394678
789.721531	-60.452893
789.929617	-61.050656
790.137812	-60.769529
790.346117	-59.549911
790.554531	-57.282847
790.763056	-55.798360
790.971691	-55.498005
791.180436	-57.215909
791.389291	-58.404952
791.598256	-57.276337
791.807332	-56.812221
792.016518	-59.253322
792.225815	-58.114903
792.435222	-55.936736
792.644740	-56.605541
792.854369	-60.349959
793.064109	-63.018950
793.273960	-57.932268
793.483922	-56.777435
793.693995	-58.725378
793.904180	-57.565219
794.114475	-56.915607
794.324882	-57.641161
794.535401	-58.546160
794.746031	-58.067921
794.956774	-55.929933
795.167627	-55.798566
795.378593	-56.033717
795.589671	-56.683708
795.800861	-57.180340
796.012162	-57.504241
796.223577	-57.743289
796.435103	-57.393834
796.646742	-57.045900
796.858493	-56.518036
797.070357	-55.814968
797.282334	-56.199766
797.494423	-56.306318
797.706626	-56.855831
797.918941	-55.987218
798.131369	-55.485974
798.343911	-56.802104
798.556566	-56.432518
798.769334	-55.434129
798.982215	-55.294807
799.195210	-56.612834
799.408319	-57.421451
799.621541	-56.421081
799.834877	-56.597152
800.048327	-56.817139
800.261890	-56.477331
800.475568	-55.548398
800.689360	-54.618546
800.903266	-55.796813
801.117287	-55.988478
801.331422	-55.595255
801.545671	-55.688396
801.760036	-56.002712
801.974514	-55.865585
802.189108	-55.365345
802.403816	-55.711691
802.618640	-55.903247
802.833578	-55.659700
803.048632	-54.390560
803.263800	-53.506850
803.479085	-54.394011
803.694484	-54.320657
803.909999	-55.060695
804.125630	-55.858408
804.341376	-55.746004
804.557239	-56.483967
804.773217	-54.982862
804.989311	-53.983633
805.205521	-54.103326
805.421847	-54.623800
805.638290	-55.449868
805.854849	-54.953156
806.071524	-55.141058
806.288316	-55.472458
806.505225	-55.325935
806.722250	-53.965995
806.939393	-53.940710
807.156652	-55.381991
807.374028	-55.169769
807.591521	-54.469667
807.809132	-54.108754
808.026859	-54.619983
808.244705	-54.434796
808.462667	-53.368030
808.680748	-54.145512
808.898946	-55.057993
809.117261	-55.291886
809.335695	-53.353530
809.554246	-53.205553
809.772916	-54.744558
809.991704	-53.761671
810.210610	-53.486708
810.429634	-54.276673
810.648777	-55.506951
810.868039	-55.222816
811.087419	-53.028810
811.306918	-53.530841
811.526535	-55.263158
811.746272	-54.974664
811.966127	-53.783118
812.186102	-54.291645
812.406196	-54.787779
812.626409	-53.781327
812.846742	-53.130717
813.067194	-53.319604
813.287766	-55.218321
813.508457	-54.824136
813.729269	-53.706818
813.950200	-53.925375
814.171251	-53.224578
814.392422	-53.215161
814.613714	-52.821323
814.835126	-52.905767
815.056658	-53.563345
815.278311	-54.315067
815.500084	-54.817670
815.721978	-54.019475
815.943993	-54.593927
816.166128	-54.588648
816.388385	-54.160223
816.610762	-53.860861
816.833261	-53.436671
817.055881	-53.615816
817.278623	-53.359480
817.501486	-53.927280
817.724471	-53.901067
817.947577	-53.533204
818.170805	-53.688835
818.394155	-54.122213
818.617627	-53.688652
818.841221	-52.328404
819.064937	-53.089793
819.288775	-54.729957
819.512736	-55.162152
819.736819	-53.250402
819.961025	-53.078093
820.185354	-54.836268
820.409805	-53.996488
820.634379	-53.028962
820.859076	-52.789428
821.083897	-54.351242
821.308840	-54.130044
821.533907	-53.410206
821.759097	-54.494356
821.984411	-53.841844
822.209848	-53.129159
822.435409	-52.994423
822.661093	-53.603548
822.886902	-53.256485
823.112834	-52.478671
823.338891	-54.037865
823.565072	-55.245498
823.791377	-53.568870
824.017807	-52.036736
824.244361	-53.245849
824.471039	-54.634441
824.697843	-54.353324
824.924771	-53.155237
825.151824	-53.754479
825.379002	-54.179664
825.606306	-53.580144
825.833734	-54.144089
826.061288	-52.889117
826.288967	-52.612538
826.516772	-52.858512
826.744703	-53.795001
826.972759	-54.615519
827.200941	-52.187458
827.429249	-51.951969
827.657683	-53.356426
827.886243	-54.763226
828.114930	-54.028467
828.343743	-52.226062
828.572682	-52.171358
828.801748	-53.235223
829.030941	-53.983324
829.260260	-53.759414
829.489706	-53.602083
829.719280	-52.222165
829.948980	-52.035770
830.178808	-52.436049
830.408763	-53.070786
830.638845	-52.452870
830.869055	-51.537909
831.099393	-53.410986
831.329858	-53.851374
831.560451	-52.341111
831.791173	-50.436731
832.022022	-51.370074
832.252999	-52.352710
832.484105	-52.176472
832.715339	-53.315906
832.946702	-52.416138
833.178193	-50.893765
833.409813	-50.947251
833.641561	-53.497652
833.873439	-54.413004
834.105445	-52.095636
834.337581	-51.549594
834.569846	-51.469795
834.802241	-50.527732
835.034764	-51.316040
835.267418	-51.305090
835.500201	-49.338217
835.733114	-49.029710
835.966157	-49.569935
836.199329	-52.165310
836.432632	-52.385367
836.666065	-51.124715
836.899629	-52.415177
837.133323	-50.572163
837.367147	-50.480398
837.601102	-50.864758
837.835188	-50.479490
838.069405	-49.518077
838.303752	-49.270602
838.538231	-50.029273
838.772841	-50.320186
839.007582	-49.563402
839.242455	-48.805658
839.477459	-48.927507
839.712595	-49.377764
839.947863	-50.656606
840.183263	-51.167666
840.418794	-50.795369
840.654458	-48.790549
840.890254	-47.967218
841.126182	-48.334874
841.362242	-49.210452
841.598435	-49.317673
841.834761	-48.488407
842.071220	-48.536065
842.307811	-47.563168
842.544536	-48.027480
842.781393	-49.366174
843.018384	-49.280390
843.255508	-47.844452
843.492765	-47.295474
843.730156	-47.740212
843.967681	-47.501898
844.205339	-48.144342
844.443132	-49.342128
844.681058	-48.076861
844.919118	-46.436871
845.157313	-46.856887
845.395642	-47.031786
845.634105	-47.208806
845.872703	-47.422618
846.111436	-47.980461
846.350303	-46.658980
846.589306	-45.962165
846.828443	-46.997188
847.067716	-46.814199
847.307124	-46.802882
847.546667	-47.029882
847.786345	-47.546777
848.026160	-46.515900
848.266110	-46.108768
848.506195	-45.931291
848.746417	-45.155248
848.986775	-44.887747
849.227269	-45.509035
849.467899	-46.712803
849.708666	-47.326440
849.949569	-47.164966
850.190609	-46.143403
850.431785	-44.746814
850.673099	-43.987801
850.914549	-44.474057
851.156137	-45.182141
851.397861	-46.137831
851.639723	-46.067569
851.881723	-45.838275
852.123860	-44.649045
852.366135	-44.090459
852.608547	-44.792975
852.851098	-44.860880
853.093786	-45.471257
853.336613	-44.949565
853.579578	-44.664973
853.822681	-43.979377
854.065923	-43.793613
854.309304	-44.681454
854.552823	-44.605762
854.796481	-44.686005
855.040278	-44.820291
855.284215	-44.024173
855.528290	-43.708989
855.772505	-43.776093
856.016859	-44.092513
856.261353	-43.888982
856.505987	-44.089486
856.750760	-44.406197
856.995673	-42.925311
857.240727	-43.327777
857.485920	-43.320490
857.731254	-43.246527
857.976729	-43.852990
858.222343	-44.036583
858.468099	-43.810230
858.713995	-43.079025
858.960032	-43.113311
859.206211	-42.797956
859.452530	-42.374653
859.698991	-43.436357
859.945593	-43.537049
860.192336	-42.973305
860.439222	-43.313336
860.686248	-42.478878
860.933417	-42.278048
861.180728	-42.393893
861.428181	-43.059431
861.675776	-42.886419
861.923514	-42.880342
862.171394	-42.621945
862.419417	-41.884681
862.667582	-41.806599
862.915890	-42.253538
863.164342	-42.727250
863.412936	-42.968403
863.661674	-42.930634
863.910555	-42.168595
864.159579	-41.628676
864.408747	-41.377721
864.658059	-41.656106
864.907515	-42.180173
865.157114	-42.385686
865.406858	-42.193130
865.656746	-42.143925
865.906778	-41.385615
866.156955	-41.613342
866.407277	-41.659682
866.657743	-41.625220
866.908354	-41.414736
867.159110	-41.440609
867.410011	-41.436081
867.661057	-41.419486
867.912249	-42.096148
868.163586	-41.666564
868.415069	-41.358037
868.666697	-41.286905
868.918472	-40.712510
869.170392	-40.999701
869.422458	-41.439742
869.674671	-41.437390
869.927030	-41.408094
870.179536	-41.219414
870.432188	-41.066077
870.684987	-40.630392
870.937933	-41.168570
871.191026	-40.817556
871.444266	-40.813282
871.697653	-41.054468
871.951188	-41.021652
872.204870	-41.078908
872.458700	-41.161937
872.712677	-41.129705
872.966803	-40.521569
873.221076	-40.343772
873.475498	-40.500910
873.730068	-40.328926
873.984787	-40.866550
874.239654	-40.932844
874.494669	-41.000652
874.749834	-40.802520
875.005147	-40.516840
875.260610	-40.296966
875.516222	-40.146743
875.771983	-40.326550
876.027894	-40.297478
876.283954	-40.570156
876.540164	-40.588264
876.796524	-40.767188
877.053033	-40.427418
877.309693	-40.542032
877.566503	-40.397894
877.823464	-39.918219
878.080575	-40.123390
878.337837	-39.999933
878.595249	-39.886655
878.852813	-40.426452
879.110528	-40.478451
879.368393	-40.570893
879.626410	-40.195280
879.884579	-40.246473
880.142899	-39.657785
880.401371	-40.018715
880.659994	-39.941135
880.918770	-40.110115
881.177698	-40.079022
881.436778	-40.011583
881.696010	-39.856701
881.955395	-40.121152
882.214933	-40.212497
882.474623	-40.137244
882.734467	-40.103025
882.994463	-39.828791
883.254613	-39.668188
883.514916	-39.983351
883.775372	-39.649529
884.035982	-40.073726
884.296746	-39.617299
884.557664	-39.875166
884.818735	-39.758633
885.079961	-39.653505
885.341341	-40.045539
885.602876	-39.496770
885.864565	-39.659753
886.126409	-39.619799
886.388407	-39.854343
886.650561	-39.521238
886.912870	-39.851628
887.175334	-39.813560
887.437953	-39.197281
887.700728	-39.671129
887.963658	-39.572504
888.226745	-39.293552
888.489987	-40.085486
888.753385	-39.253520
889.016940	-39.749157
889.280651	-39.196623
889.544518	-39.641900
889.808543	-38.960579
890.072723	-39.838489
890.337061	-39.103333
890.601556	-39.330997
890.866208	-39.578622
891.131017	-38.977939
891.395984	-39.195458
891.661109	-39.743100
891.926391	-38.775781
892.191831	-39.764984
892.457429	-39.017178
892.723186	-39.406674
892.989100	-39.095876
893.255173	-39.736712
893.521405	-38.814000
893.787796	-39.839619
894.054345	-38.886276
894.321053	-39.166301
894.587921	-39.320976
894.854948	-39.272634
895.122134	-39.032011
895.389480	-39.326361
895.656986	-38.767492
895.924651	-39.262341
896.192477	-38.825475
896.460463	-39.519902
896.728609	-38.661335
896.996915	-39.524179
897.265382	-38.723864
897.534010	-39.194372
897.802799	-39.029071
898.071749	-39.082860
898.340860	-38.817589
898.610132	-39.082708
898.879566	-38.772983
899.149162	-39.044161
899.418919	-38.913909
899.688838	-39.101104
899.958919	-38.694378
900.229162	-39.077788
900.499568	-38.256602
900.770136	-39.163081
901.040867	-38.813914
901.311761	-38.563316
901.582817	-39.412999
901.854037	-38.544414
902.125420	-38.804523
902.396966	-39.097706
902.668676	-38.439245
902.940550	-38.986518
903.212587	-38.606237
903.484788	-38.579489
903.757153	-39.008754
904.029683	-38.549874
904.302377	-38.728397
904.575236	-38.785134
904.848259	-37.991254
905.121447	-38.676611
905.394800	-38.634534
905.668319	-38.211107
905.942002	-38.780346
906.215852	-38.278218
906.489866	-38.463009
906.764047	-38.195884
907.038393	-38.694084
907.312906	-38.448301
907.587584	-38.165969
907.862429	-38.466290
908.137441	-37.949021
908.412619	-38.325898
908.687964	-38.153602
908.963476	-38.051503
909.239155	-37.993371
909.515002	-37.941768
909.791015	-37.712305
910.067197	-38.236145
910.343546	-37.247862
910.620063	-38.209275
910.896748	-37.494838
911.173601	-37.607057
911.450623	-38.106920
911.727813	-37.321401
912.005171	-37.560668
912.282699	-37.690344
912.560395	-37.482534
912.838261	-37.532951
913.116296	-37.364852
913.394500	-37.884164
913.672874	-36.684384
913.951418	-37.706157
914.230131	-36.878132
914.509015	-37.318479
914.788068	-37.018756
915.067292	-37.241563
915.346687	-37.341785
915.626252	-36.533395
915.905988	-37.405272
916.185895	-36.595595
916.465973	-36.907831
916.746223	-37.035513
917.026644	-36.949790
917.307236	-36.462876
917.588000	-36.952900
917.868937	-36.496732
918.150045	-36.361543
918.431325	-36.555713
918.712778	-36.284726
918.994404	-36.483647
919.276202	-36.050947
919.558173	-36.469294
919.840317	-36.145104
920.122634	-35.749704
920.405125	-36.194504
920.687789	-35.756879
920.970627	-36.023193
921.253639	-35.847396
921.536824	-35.811574
921.820184	-35.537209
922.103718	-35.802089
922.387427	-35.739560
922.671310	-35.545244
922.955368	-35.630271
923.239601	-35.417800
923.524009	-35.514103
923.808592	-35.247098
924.093351	-35.878108
924.378285	-34.874626
924.663396	-35.374111
924.948682	-35.281912
925.234144	-34.736747
925.519782	-35.100931
925.805597	-34.908038
926.091589	-35.198315
926.377757	-34.307851
926.664102	-35.490647
926.950624	-34.672015
927.237323	-34.631436
927.524200	-34.844302
927.811255	-34.652973
928.098487	-34.714853
928.385897	-34.162217
928.673485	-35.143583
928.961251	-33.981078
929.249196	-34.320888
929.537319	-34.643637
929.825621	-34.302855
930.114102	-34.110926
930.402762	-34.497966
930.691601	-34.135486
930.980620	-33.505417
931.269818	-34.379029
931.559196	-33.731392
931.848753	-33.660792
932.138491	-33.667196
932.428409	-34.281147
932.718508	-33.402999
933.008787	-33.278851
933.299246	-34.374206
933.589887	-33.129039
933.880709	-33.191222
934.171712	-33.753823
934.462896	-33.488083
934.754262	-33.156869
935.045810	-33.295858
935.337539	-33.891256
935.629451	-32.673711
935.921545	-33.120476
936.213822	-33.555746
936.506281	-32.531263
936.798922	-32.913861
937.091747	-33.094816
937.384755	-32.907465
937.677946	-32.504588
937.971321	-32.687696
938.264879	-32.739379
938.558621	-32.474799
938.852547	-32.077216
939.146657	-32.818935
939.440952	-32.365836
939.735431	-32.121368
940.030095	-32.365095
940.324943	-32.056100
940.619977	-32.666833
940.915196	-31.402880
941.210600	-32.562297
941.506189	-32.209093
941.801965	-31.508567
942.097926	-32.271948
942.394074	-31.674601
942.690407	-32.318645
942.986927	-31.071567
943.283634	-32.060676
943.580527	-31.784639
943.877608	-31.361955
944.174875	-31.767702
944.472330	-31.128015
944.769972	-32.194294
945.067802	-30.864311
945.365820	-31.370770
945.664026	-31.521885
945.962420	-31.228390
946.261002	-31.340368
946.559773	-30.991769
946.858733	-31.670573
947.157881	-31.023508
947.457219	-31.078813
947.756746	-31.102607
948.056462	-31.070871
948.356368	-31.389937
948.656464	-30.654726
948.956749	-31.122799
949.257225	-30.973335
949.557891	-30.914151
949.858748	-30.657833
950.159796	-30.687622
950.461034	-31.045334
950.762463	-30.404774
951.064084	-30.674662
951.365896	-30.432732
951.667900	-30.639945
951.970095	-30.322312
952.272483	-30.419691
952.575063	-30.307748
952.877835	-30.301800
953.180799	-30.622748
953.483956	-29.806878
953.787307	-30.495921
954.090850	-30.196620
954.394586	-30.175564
954.698516	-30.379322
955.002640	-29.727233
955.306957	-30.587068
955.611469	-30.022279
955.916174	-30.122007
956.221074	-30.089152
956.526169	-29.954460
956.831458	-30.490347
957.136942	-29.631056
957.442622	-30.224316
957.748496	-29.935837
958.054567	-29.830035
958.360833	-30.247077
958.667294	-29.462215
958.973952	-30.066692
959.280806	-29.709638
959.587857	-29.718993
959.895104	-29.717582
960.202548	-29.468542
960.510189	-29.784896
960.818027	-29.256402
961.126062	-29.829244
961.434295	-29.052998
961.742726	-29.450022
962.051355	-29.570690
962.360182	-28.843313
962.669207	-29.674076
962.978431	-28.871829
963.287854	-29.244582
963.597475	-29.242342
963.907296	-28.794809
964.217315	-29.251357
964.527535	-28.880426
964.837954	-29.029261
965.148573	-28.887488
965.459392	-28.819300
965.770411	-28.974566
966.081630	-28.696701
966.393051	-28.870371
966.704672	-28.664053
967.016494	-28.668051
967.328517	-28.811837
967.640742	-28.391397
967.953169	-28.732758
968.265797	-28.535921
968.578627	-28.390745
968.891660	-28.679887
969.204895	-28.236653
969.518332	-28.479766
969.831972	-28.461698
970.145816	-28.159156
970.459862	-28.542785
970.774112	-28.051768
971.088565	-28.398925
971.403223	-28.203884
971.718084	-28.060379
972.033149	-28.333971
972.348419	-27.967219
972.663893	-28.206312
972.979572	-28.116457
973.295456	-27.876566
973.611546	-28.279488
973.927840	-27.812470
974.244340	-28.053189
974.561046	-28.017813
974.877958	-27.749764
975.195076	-28.083179
975.512401	-27.823875
975.829932	-27.876522
976.147670	-27.942988
976.465615	-27.779032
976.783767	-27.837309
977.102126	-27.914079
977.420693	-27.617156
977.739468	-27.877175
978.058451	-27.734681
978.377642	-27.643429
978.697041	-27.903233
979.016649	-27.475110
979.336466	-27.747567
979.656492	-27.607782
979.976727	-27.490391
980.297171	-27.656823
980.617825	-27.468219
980.938689	-27.446138
981.259763	-27.526514
981.581048	-27.316833
981.902542	-27.372619
982.224248	-27.408831
982.546164	-27.131011
982.868291	-27.408969
983.190630	-27.103212
983.513180	-27.159955
983.835942	-27.273521
984.158916	-26.901761
984.482101	-27.256531
984.805500	-26.913014
985.129110	-27.052146
985.452934	-27.011215
985.776970	-26.843922
986.101220	-26.985914
986.425683	-26.793125
986.750359	-26.916783
987.075250	-26.726804
987.400354	-26.789774
987.725673	-26.694296
988.051206	-26.719664
988.376954	-26.664787
988.702916	-26.584855
989.029094	-26.552836
989.355487	-26.568516
989.682095	-26.466303
990.008919	-26.475671
990.335959	-26.437909
990.663216	-26.276247
990.990688	-26.484563
991.318377	-26.162570
991.646283	-26.344608
991.974406	-26.220080
992.302746	-26.095411
992.631304	-26.294381
992.960079	-26.003913
993.289072	-26.179644
993.618283	-26.062188
993.947713	-26.009896
994.277361	-26.051649
994.607227	-26.025663
994.937313	-25.893956
995.267618	-26.098655
995.598142	-25.818600
995.928886	-25.994979
996.259849	-25.903927
996.591033	-25.812201
996.922437	-25.975046
997.254061	-25.781387
997.585906	-25.859082
997.917972	-25.812617
998.250260	-25.741876
998.582768	-25.809693
998.915498	-25.768282
999.248450	-25.643120
999.581624	-25.788013
999.915020	-25.582879
1000.248639	-25.698710
1000.582480	-25.623852
1000.916545	-25.506680
1001.250832	-25.657958
1001.585343	-25.459755
1001.920077	-25.551040
1002.255035	-25.467937
1002.590218	-25.424604
1002.925624	-25.441871
1003.261255	-25.403767
1003.597111	-25.328450
1003.933192	-25.409235
1004.269497	-25.301095
1004.606029	-25.272789
1004.942785	-25.343743
1005.279768	-25.151741
1005.616977	-25.344568
1005.954412	-25.149172
1006.292074	-25.197583
1006.629962	-25.191881
1006.968077	-25.106031
1007.306420	-25.110943
1007.644990	-25.138926
1007.983787	-24.984621
1008.322813	-25.126289
1008.662067	-24.959364
1009.001549	-24.947832
1009.341259	-25.018516
1009.681199	-24.827601
1010.021367	-24.950808
1010.361765	-24.820083
1010.702392	-24.794364
1011.043250	-24.800213
1011.384337	-24.741842
1011.725654	-24.673850
1012.067202	-24.759342
1012.408980	-24.571833
1012.750989	-24.654423
1013.093230	-24.612169
1013.435702	-24.524340
1013.778405	-24.595135
1014.121341	-24.493781
1014.464508	-24.476090
1014.807908	-24.539704
1015.151540	-24.443174
1015.495405	-24.420923
1015.839503	-24.511048
1016.183835	-24.341092
1016.528400	-24.497190
1016.873198	-24.384026
1017.218231	-24.378743
1017.563498	-24.412954
1017.908999	-24.385882
1018.254735	-24.298252
1018.600707	-24.472386
1018.946913	-24.263875
1019.293354	-24.382110
1019.640032	-24.346521
1019.986945	-24.256407
1020.334094	-24.353125
1020.681480	-24.304682
1021.029102	-24.220195
1021.376961	-24.341045
1021.725058	-24.241516
1022.073391	-24.184463
1022.421962	-24.306566
1022.770772	-24.135967
1023.119819	-24.225340
1023.469104	-24.252289
1023.818628	-24.126235
1024.168391	-24.200137
1024.518393	-24.194898
1024.868634	-24.046917
1025.219115	-24.228741
1025.569836	-24.099348
1025.920796	-24.121047
1026.271997	-24.140523
1026.623438	-24.103989
1026.975121	-24.026208
1027.327044	-24.192704
1027.679208	-23.963683
1028.031614	-24.100420
1028.384262	-24.039404
1028.737152	-23.990548
1029.090284	-23.994933
1029.443659	-24.051306
1029.797276	-23.846901
1030.151137	-24.019371
1030.505240	-23.870916
1030.859587	-23.849254
1031.214178	-23.903546
1031.569013	-23.805173
1031.924093	-23.745025
1032.279417	-23.843804
1032.634985	-23.689521
1032.990799	-23.687956
1033.346858	-23.754232
1033.703162	-23.603321
1034.059712	-23.643479
1034.416509	-23.666309
1034.773551	-23.531378
1035.130841	-23.587167
1035.488377	-23.622233
1035.846160	-23.454203
1036.204190	-23.591972
1036.562468	-23.522691
1036.920994	-23.456323
1037.279768	-23.509718
1037.638790	-23.533297
1037.998061	-23.353088
1038.357581	-23.558465
1038.717350	-23.390695
1039.077368	-23.419030
1039.437636	-23.442899
1039.798154	-23.440367
1040.158922	-23.285842
1040.519940	-23.501143
1040.881209	-23.291244
1041.242729	-23.362328
1041.604501	-23.374001
1041.966524	-23.349447
1042.328798	-23.235191
1042.691325	-23.430972
1043.054103	-23.217911
1043.417135	-23.320954
1043.780419	-23.320554
1044.143956	-23.281108
1044.507746	-23.201831
1044.871791	-23.398985
1045.236088	-23.157473
1045.600641	-23.313301
1045.965447	-23.271170
1046.330508	-23.268018
1046.695824	-23.173764
1047.061395	-23.376413
1047.427222	-23.128552
1047.793304	-23.287212
1048.159642	-23.243649
1048.526237	-23.200169
1048.893088	-23.146585
1049.260196	-23.288971
1049.627561	-23.068579
1049.995183	-23.182605
1050.363063	-23.158229
1050.731201	-23.083497
1051.099597	-23.026954
1051.468251	-23.161096
1051.837164	-22.934654
1052.206336	-23.027908
1052.575767	-22.998695
1052.945458	-22.936053
1053.315409	-22.865259
1053.685619	-22.985992
1054.056090	-22.801888
1054.426821	-22.846452
1054.797814	-22.852961
1055.169067	-22.771659
1055.540582	-22.712283
1055.912359	-22.821052
1056.284398	-22.668533
1056.656698	-22.671657
1057.029262	-22.710629
1057.402088	-22.652577
1057.775177	-22.551293
1058.148530	-22.661197
1058.522146	-22.550899
1058.896027	-22.491643
1059.270171	-22.570544
1059.644580	-22.499824
1060.019254	-22.434752
1060.394193	-22.463501
1060.769397	-22.480703
1061.144867	-22.329739
1061.520602	-22.463217
1061.896604	-22.373957
1062.272872	-22.350570
1062.649407	-22.337667
1063.026210	-22.406767
1063.403279	-22.257358
1063.780616	-22.361635
1064.158221	-22.318313
1064.536094	-22.299918
1064.914235	-22.254320
1065.292645	-22.373783
1065.671325	-22.208669
1066.050273	-22.300646
1066.429491	-22.267914
1066.808979	-22.296209
1067.188738	-22.175045
1067.568766	-22.332776
1067.949066	-22.198005
1068.329636	-22.222182
1068.710478	-22.216498
1069.091592	-22.237309
1069.472977	-22.119605
1069.854635	-22.209614
1070.236565	-22.160799
1070.618768	-22.106329
1071.001243	-22.112852
1071.383993	-22.126987
1071.767016	-22.029718
1072.150313	-22.033370
1072.533884	-22.063581
1072.917730	-21.968934
1073.301850	-21.945862
1073.686246	-21.944429
1074.070917	-21.926999
1074.455864	-21.808766
1074.841087	-21.895703
1075.226586	-21.786092
1075.612362	-21.754040
1075.998415	-21.713256
1076.384745	-21.740866
1076.771353	-21.582886
1077.158238	-21.635624
1077.545401	-21.579861
1077.932843	-21.523883
1078.320564	-21.435151
1078.708564	-21.492818
1079.096842	-21.399582
1079.485401	-21.347233
1079.874240	-21.345777
1080.263358	-21.311638
1080.652757	-21.234072
1081.042438	-21.228820
1081.432399	-21.245999
1081.822641	-21.112588
1082.213166	-21.155051
1082.603972	-21.109802
1082.995061	-21.095418
1083.386433	-21.000026
1083.778087	-21.080172
1084.170025	-21.001044
1084.562246	-20.973822
1084.954751	-20.969791
1085.347541	-21.002430
1085.740615	-20.916917
1086.133973	-20.942187
1086.527617	-20.958887
1086.921546	-20.919532
1087.315761	-20.904496
1087.710262	-20.929546
1088.105050	-20.918289
1088.500124	-20.841492
1088.895485	-20.899607
1089.291134	-20.871696
1089.687070	-20.835776
1090.083294	-20.774653
1090.479806	-20.848486
1090.876607	-20.759082
1091.273696	-20.746366
1091.671075	-20.737477
1092.068744	-20.744983
1092.466702	-20.671741
1092.864950	-20.681105
1093.263489	-20.707038
1093.662319	-20.633565
1094.061440	-20.618419
1094.460852	-20.631980
1094.860555	-20.618507
1095.260551	-20.521013
1095.660840	-20.541372
1096.061421	-20.506533
1096.462295	-20.451446
1096.863462	-20.356492
1097.264923	-20.389366
1097.666678	-20.289592
1098.068727	-20.215239
1098.471071	-20.189478
1098.873710	-20.159789
1099.276644	-20.070891
1099.679874	-20.017678
1100.083400	-20.038971
1100.487222	-19.970777
1100.891340	-19.916572
1101.295756	-19.911057
1101.700468	-19.933578
1102.105478	-19.839521
1102.510787	-19.842608
1102.916393	-19.838644
1103.322298	-19.819004
1103.728502	-19.733819
1104.135005	-19.743688
1104.541807	-19.724209
1104.948909	-19.636426
1105.356312	-19.599639
1105.764015	-19.574523
1106.172019	-19.538973
1106.580324	-19.433052
1106.988931	-19.433314
1107.397840	-19.401112
1107.807051	-19.352381
1108.216564	-19.295215
1108.626380	-19.315187
1109.036500	-19.300669
1109.446923	-19.258546
1109.857649	-19.257511
1110.268680	-19.292261
1110.680016	-19.285523
1111.091657	-19.244160
1111.503602	-19.291255
1111.915854	-19.296975
1112.328411	-19.277204
1112.741275	-19.230906
1113.154445	-19.276022
1113.567922	-19.234036
1113.981706	-19.162764
1114.395798	-19.141008
1114.810198	-19.120125
1115.224906	-19.053332
1115.639923	-18.952632
1116.055249	-18.945394
1116.470884	-18.887123
1116.886829	-18.807640
1117.303084	-18.739473
1117.719650	-18.741900
1118.136526	-18.684749
1118.553713	-18.625549
1118.971212	-18.607087
1119.389022	-18.626751
1119.807145	-18.590030
1120.225580	-18.558180
1120.644328	-18.584446
1121.063389	-18.607241
1121.482763	-18.579171
1121.902452	-18.565305
1122.322454	-18.611971
1122.742771	-18.600330
1123.163404	-18.563387
1123.584351	-18.545459
1124.005614	-18.568548
1124.427193	-18.525574
1124.849089	-18.447686
1125.271301	-18.440788
1125.693830	-18.403666
1126.116677	-18.357150
1126.539842	-18.259340
1126.963324	-18.250376
1127.387126	-18.210967
1127.811246	-18.142810
1128.235685	-18.080676
1128.660444	-18.073605
1129.085522	-18.057028
1129.510922	-17.992430
1129.936641	-17.969678
1130.362682	-17.975968
1130.789044	-17.984586
1131.215728	-17.920653
1131.642734	-17.934282
1132.070063	-17.944525
1132.497714	-17.941526
1132.925689	-17.894208
1133.353987	-17.882802
1133.782610	-17.907440
1134.211556	-17.855123
1134.640827	-17.805123
1135.070424	-17.761736
1135.500345	-17.755243
1135.930593	-17.677579
1136.361166	-17.595008
1136.792067	-17.542691
1137.223294	-17.498166
1137.654848	-17.408094
1138.086730	-17.314867
1138.518940	-17.262139
1138.951479	-17.209487
1139.384346	-17.131691
1139.817543	-17.043020
1140.251069	-17.017665
1140.684925	-16.978066
1141.119111	-16.914287
1141.553628	-16.871220
1141.988475	-16.857888
1142.423655	-16.854497
1142.859166	-16.817510
1143.295009	-16.796129
1143.731185	-16.820168
1144.167694	-16.834215
1144.604536	-16.816143
1145.041711	-16.823129
1145.479221	-16.855428
1145.917065	-16.886527
1146.355245	-16.876258
1146.793759	-16.876586
1147.232609	-16.929767
1147.671795	-16.939186
1148.111317	-16.930836
1148.551177	-16.925152
1148.991373	-16.951123
1149.431907	-16.963777
1149.872779	-16.922811
1150.313989	-16.909972
1150.755538	-16.911942
1151.197426	-16.900510
1151.639653	-16.854639
1152.082220	-16.809885
1152.525128	-16.796712
1152.968376	-16.776557
1153.411966	-16.712952
1153.855897	-16.654878
1154.300169	-16.635482
1154.744784	-16.602736
1155.189742	-16.547324
1155.635042	-16.472310
1156.080687	-16.457627
1156.526674	-16.426521
1156.973007	-16.370726
1157.419683	-16.311562
1157.866705	-16.286046
1158.314072	-16.272092
1158.761786	-16.217584
1159.209845	-16.176948
1159.658251	-16.141450
1160.107004	-16.148699
1160.556104	-16.102396
1161.005553	-16.059004
1161.455349	-16.039250
1161.905494	-16.041758
1162.355989	-16.018393
1162.806832	-15.967148
1163.258026	-15.951640
1163.709570	-15.952665
1164.161464	-15.947311
1164.613710	-15.892434
1165.066307	-15.873811
1165.519256	-15.871304
1165.972558	-15.874338
1166.426212	-15.829833
1166.880219	-15.795121
1167.334580	-15.799891
1167.789295	-15.797583
1168.244364	-15.762583
1168.699788	-15.721041
1169.155567	-15.720816
1169.611702	-15.723007
1170.068193	-15.692013
1170.525041	-15.651119
1170.982245	-15.633607
1171.439807	-15.643471
1171.897726	-15.612388
1172.356004	-15.574732
1172.814640	-15.551409
1173.273635	-15.544925
1173.732989	-15.531633
1174.192703	-15.481679
1174.652778	-15.463651
1175.113213	-15.440837
1175.574009	-15.437628
1176.035167	-15.386983
1176.496687	-15.361460
1176.958569	-15.342732
1177.420814	-15.330843
1177.883422	-15.294615
1178.346394	-15.251620
1178.809730	-15.240151
1179.273430	-15.229873
1179.737496	-15.202375
1180.201927	-15.157586
1180.666723	-15.127787
1181.131886	-15.130297
1181.597416	-15.111386
1182.063312	-15.072038
1182.529576	-15.032041
1182.996209	-15.028055
1183.463209	-15.017483
1183.930579	-14.987316
1184.398317	-14.949996
1184.866426	-14.929690
1185.334904	-14.927312
1185.803754	-14.901427
1186.272974	-14.867346
1186.742566	-14.837768
1187.212529	-14.836774
1187.682865	-14.817012
1188.153574	-14.787529
1188.624656	-14.752713
1189.096112	-14.743207
1189.567942	-14.728681
1190.040147	-14.701179
1190.512726	-14.668474
1190.985681	-14.655257
1191.459012	-14.639575
1191.932720	-14.623146
1192.406804	-14.579778
1192.881265	-14.561578
1193.356104	-14.548345
1193.831322	-14.546758
1194.306918	-14.511168
1194.782893	-14.477103
1195.259248	-14.452837
1195.735982	-14.446005
1196.213097	-14.435576
1196.690593	-14.414305
1197.168471	-14.374844
1197.646730	-14.349404
1198.125371	-14.320349
1198.604395	-14.317357
1199.083803	-14.305653
1199.563594	-14.275034
1200.043769	-14.228033
1200.524329	-14.187565
1201.005273	-14.176355
1201.486604	-14.192375
1201.968320	-14.166435
1202.450422	-14.114089
1202.932912	-14.047384
1203.415789	-14.043460
1203.899054	-14.066320
1204.382707	-14.071398
1204.866748	-14.015849
1205.351179	-13.943750
1205.836000	-13.930869
1206.321211	-13.963338
1206.806812	-13.994316
1207.292805	-13.954854
1207.779189	-13.890009
1208.265965	-13.863615
1208.753134	-13.898705
1209.240696	-13.941232
1209.728651	-13.924820
1210.217000	-13.869623
1210.705744	-13.841397
1211.194883	-13.863144
1211.684417	-13.908779
1212.174347	-13.897164
1212.664673	-13.858582
1213.155396	-13.821896
1213.646516	-13.841455
1214.138034	-13.866806
1214.629951	-13.859999
1215.122266	-13.815870
1215.614980	-13.789402
1216.108095	-13.794673
1216.601609	-13.815446
1217.095524	-13.793551
1217.589841	-13.756525
1218.084559	-13.724368
1218.579679	-13.735576
1219.075202	-13.741199
1219.571128	-13.720504
1220.067458	-13.680357
1220.564191	-13.652626
1221.061330	-13.658666
1221.558874	-13.657912
1222.056823	-13.640907
1222.555178	-13.598450
1223.053940	-13.580200
1223.553109	-13.570026
1224.052686	-13.573322
1224.552671	-13.548237
1225.053065	-13.526415
1225.553867	-13.498412
1226.055079	-13.490857
1226.556702	-13.478416
1227.058735	-13.469267
1227.561179	-13.451050
1228.064035	-13.432077
1228.567303	-13.413103
1229.070983	-13.400648
1229.575077	-13.398597
1230.079585	-13.388896
1230.584506	-13.374163
1231.089842	-13.345555
1231.595594	-13.338990
1232.101761	-13.334414
1232.608345	-13.339073
1233.115345	-13.311819
1233.622762	-13.289413
1234.130597	-13.272725
1234.638851	-13.280543
1235.147523	-13.275681
1235.656615	-13.248305
1236.166126	-13.220875
1236.676058	-13.206388
1237.186411	-13.215534
1237.697185	-13.198517
1238.208381	-13.174291
1238.719999	-13.139930
1239.232040	-13.137579
1239.744505	-13.131304
1240.257394	-13.117153
1240.770708	-13.083549
1241.284446	-13.059623
1241.798610	-13.054459
1242.313201	-13.042416
1242.828218	-13.023751
1243.343662	-12.987097
1243.859534	-12.975443
1244.375834	-12.959850
1244.892563	-12.949800
1245.409721	-12.916443
1245.927309	-12.892848
1246.445327	-12.878446
1246.963777	-12.863955
1247.482657	-12.845269
1248.001970	-12.808961
1248.521716	-12.794572
1249.041894	-12.776831
1249.562506	-12.766978
1250.083553	-12.734653
1250.605034	-12.708057
1251.126950	-12.692012
1251.649302	-12.680875
1252.172091	-12.666581
1252.695316	-12.630679
1253.218979	-12.610203
1253.743079	-12.592089
1254.267619	-12.589645
1254.792597	-12.565582
1255.318015	-12.534893
1255.843874	-12.511675
1256.370173	-12.498559
1256.896913	-12.496773
1257.424095	-12.467640
1257.951720	-12.441934
1258.479787	-12.413239
1259.008298	-12.410586
1259.537254	-12.402246
1260.066654	-12.376779
1260.596499	-12.348934
1261.126790	-12.323598
1261.657527	-12.327635
1262.188711	-12.315035
1262.720342	-12.295556
1263.252422	-12.263529
1263.784950	-12.249663
1264.317928	-12.254479
1264.851355	-12.243344
1265.385232	-12.225884
1265.919560	-12.195021
1266.454340	-12.193219
1266.989572	-12.195790
1267.525256	-12.188566
1268.061394	-12.170246
1268.597985	-12.145054
1269.135031	-12.150503
1269.672531	-12.151027
1270.210487	-12.147590
1270.748899	-12.126478
1271.287768	-12.110022
1271.827094	-12.117676
1272.366877	-12.116174
1272.907119	-12.115119
1273.447820	-12.092995
1273.988981	-12.084654
1274.530601	-12.089890
1275.072683	-12.090641
1275.615226	-12.088975
1276.158230	-12.066947
1276.701697	-12.065334
1277.245627	-12.067999
1277.790021	-12.071341
1278.334879	-12.067725
1278.880202	-12.048128
1279.425991	-12.050317
1279.972245	-12.051744
1280.518966	-12.057214
1281.066155	-12.049923
1281.613811	-12.034325
1282.161936	-12.039445
1282.710529	-12.039239
1283.259593	-12.045193
1283.809126	-12.035442
1284.359131	-12.024216
1284.909607	-12.029603
1285.460555	-12.029049
1286.011976	-12.034270
1286.563870	-12.022755
1287.116237	-12.015211
1287.669080	-12.021038
1288.222397	-12.019412
1288.776191	-12.023418
1289.330460	-12.011236
1289.885207	-12.007054
1290.440431	-12.011799
1290.996133	-12.009601
1291.552314	-12.012121
1292.108975	-11.999540
1292.666115	-11.996503
1293.223737	-12.001055
1293.781839	-11.996286
1294.340424	-11.997123
1294.899491	-11.983161
1295.459041	-11.980435
1296.019075	-11.983538
1296.579593	-11.975162
1297.140597	-11.973379
1297.702086	-11.957446
1298.264061	-11.954189
1298.826524	-11.954343
1299.389474	-11.942038
1299.952912	-11.937245
1300.516839	-11.919700
1301.081255	-11.914715
1301.646162	-11.913210
1302.211559	-11.896576
1302.777448	-11.889952
1303.343829	-11.872354
1303.910702	-11.865871
1304.478069	-11.863287
1305.045930	-11.844523
1305.614285	-11.836631
1306.183136	-11.820640
1306.752483	-11.813265
1307.322326	-11.811076
1307.892666	-11.791301
1308.463504	-11.782179
1309.034841	-11.770421
1309.606677	-11.761216
1310.179012	-11.759994
1310.751849	-11.739958
1311.325186	-11.728924
1311.899025	-11.721551
1312.473366	-11.709671
1313.048211	-11.708346
1313.623559	-11.688307
1314.199412	-11.674393
1314.775770	-11.670615
1315.352634	-11.656585
1315.930004	-11.652443
1316.507881	-11.634367
1317.086266	-11.617062
1317.665159	-11.615746
1318.244562	-11.601939
1318.824474	-11.593229
1319.404897	-11.579411
1319.985831	-11.560584
1320.567276	-11.560653
1321.149234	-11.551023
1321.731706	-11.537894
1322.314691	-11.530176
1322.898190	-11.513825
1323.482205	-11.514485
1324.066736	-11.511992
1324.651783	-11.496830
1325.237347	-11.493746
1325.823430	-11.485073
1326.410031	-11.484362
1326.997151	-11.489287
1327.584791	-11.475801
1328.172952	-11.472971
1328.761634	-11.474615
1329.350839	-11.472421
1329.940566	-11.479413
1330.530817	-11.471198
1331.121592	-11.465142
1331.712891	-11.474607
1332.304716	-11.473178
1332.897068	-11.476264
1333.489946	-11.475069
1334.083352	-11.466577
1334.677287	-11.477931
1335.271750	-11.482776
1335.866744	-11.478681
1336.462268	-11.482472
1337.058323	-11.478621
1337.654910	-11.486231
1338.252029	-11.499478
1338.849682	-11.493495
1339.447869	-11.496633
1340.046591	-11.504156
1340.645848	-11.508652
1341.245641	-11.524506
1341.845972	-11.525406
1342.446840	-11.523087
1343.048246	-11.540647
1343.650191	-11.549638
1344.252677	-11.559169
1344.855702	-11.570031
1345.459269	-11.567725
1346.063379	-11.584618
1346.668030	-11.604499
1347.273226	-11.607662
1347.878965	-11.619146
1348.485250	-11.627506
1349.092080	-11.637787
1349.699456	-11.662976
1350.307380	-11.669707
1350.915851	-11.672072
1351.524871	-11.691289
1352.134441	-11.703398
1352.744560	-11.719665
1353.355231	-11.735242
1353.966453	-11.733366
1354.578227	-11.749022
1355.190555	-11.772292
1355.803436	-11.778190
1356.416872	-11.789837
1357.030863	-11.797729
1357.645411	-11.803246
1358.260515	-11.828047
1358.876177	-11.838603
1359.492397	-11.835318
1360.109176	-11.850219
1360.726516	-11.861976
1361.344416	-11.872373
1361.962877	-11.889678
1362.581901	-11.887338
1363.201487	-11.891499
1363.821637	-11.916533
1364.442352	-11.924142
1365.063632	-11.928452
1365.685478	-11.939654
1366.307891	-11.941624
1366.930871	-11.958956
1367.554420	-11.978891
1368.178538	-11.973804
1368.803226	-11.979663
1369.428485	-11.998680
1370.054315	-12.006049
1370.680717	-12.018961
1371.307693	-12.026309
1371.935242	-12.022781
1372.563366	-12.040778
1373.192065	-12.059740
1373.821341	-12.057571
1374.451193	-12.062026
1375.081623	-12.072049
1375.712632	-12.078638
1376.344221	-12.094124
1376.976389	-12.098391
1377.609139	-12.091083
1378.242470	-12.103024
1378.876384	-12.117027
1379.510881	-12.117311
1380.145963	-12.119647
1380.781629	-12.119434
1381.417881	-12.122175
1382.054720	-12.136572
1382.692147	-12.137968
1383.330161	-12.128682
1383.968765	-12.134305
1384.607959	-12.142215
1385.247743	-12.144201
1385.888119	-12.147137
1386.529087	-12.142108
1387.170648	-12.140576
1387.812804	-12.154515
1388.455554	-12.158220
1389.098899	-12.148440
1389.742842	-12.151913
1390.387381	-12.159339
1391.032519	-12.161001
1391.678256	-12.168539
1392.324592	-12.167774
1392.971529	-12.162591
1393.619068	-12.178336
1394.267208	-12.189476
1394.915952	-12.180374
1395.565300	-12.185255
1396.215253	-12.197322
1396.865812	-12.196814
1397.516977	-12.206573
1398.168749	-12.214978
1398.821130	-12.206200
1399.474120	-12.217480
1400.127719	-12.240303
1400.781930	-12.232494
1401.436752	-12.229583
1402.092186	-12.253303
1402.748234	-12.256382
1403.404897	-12.253689
1404.062174	-12.274340
1404.720067	-12.275590
1405.378577	-12.266630
1406.037705	-12.292501
1406.697451	-12.303530
1407.357817	-12.280981
1408.018803	-12.294353
1408.680410	-12.320766
1409.342639	-12.305628
1410.005492	-12.304510
1410.668968	-12.331289
1411.333068	-12.323958
1411.997795	-12.317674
1412.663147	-12.346975
1413.329127	-12.345592
1413.995736	-12.325396
1414.662973	-12.352785
1415.330840	-12.372013
1415.999339	-12.348007
1416.668469	-12.356561
1417.338232	-12.385907
1418.008628	-12.374575
1418.679659	-12.370283
1419.351325	-12.395288
1420.023628	-12.392218
1420.696568	-12.383621
1421.370145	-12.408502
1422.044362	-12.417854
1422.719219	-12.405953
1423.394717	-12.422254
1424.070856	-12.444585
1424.747638	-12.441452
1425.425064	-12.444335
1426.103134	-12.461058
1426.781850	-12.469981
1427.461212	-12.476639
1428.141221	-12.487010
1428.821878	-12.496997
1429.503185	-12.512334
1430.185141	-12.526070
1430.867749	-12.533136
1431.551008	-12.547147
1432.234920	-12.560404
1432.919486	-12.561470
1433.604707	-12.572386
1434.290583	-12.590914
1434.977116	-12.589342
1435.664307	-12.594377
1436.352156	-12.625744
1437.040664	-12.638189
1437.729833	-12.631583
1438.419663	-12.656165
1439.110156	-12.683218
1439.801312	-12.671872
1440.493132	-12.671491
1441.185617	-12.698215
1441.878768	-12.697830
1442.572586	-12.686246
1443.267072	-12.710364
1443.962228	-12.731286
1444.658053	-12.725952
1445.354549	-12.744065
1446.051717	-12.778006
1446.749558	-12.777533
1447.448073	-12.772918
1448.147263	-12.795100
1448.847128	-12.797919
1449.547671	-12.775522
1450.248891	-12.777795
1450.950789	-12.792067
1451.653368	-12.784149
1452.356627	-12.785610
1453.060568	-12.812419
1453.765192	-12.827955
1454.470500	-12.834224
1455.176492	-12.855556
1455.883170	-12.867454
1456.590534	-12.856554
1457.298586	-12.851470
1458.007327	-12.846010
1458.716758	-12.818124
1459.426880	-12.796292
1460.137693	-12.796933
1460.849199	-12.790906
1461.561398	-12.785203
1462.274293	-12.810263
1462.987883	-12.842878
1463.702170	-12.858820
1464.417155	-12.884185
1465.132838	-12.917317
1465.849222	-12.920384
1466.566306	-12.905011
1467.284093	-12.898385
1468.002582	-12.874788
1468.721775	-12.826404
1469.441674	-12.796475
1470.162278	-12.787458
1470.883590	-12.768453
1471.605609	-12.762902
1472.328338	-12.802425
1473.051777	-12.852414
1473.775928	-12.889995
1474.500790	-12.950045
1475.226367	-13.028542
1475.952657	-13.073651
1476.679663	-13.091445
1477.407386	-13.117092
1478.135826	-13.122801
1478.864985	-13.084089
1479.594863	-13.045410
1480.325463	-13.029181
1481.056784	-13.005195
1481.788828	-12.986067
1482.521597	-13.017541
1483.255090	-13.089243
1483.989309	-13.171416
1484.724256	-13.288460
1485.459931	-13.455903
1486.196336	-13.626718
1486.933471	-13.774410
1487.671337	-13.920759
1488.409937	-14.039707
1489.149270	-14.072449
1489.889337	-14.030444
1490.630141	-13.945923
1491.371682	-13.792120
1492.113961	-13.567675
1492.856979	-13.335532
1493.600738	-13.120588
1494.345238	-12.902879
1495.090481	-12.706018
1495.836467	-12.575712
1496.583198	-12.502851
1497.330675	-12.462695
1498.078899	-12.477240
1498.827872	-12.566014
1499.577593	-12.695280
1500.328065	-12.837747
1501.079289	-13.010708
1501.831265	-13.205346
1502.583995	-13.368973
1503.337480	-13.484292
1504.091721	-13.571269
1504.846719	-13.611809
1505.602475	-13.580453
1506.358991	-13.510833
1507.116268	-13.444291
1507.874306	-13.379253
1508.633108	-13.328509
1509.392673	-13.342130
1510.153004	-13.447056
1510.914101	-13.637910
1511.675965	-13.936178
1512.438599	-14.391262
1513.202002	-15.026641
1513.966176	-15.851597
1514.731122	-16.926937
1515.496842	-18.359805
1516.263336	-20.238961
1517.030607	-22.633721
1517.798654	-25.418390
1518.567479	-26.760342
1519.337083	-24.488326
1520.107468	-21.354793
1520.878634	-18.731352
1521.650584	-16.606239
1522.423317	-14.882831
1523.196836	-13.485419
1523.971141	-12.326316
1524.746233	-11.338228
1525.522115	-10.499816
1526.298786	-9.796602
1527.076249	-9.197605
1527.854504	-8.675918
1528.633553	-8.228679
1529.413397	-7.854399
1530.194037	-7.535559
1530.975474	-7.256514
1531.757709	-7.020757
1532.540745	-6.831283
1533.324581	-6.675674
1534.109220	-6.544654
1534.894662	-6.445253
1535.680909	-6.383312
1536.467961	-6.350709
1537.255821	-6.341450
1538.044489	-6.365401
1538.833967	-6.431105
1539.624256	-6.532838
1540.415357	-6.666272
1541.207271	-6.843106
1542.000000	-7.074795
1542.793545	-7.357266
1543.587907	-7.686809
1544.383087	-8.077853
1545.179088	-8.546863
1545.975909	-9.092077
1546.773552	-9.710956
1547.572019	-10.425462
1548.371311	-11.264464
1549.171428	-12.233511
1549.972373	-13.338271
1550.774147	-14.628275
1551.576751	-16.172773
1552.380185	-18.001758
1553.184453	-20.129306
1553.989554	-22.560579
1554.795490	-24.782245
1555.602263	-25.116414
1556.409873	-23.425878
1557.218322	-21.292069
1558.027612	-19.338931
1558.837743	-17.714355
1559.648717	-16.428198
1560.460536	-15.387062
1561.273200	-14.510354
1562.086710	-13.794514
1562.901069	-13.239034
1563.716278	-12.797127
1564.532337	-12.435041
1565.349249	-12.168588
1566.167014	-12.003659
1566.985634	-11.905610
1567.805111	-11.856296
1568.625444	-11.878205
1569.446637	-11.973625
1570.268690	-12.107866
1571.091605	-12.271495
1571.915382	-12.489912
1572.740024	-12.755746
1573.565532	-13.029064
1574.391907	-13.308891
1575.219150	-13.619404
1576.047262	-13.936392
1576.876246	-14.217060
1577.706103	-14.474397
1578.536833	-14.727399
1579.368439	-14.935882
1580.200922	-15.072352
1581.034282	-15.172868
1581.868522	-15.248216
1582.703643	-15.259333
1583.539646	-15.213054
1584.376532	-15.157740
1585.214304	-15.089764
1586.052962	-14.980792
1586.892508	-14.858296
1587.732943	-14.758154
1588.574269	-14.659392
1589.416487	-14.542627
1590.259599	-14.438685
1591.103605	-14.364373
1591.948508	-14.289488
1592.794309	-14.202844
1593.641009	-14.133082
1594.488609	-14.082619
1595.337112	-14.019965
1596.186518	-13.943648
1597.036829	-13.880498
1597.888047	-13.825565
1598.740172	-13.752964
1599.593207	-13.671614
1600.447153	-13.606193
1601.302010	-13.546574
1602.157782	-13.473310
1603.014469	-13.402632
1603.872072	-13.354202
1604.730593	-13.313089
1605.590034	-13.266367
1606.450397	-13.234277
1607.311681	-13.229246
1608.173890	-13.231639
1609.037024	-13.234450
1609.901085	-13.259320
1610.766075	-13.309926
1611.631995	-13.363977
1612.498846	-13.420983
1613.366630	-13.502471
1614.235349	-13.603281
1615.105004	-13.700068
1615.975596	-13.798405
1616.847128	-13.917299
1617.719600	-14.043222
1618.593014	-14.154145
1619.467372	-14.262696
1620.342675	-14.384909
1621.218924	-14.501435
1622.096122	-14.595310
1622.974270	-14.686964
1623.853369	-14.789211
1624.733420	-14.879314
1625.614427	-14.949252
1626.496389	-15.026304
1627.379308	-15.117971
1628.263187	-15.199014
1629.148026	-15.269984
1630.033828	-15.359853
1630.920593	-15.465610
1631.808324	-15.560403
1632.697022	-15.653522
1633.586688	-15.771038
1634.477324	-15.898043
1635.368932	-16.009254
1636.261514	-16.121448
1637.155070	-16.252219
1638.049602	-16.375434
1638.945113	-16.472771
1639.841603	-16.568853
1640.739075	-16.672483
1641.637529	-16.754248
1642.536968	-16.810402
1643.437393	-16.871497
1644.338806	-16.935298
1645.241209	-16.973412
1646.144602	-16.997203
1647.048988	-17.034913
1647.954368	-17.071276
1648.860744	-17.084465
1649.768118	-17.097714
1650.676491	-17.127889
1651.585865	-17.147971
1652.496241	-17.146735
1653.407621	-17.151898
1654.320008	-17.164802
1655.233401	-17.155149
1656.147804	-17.127132
1657.063218	-17.108496
1657.979645	-17.087907
1658.897085	-17.041720
1659.815542	-16.988333
1660.735016	-16.947491
1661.655509	-16.898398
1662.577023	-16.829683
1663.499560	-16.766459
1664.423121	-16.715439
1665.347709	-16.652402
1666.273324	-16.578815
1667.199969	-16.517566
1668.127645	-16.460645
1669.056353	-16.387219
1669.986097	-16.309544
1670.916877	-16.242568
1671.848695	-16.170235
1672.781553	-16.083189
1673.715452	-16.000658
1674.650395	-15.927195
1675.586383	-15.845031
1676.523418	-15.756728
1677.461501	-15.679514
1678.400635	-15.606579
1679.340821	-15.524423
1680.282061	-15.443254
1681.224357	-15.372003
1682.167710	-15.297715
1683.112122	-15.215607
1684.057595	-15.139077
1685.004132	-15.068473
1685.951732	-14.991774
1686.900400	-14.913142
1687.850135	-14.843158
1688.800940	-14.775098
1689.752818	-14.701800
1690.705768	-14.631939
1691.659795	-14.569176
1692.614898	-14.503642
1693.571081	-14.435062
1694.528345	-14.372614
1695.486691	-14.313497
1696.446122	-14.249957
1697.406640	-14.187553
1698.368245	-14.132272
1699.330941	-14.077084
1700.294729	-14.019066
1701.259611	-13.966305
1702.225588	-13.918362
1703.192664	-13.867020
1704.160838	-13.815323
1705.130114	-13.769804
1706.100493	-13.725055
1707.071977	-13.677382
1708.044568	-13.633710
1709.018268	-13.594804
1709.993079	-13.554017
1710.969003	-13.513183
1711.946041	-13.477175
1712.924196	-13.441772
1713.903469	-13.404177
1714.883862	-13.369475
1715.865378	-13.338281
1716.848017	-13.305915
1717.831783	-13.273695
1718.816677	-13.244962
1719.802701	-13.216613
1720.789857	-13.186736
1721.778147	-13.159239
1722.767573	-13.134480
1723.758136	-13.108557
1724.749840	-13.082767
1725.742685	-13.059776
1726.736673	-13.036722
1727.731808	-13.012283
1728.728090	-12.989922
1729.725521	-12.969370
1730.724105	-12.947761
1731.723842	-12.926959
1732.724735	-12.908685
1733.726785	-12.889904
1734.729995	-12.870213
1735.734366	-12.852444
1736.739902	-12.835775
1737.746603	-12.818212
1738.754472	-12.801904
1739.763510	-12.787432
1740.773721	-12.771983
1741.785105	-12.755969
1742.797665	-12.741717
1743.811403	-12.727904
1744.826321	-12.713563
1745.842422	-12.700963
1746.859706	-12.689819
1747.878177	-12.677864
1748.897835	-12.666128
1749.918685	-12.656003
1750.940726	-12.645656
1751.963963	-12.634986
1752.988395	-12.626104
1754.014027	-12.618104
1755.040860	-12.609544
1756.068895	-12.602147
1757.098135	-12.596323
1758.128583	-12.590274
1759.160240	-12.584610
1760.193109	-12.580173
1761.227191	-12.575481
1762.262488	-12.570219
1763.299004	-12.566179
1764.336740	-12.562849
1765.375697	-12.559339
1766.415880	-12.556952
1767.457288	-12.555563
1768.499926	-12.553713
1769.543794	-12.552032
1770.588895	-12.551077
1771.635231	-12.549386
1772.682805	-12.547376
1773.731619	-12.546606
1774.781674	-12.546229
1775.832973	-12.545707
1776.885519	-12.546393
1777.939312	-12.547425
1778.994357	-12.547417
1780.050654	-12.547752
1781.108207	-12.548751
1782.167017	-12.548702
1783.227087	-12.548526
1784.288418	-12.549707
1785.351013	-12.550680
1786.414875	-12.551450
1787.480006	-12.553615
1788.546407	-12.556004
1789.614082	-12.557366
1790.683032	-12.559299
1791.753259	-12.561786
1792.824767	-12.563314
1793.897557	-12.565546
1794.971632	-12.569429
1796.046994	-12.573366
1797.123645	-12.577961
1798.201588	-12.584061
1799.280824	-12.589588
1800.361357	-12.593994
1801.443188	-12.599075
1802.526320	-12.604208
1803.610756	-12.609145
1804.696497	-12.615409
1805.783546	-12.622433
1806.871906	-12.628838
1807.961578	-12.635441
1809.052565	-12.642267
1810.144870	-12.648303
1811.238494	-12.654535
1812.333441	-12.661461
1813.429713	-12.668160
1814.527311	-12.675196
1815.626239	-12.683006
1816.726499	-12.690903
1817.828094	-12.699157
1818.931025	-12.707985
1820.035295	-12.716468
1821.140906	-12.724958
1822.247862	-12.734127
1823.356165	-12.743374
1824.465816	-12.753533
1825.576819	-12.765081
1826.689175	-12.776776
1827.802888	-12.788545
1828.917960	-12.800678
1830.034394	-12.812350
1831.152191	-12.824109
1832.271354	-12.837029
1833.391887	-12.850275
1834.513790	-12.863696
1835.637068	-12.878065
1836.761722	-12.892289
1837.887755	-12.906164
1839.015169	-12.920821
1840.143968	-12.935456
1841.274153	-12.949731
1842.405727	-12.965045
1843.538693	-12.981046
1844.673053	-12.997157
1845.808810	-13.014188
1846.945966	-13.031046
1848.084525	-13.046828
1849.224488	-13.063237
1850.365858	-13.080171
1851.508638	-13.096872
1852.652831	-13.114214
1853.798438	-13.131672
1854.945463	-13.148518
1856.093909	-13.165396
1857.243777	-13.182206
1858.395071	-13.198726
1859.547794	-13.215652
1860.701947	-13.233521
1861.857533	-13.251990
1863.014556	-13.270961
1864.173018	-13.290805
1865.332922	-13.310816
1866.494270	-13.330751
1867.657065	-13.350809
1868.821309	-13.370926
1869.987006	-13.392182
1871.154158	-13.414460
1872.322768	-13.437035
1873.492839	-13.460545
1874.664373	-13.484002
1875.837373	-13.507221
1877.011841	-13.531193
1878.187782	-13.555244
1879.365197	-13.580524
1880.544089	-13.607222
1881.724460	-13.633917
1882.906315	-13.661169
1884.089655	-13.688123
1885.274483	-13.714147
1886.460803	-13.740450
1887.648616	-13.766396
1888.837927	-13.793217
1890.028736	-13.821790
1891.221049	-13.850214
1892.414866	-13.878356
1893.610192	-13.905797
1894.807028	-13.932053
1896.005379	-13.958800
1897.205246	-13.986188
1898.406633	-14.013891
1899.609542	-14.042010
1900.813977	-14.069353
1902.019940	-14.095202
1903.227434	-14.119872
1904.436462	-14.144100
1905.647028	-14.168781
1906.859133	-14.193927
1908.072781	-14.219180
1909.287976	-14.244083
1910.504719	-14.268413
1911.723013	-14.292160
1912.942863	-14.315253
1914.164270	-14.338652
1915.387238	-14.363018
1916.611770	-14.388318
1917.837868	-14.414703
1919.065536	-14.440814
1920.294777	-14.465865
1921.525594	-14.490015
1922.757989	-14.513458
1923.991967	-14.537366
1925.227529	-14.562701
1926.464679	-14.588666
1927.703420	-14.614292
1928.943755	-14.638550
1930.185688	-14.661149
1931.429221	-14.683505
1932.674356	-14.706453
1933.921099	-14.730009
1935.169451	-14.754166
1936.419415	-14.777456
1937.670996	-14.799156
1938.924195	-14.819630
1940.179017	-14.839164
1941.435463	-14.857966
1942.693538	-14.876252
1943.953245	-14.894418
1945.214586	-14.912531
1946.477566	-14.928950
1947.742186	-14.942545
1949.008451	-14.953583
1950.276363	-14.963157
1951.545926	-14.972878
1952.817143	-14.982075
1954.090017	-14.989575
1955.364551	-14.995470
1956.640749	-14.999526
1957.918615	-15.002457
1959.198150	-15.005215
1960.479359	-15.007318
1961.762244	-15.009009
1963.046810	-15.010387
1964.333059	-15.010875
1965.620995	-15.010541
1966.910621	-15.008573
1968.201940	-15.004911
1969.494956	-15.001026
1970.789672	-14.997463
1972.086091	-14.994551
1973.384217	-14.991348
1974.684053	-14.986707
1975.985602	-14.981155
1977.288869	-14.975634
1978.593855	-14.970744
1979.900566	-14.966517
1981.209003	-14.961819
1982.519171	-14.956420
1983.831073	-14.950991
1985.144712	-14.945145
1986.460093	-14.938593
1987.777217	-14.931309
1989.096089	-14.923425
1990.416713	-14.915678
1991.739092	-14.907149
1993.063228	-14.896292
1994.389127	-14.883100
1995.716791	-14.868103
1997.046223	-14.852882
1998.377428	-14.837707
1999.710409	-14.820989
2001.045169	-14.802218
2002.381713	-14.781694
2003.720043	-14.759689
2005.060163	-14.736779
2006.402077	-14.712738
2007.745788	-14.687488
2009.091301	-14.661048
2010.438618	-14.633173
2011.787743	-14.603729
2013.138680	-14.573368
2014.491433	-14.543022
2015.846005	-14.513722
2017.202399	-14.484419
2018.560621	-14.453981
2019.920673	-14.422179
2021.282558	-14.390510
2022.646281	-14.359823
2024.011846	-14.329927
2025.379256	-14.300027
2026.748515	-14.269183
2028.119626	-14.237807
2029.492594	-14.207313
2030.867422	-14.177620
2032.244114	-14.148234
2033.622673	-14.119393
2035.003104	-14.091157
2036.385411	-14.063287
2037.769597	-14.035604
2039.155665	-14.008917
2040.543621	-13.984137
2041.933467	-13.960300
2043.325208	-13.935906
2044.718847	-13.910378
2046.114389	-13.885175
2047.511837	-13.861242
2048.911195	-13.837667
2050.312467	-13.813324
2051.715657	-13.787959
2053.120769	-13.762254
2054.527807	-13.736067
2055.936775	-13.708941
2057.347677	-13.681569
2058.760516	-13.654481
2060.175297	-13.627209
2061.592025	-13.599009
2063.010701	-13.569967
2064.431332	-13.540525
2065.853921	-13.511451
2067.278472	-13.482468
2068.704988	-13.452748
2070.133475	-13.422051
2071.563936	-13.390775
2072.996375	-13.359239
2074.430796	-13.327224
2075.867204	-13.294602
2077.305603	-13.261644
2078.745996	-13.227865
2080.188389	-13.192912
2081.632784	-13.157726
2083.079187	-13.123380
2084.527601	-13.089922
2085.978030	-13.055632
2087.430480	-13.019880
2088.884954	-12.984215
2090.341455	-12.951039
2091.799990	-12.921229
2093.260561	-12.894717
2094.723173	-12.872183
2096.187831	-12.854509
2097.654538	-12.841956
2099.123300	-12.834378
2100.594119	-12.831908
2102.067001	-12.834039
2103.541950	-12.839465
2105.018971	-12.846763
2106.498067	-12.856186
2107.979243	-12.867486
2109.462503	-12.877959
2110.947853	-12.884785
2112.435295	-12.888081
2113.924836	-12.888867
2115.416478	-12.886339
2116.910227	-12.879527
2118.406087	-12.868369
2119.904063	-12.852691
2121.404158	-12.832723
2122.906378	-12.809304
2124.410727	-12.783707
2125.917210	-12.756349
2127.425831	-12.726893
2128.936594	-12.696273
2130.449505	-12.666207
2131.964567	-12.637761
2133.481786	-12.610396
2135.001166	-12.583974
2136.522711	-12.559914
2138.046427	-12.539243
2139.572317	-12.521852
2141.100388	-12.507548
2142.630642	-12.496851
2144.163085	-12.489956
2145.697722	-12.487037
2147.234558	-12.488226
2148.773596	-12.493726
2150.314842	-12.502643
2151.858301	-12.513170
2153.403977	-12.525428
2154.951875	-12.540250
2156.502000	-12.556432
2158.054357	-12.571752
2159.608950	-12.585334
2161.165785	-12.597327
2162.724866	-12.607478
2164.286198	-12.613741
2165.849786	-12.615111
2167.415635	-12.612527
2168.983749	-12.606846
2170.554134	-12.599387
2172.126795	-12.591238
2173.701737	-12.581896
2175.278964	-12.572145
2176.858481	-12.564796
2178.440294	-12.561654
2180.024408	-12.561236
2181.610827	-12.563321
2183.199557	-12.569793
2184.790602	-12.580698
2186.383968	-12.594866
2187.979660	-12.611085
2189.577683	-12.628765
2191.178041	-12.647081
2192.780741	-12.666135
2194.385787	-12.686543
2195.993185	-12.707032
2197.602939	-12.726366
2199.215054	-12.745535
2200.829537	-12.765756
2202.446392	-12.786764
2204.065624	-12.807795
2205.687239	-12.829636
2207.311242	-12.852825
2208.937638	-12.877460
2210.566433	-12.903322
2212.197631	-12.928720
2213.831239	-12.953312
2215.467261	-12.978027
2217.105703	-13.003681
2218.746570	-13.028875
2220.389867	-13.051885
2222.035601	-13.073990
2223.683776	-13.096903
2225.334398	-13.119873
2226.987472	-13.141615
2228.643004	-13.162587
2230.300999	-13.183856
2231.961463	-13.207103
2233.624402	-13.231900
2235.289820	-13.256545
2236.957723	-13.283552
2238.628118	-13.314758
2240.301009	-13.347781
2241.976402	-13.380904
2243.654303	-13.416581
2245.334717	-13.454797
2247.017650	-13.495295
2248.703108	-13.539113
2250.391096	-13.584498
2252.081620	-13.630246
2253.774686	-13.678921
2255.470300	-13.730048
2257.168467	-13.781377
2258.869193	-13.833867
2260.572484	-13.888707
2262.278345	-13.943798
2263.986783	-13.998521
2265.697804	-14.053311
2267.411412	-14.107973
2269.127615	-14.163797
2270.846417	-14.221206
2272.567826	-14.276563
2274.291846	-14.330647
2276.018484	-14.387040
2277.747745	-14.441806
2279.479637	-14.493026
2281.214164	-14.546322
2282.951333	-14.599723
2284.691149	-14.649667
2286.433619	-14.700517
2288.178750	-14.753743
2289.926546	-14.806738
2291.677014	-14.862096
2293.430161	-14.920295
2295.185992	-14.980055
2296.944513	-15.043061
2298.705732	-15.109964
2300.469653	-15.180770
2302.236283	-15.255414
2304.005629	-15.332680
2305.777696	-15.413390
2307.552492	-15.498947
2309.330022	-15.587187
2311.110292	-15.676985
2312.893310	-15.770324
2314.679080	-15.865038
2316.467611	-15.958612
2318.258907	-16.053849
2320.052976	-16.148877
2321.849824	-16.242794
2323.649457	-16.338121
2325.451883	-16.431890
2327.257106	-16.524073
2329.065135	-16.619543
2330.875975	-16.715199
2332.689633	-16.807997
2334.506116	-16.901602
2336.325430	-16.994979
2338.147581	-17.083905
2339.972578	-17.172505
2341.800425	-17.261575
2343.631130	-17.346761
2345.464700	-17.431490
2347.301141	-17.520239
2349.140461	-17.609286
2350.982665	-17.702682
2352.827760	-17.803288
2354.675754	-17.906122
2356.526653	-18.014615
2358.380464	-18.131165
2360.237195	-18.251337
2362.096851	-18.374826
2363.959440	-18.503478
2365.824968	-18.633730
2367.693444	-18.765972
2369.564873	-18.906134
2371.439263	-19.045645
2373.316620	-19.181229
2375.196953	-19.324218
2377.080267	-19.466743
2378.966570	-19.606053
2380.855869	-19.753608
2382.748171	-19.885061
2384.643484	-20.025048
2386.541815	-20.172778
2388.443170	-20.293464
2390.347557	-20.441653
2392.254984	-20.572669
2394.165457	-20.693316
2396.078984	-20.835627
2397.995572	-20.943655
2399.915229	-21.078280
2401.837961	-21.194234
2403.763777	-21.299984
2405.692684	-21.444013
2407.624689	-21.540488
2409.559800	-21.681006
2411.498023	-21.804021
2413.439368	-21.943035
2415.383840	-22.099904
2417.331449	-22.235462
2419.282201	-22.422307
2421.236104	-22.580162
2423.193165	-22.757896
2425.153393	-22.948093
2427.116795	-23.119871
2429.083378	-23.314507
2431.053151	-23.490650
2433.026121	-23.696105
2435.002297	-23.855813
2436.981685	-24.062156
2438.964293	-24.239777
2440.950131	-24.417610
2442.939204	-24.598912
2444.931522	-24.775778
2446.927092	-24.964636
2448.925923	-25.121085
2450.928022	-25.289658
2452.933397	-25.453002
2454.942056	-25.606223
2456.954008	-25.742125
2458.969260	-25.883276
2460.987821	-26.012185
2463.009699	-26.145923
2465.034902	-26.280960
2467.063437	-26.406879
2469.095315	-26.526918
2471.130542	-26.683068
2473.169127	-26.830704
2475.211078	-27.002306
2477.256404	-27.177328
2479.305112	-27.395219
2481.357212	-27.598951
2483.412713	-27.835242
2485.471621	-28.065106
2487.533946	-28.307640
2489.599696	-28.530681
2491.668880	-28.763836
2493.741507	-28.987671
2495.817585	-29.203983
2497.897122	-29.449505
2499.980127	-29.649756
2502.066609	-29.882586
2504.156578	-30.074367
2506.250040	-30.301807
2508.347006	-30.494335
2510.447483	-30.687870
2512.551482	-30.850327
2514.659010	-31.011943
2516.770076	-31.155776
2518.884690	-31.274223
2521.002861	-31.416246
2523.124597	-31.463542
2525.249907	-31.608078
2527.378801	-31.666629
2529.511287	-31.772714
2531.647375	-31.890166
2533.787074	-32.008660
2535.930393	-32.189359
2538.077340	-32.327079
2540.227927	-32.602678
2542.382160	-32.819991
2544.540051	-33.109649
2546.701608	-33.387275
2548.866840	-33.685604
2551.035757	-34.011288
2553.208369	-34.253890
2555.384684	-34.607190
2557.564713	-34.833549
2559.748465	-35.143759
2561.935948	-35.414041
2564.127174	-35.694052
2566.322152	-35.994523
2568.520890	-36.221404
2570.723399	-36.508515
2572.929689	-36.681388
2575.139769	-36.890479
2577.353649	-36.983777
2579.571340	-37.104882
2581.792849	-37.179968
2584.018189	-37.173756
2586.247368	-37.204050
2588.480396	-37.169147
2590.717284	-37.169521
2592.958041	-37.113944
2595.202678	-37.132207
2597.451204	-37.178645
2599.703630	-37.278792
2601.959966	-37.429075
2604.220222	-37.613347
2606.484408	-37.930996
2608.752535	-38.131640
2611.024612	-38.513688
2613.300651	-38.945197
2615.580661	-39.201218
2617.864653	-39.642121
2620.152638	-40.013664
2622.444625	-40.388600
2624.740626	-40.785489
2627.040651	-41.325046
2629.344710	-41.748409
2631.652814	-42.181903
2633.964974	-42.849755
2636.281200	-43.129295
2638.601504	-43.560106
2640.925896	-43.877497
2643.254386	-43.935772
2645.586987	-44.124948
2647.923707	-43.978345
2650.264559	-43.926190
2652.609554	-43.581307
2654.958702	-43.417521
2657.312015	-43.007291
2659.669503	-42.774784
2662.031178	-42.573770
2664.397051	-42.337676
2666.767132	-42.448054
2669.141434	-42.316419
2671.519968	-42.481073
2673.902745	-42.636085
2676.289776	-42.851320
2678.681072	-43.173078
2681.076646	-43.331186
2683.476508	-43.735035
2685.880671	-43.958998
2688.289145	-44.307372
2690.701942	-44.710153
2693.119075	-45.098357
2695.540554	-45.787589
2697.966391	-46.336254
2700.396599	-47.316338
2702.831189	-47.969272
2705.270172	-49.179677
2707.713561	-49.823284
2710.161368	-51.015749
2712.613605	-51.736772
2715.070283	-52.584034
2717.531416	-53.022768
2719.997014	-52.765340
2722.467090	-52.328425
2724.941657	-51.177688
2727.420726	-50.642641
2729.904310	-49.724382
2732.392421	-49.294954
2734.885072	-48.696441
2737.382275	-48.596265
2739.884042	-48.460380
2742.390387	-48.214039
2744.901321	-48.433804
2747.416857	-48.124979
2749.937008	-48.443231
2752.461787	-47.964969
2754.991206	-48.316466
2757.525279	-47.935667
2760.064017	-48.230906
2762.607434	-48.216204
2765.155544	-48.466721
2767.708358	-48.940515
2770.265890	-49.247704
2772.828153	-50.216469
2775.395160	-50.408671
2777.966924	-51.502892
2780.543459	-52.034490
2783.124778	-53.519234
2785.710894	-54.533523
2788.301821	-56.401586
2790.897572	-58.133013
2793.498160	-59.552791
2796.103599	-60.510311
2798.713903	-59.909233
2801.329085	-59.662708
2803.949159	-58.610467
2806.574139	-58.509411
2809.204038	-57.451197
2811.838871	-58.380787
2814.478650	-57.247990
2817.123391	-58.123084
2819.773107	-56.870271
2822.427812	-57.215386
2825.087521	-55.721871
2827.752247	-55.505046
2830.422005	-54.370710
2833.096808	-54.128398
2835.776672	-53.555713
2838.461611	-53.364495
2841.151638	-53.495684
2843.846769	-53.335277
2846.547019	-53.605418
2849.252401	-53.479288
2851.962930	-54.011656
2854.678621	-54.100168
2857.399489	-55.409112
2860.125549	-55.689320
2862.856815	-57.487925
2865.593302	-58.135993
2868.335026	-60.152021
2871.082002	-59.756713
2873.834244	-61.254583
2876.591767	-60.356211
2879.354588	-61.252879
2882.122721	-60.061887
2884.896181	-61.156165
2887.674984	-60.697498
2890.459146	-62.253647
2893.248681	-62.751746
2896.043606	-65.278900
2898.843937	-66.943370
2901.649687	-71.822279
2904.460875	-68.973615
2907.277515	-70.761761
2910.099623	-65.193519
2912.927215	-66.062742
2915.760308	-62.746061
2918.598916	-63.065015
2921.443057	-60.469332
2924.292747	-60.532353
2927.148002	-58.721894
2930.008837	-59.371577
2932.875270	-58.644648
2935.747318	-59.635051
2938.624995	-59.975128
2941.508320	-61.426366
2944.397308	-62.151414
2947.291977	-64.226357
2950.192343	-64.292065
2953.098423	-66.312687
2956.010234	-64.942149
2958.927792	-64.606555
2961.851116	-63.230240
2964.780221	-63.087105
2967.715126	-62.118083
2970.655847	-62.606151
2973.602402	-61.691853
2976.554808	-63.358957
2979.513083	-62.878464
2982.477243	-64.163205
2985.447308	-64.551985
2988.423293	-65.944640
2991.405218	-65.814066
2994.393099	-68.857882
2997.386955	-70.491457
