# 2022-03-22_10.49.06
# shape = sech2
# FWHM_ps = 0.11
# carrier_nm = 1542
# frep_MHz = 12126
# pow_mW = 8000
# GDD = 0.0
# propa_len = 0.13244444444444445
# untap_len = 0.01
# taper_len = 0.07244444444444445
# waist_len = 0.02
# uptap_len = 0.02
# untap_scale = 1.0
# waist_scale = 0.11578947368421054
# workingDir = NL_20110305_12 (Spirou)
# axis = slow
# window_ps = 10.0
# steps = 200
# points = 21700
# 
# wavelength [nm]	 power spectral density [dB]
600.043425	-84.780102
600.163550	-87.267967
600.283723	-93.327254
600.403943	-86.786735
600.524212	-85.353941
600.644529	-81.970685
600.764895	-79.712381
600.885308	-83.678012
601.005770	-86.079804
601.126280	-94.678106
601.246839	-84.809696
601.367446	-89.279911
601.488101	-95.464802
601.608804	-92.295862
601.729557	-89.779932
601.850357	-89.769281
601.971206	-87.678972
602.092104	-92.880048
602.213050	-85.556399
602.334045	-82.570329
602.455089	-86.914166
602.576181	-84.452340
602.697322	-93.818272
602.818511	-86.689065
602.939749	-88.925077
603.061036	-86.511066
603.182372	-89.148092
603.303757	-87.226678
603.425191	-83.971227
603.546673	-85.785177
603.668204	-81.733812
603.789785	-91.578896
603.911414	-90.561447
604.033092	-85.387412
604.154820	-84.788734
604.276596	-81.326538
604.398422	-82.008569
604.520297	-88.193716
604.642220	-88.871113
604.764193	-89.546824
604.886216	-84.409372
605.008287	-89.062254
605.130408	-95.274050
605.252578	-85.159230
605.374798	-83.420411
605.497066	-81.983863
605.619385	-92.032027
605.741752	-89.726651
605.864169	-96.573815
605.986636	-91.794788
606.109152	-84.528026
606.231718	-83.030434
606.354333	-93.240266
606.476998	-92.191884
606.599712	-85.712722
606.722476	-81.142339
606.845290	-87.587751
606.968154	-83.770475
607.091067	-80.877976
607.214030	-78.173692
607.337043	-76.546473
607.460106	-87.402422
607.583219	-87.245764
607.706381	-92.349711
607.829594	-83.800398
607.952856	-85.084646
608.076169	-87.834512
608.199531	-93.006711
608.322944	-88.879857
608.446407	-84.118570
608.569920	-84.594625
608.693483	-90.600434
608.817096	-106.376585
608.940759	-85.714506
609.064473	-80.842949
609.188237	-82.523714
609.312051	-88.387575
609.435916	-88.023788
609.559831	-83.107343
609.683796	-84.299603
609.807812	-87.985818
609.931878	-88.596127
610.055995	-88.735903
610.180162	-80.142416
610.304380	-80.046552
610.428648	-79.777421
610.552967	-77.885369
610.677337	-83.935799
610.801757	-83.649768
610.926228	-78.267858
611.050750	-78.017222
611.175323	-78.969659
611.299946	-97.687885
611.424620	-79.579060
611.549345	-80.550166
611.674121	-80.249237
611.798948	-85.078759
611.923826	-85.618006
612.048755	-87.008722
612.173734	-84.897752
612.298765	-81.748212
612.423847	-80.921344
612.548980	-80.549644
612.674165	-81.775330
612.799400	-83.275820
612.924687	-81.199911
613.050025	-78.266677
613.175414	-84.595760
613.300854	-83.291457
613.426346	-80.885277
613.551889	-74.522054
613.677484	-75.846700
613.803130	-84.141271
613.928827	-97.194086
614.054576	-83.702268
614.180377	-75.027721
614.306229	-76.398475
614.432132	-90.108050
614.558087	-95.237100
614.684094	-81.375295
614.810153	-80.418105
614.936263	-78.064201
615.062425	-79.269331
615.188639	-84.298793
615.314904	-81.412944
615.441222	-77.331216
615.567591	-78.790310
615.694012	-85.281192
615.820486	-80.938664
615.947011	-80.454407
616.073588	-83.292028
616.200217	-77.872427
616.326898	-77.511987
616.453632	-77.750828
616.580417	-80.258860
616.707255	-80.267316
616.834144	-79.625965
616.961086	-78.922739
617.088081	-75.918267
617.215127	-76.959535
617.342226	-79.221231
617.469378	-80.933452
617.596581	-82.029043
617.723837	-77.472830
617.851146	-74.333870
617.978507	-79.960159
618.105920	-77.915631
618.233386	-79.053529
618.360905	-79.005112
618.488476	-77.953580
618.616100	-76.861843
618.743777	-78.650781
618.871506	-81.850147
618.999288	-78.570413
619.127123	-74.738897
619.255011	-76.884824
619.382951	-80.274044
619.510945	-80.154923
619.638991	-82.276980
619.767090	-77.763575
619.895243	-73.192281
620.023448	-75.827717
620.151706	-85.997791
620.280017	-82.599487
620.408382	-75.666131
620.536799	-74.245471
620.665270	-74.216470
620.793794	-79.777472
620.922371	-83.897886
621.051002	-77.302422
621.179686	-72.176999
621.308423	-74.125069
621.437213	-80.989866
621.566057	-85.058600
621.694954	-77.355373
621.823905	-75.295010
621.952909	-73.272493
622.081967	-74.582125
622.211079	-79.382050
622.340244	-79.141002
622.469462	-77.887960
622.598735	-76.390893
622.728061	-73.495947
622.857441	-75.120963
622.986874	-77.501134
623.116361	-76.342821
623.245903	-76.036177
623.375498	-76.560377
623.505147	-76.895919
623.634850	-75.093850
623.764606	-72.527884
623.894417	-73.647304
624.024282	-82.978863
624.154201	-74.015544
624.284174	-74.481348
624.414202	-77.028923
624.544283	-74.545292
624.674419	-72.783294
624.804609	-78.977039
624.934853	-76.090602
625.065151	-75.713492
625.195504	-76.444965
625.325911	-72.806587
625.456373	-70.762131
625.586889	-75.009547
625.717460	-96.054050
625.848085	-81.589393
625.978764	-72.345115
626.109498	-71.227802
626.240287	-73.557870
626.371131	-74.156566
626.502029	-79.605801
626.632982	-79.324905
626.763989	-76.254840
626.895052	-72.482539
627.026169	-70.211453
627.157341	-73.755357
627.288568	-84.851253
627.419850	-77.355436
627.551187	-70.716759
627.682579	-71.203607
627.814026	-78.011974
627.945528	-77.903264
628.077085	-73.115588
628.208697	-72.077868
628.340364	-76.009172
628.472087	-74.559227
628.603865	-71.520696
628.735698	-72.493845
628.867586	-72.784864
628.999530	-75.252390
629.131529	-72.082755
629.263584	-70.446126
629.395694	-78.428135
629.527859	-81.666031
629.660080	-71.805238
629.792357	-68.641484
629.924689	-73.599551
630.057077	-73.651403
630.189520	-70.391478
630.322019	-73.278909
630.454574	-77.690015
630.587184	-73.461805
630.719851	-70.752933
630.852573	-74.262219
630.985351	-73.043350
631.118185	-74.228062
631.251075	-76.910784
631.384021	-75.304786
631.517023	-69.841809
631.650081	-69.743801
631.783195	-77.063489
631.916365	-78.007485
632.049592	-72.039416
632.182874	-70.722233
632.316213	-73.707093
632.449608	-73.026210
632.583059	-72.503834
632.716567	-74.954894
632.850131	-74.852865
632.983751	-71.862683
633.117428	-72.072156
633.251161	-69.875901
633.384951	-71.209328
633.518797	-77.122214
633.652700	-82.183251
633.786660	-69.459238
633.920676	-67.704421
634.054749	-74.977736
634.188879	-73.303793
634.323065	-71.010960
634.457308	-72.245220
634.591608	-73.805472
634.725965	-71.609823
634.860379	-71.472878
634.994850	-73.739809
635.129377	-72.007127
635.263962	-71.648594
635.398604	-74.847815
635.533303	-72.166052
635.668058	-69.266034
635.802872	-72.156343
635.937742	-77.879273
636.072669	-73.828488
636.207654	-70.866568
636.342696	-69.723124
636.477796	-71.313323
636.612953	-72.812353
636.748167	-72.756931
636.883439	-72.810486
637.018768	-73.488598
637.154155	-74.076462
637.289599	-71.959249
637.425101	-68.772386
637.560660	-69.257617
637.696277	-73.531749
637.831952	-75.718342
637.967685	-77.458380
638.103475	-72.509266
638.239324	-69.136596
638.375230	-70.477619
638.511194	-70.955047
638.647215	-72.177437
638.783295	-72.144150
638.919433	-71.633300
639.055629	-74.192653
639.191883	-73.827901
639.328195	-68.952740
639.464565	-68.381935
639.600994	-73.417102
639.737481	-78.237502
639.874025	-72.276579
640.010629	-69.567926
640.147290	-70.539799
640.284010	-71.371263
640.420789	-72.014257
640.557625	-73.947808
640.694521	-73.745010
640.831474	-70.292305
640.968487	-69.338899
641.105558	-71.084834
641.242687	-71.577087
641.379876	-70.413882
641.517123	-72.978403
641.654429	-76.922638
641.791793	-74.005273
641.929216	-69.085012
642.066699	-67.669905
642.204240	-69.283757
642.341840	-73.390182
642.479499	-75.723279
642.617217	-73.690567
642.754994	-70.534892
642.892830	-70.322263
643.030726	-72.405303
643.168680	-69.404710
643.306694	-69.972122
643.444767	-73.473979
643.582899	-72.269355
643.721091	-71.857937
643.859342	-73.219835
643.997652	-72.111499
644.136022	-68.583001
644.274451	-68.888626
644.412940	-72.028223
644.551488	-78.214402
644.690096	-71.056805
644.828763	-67.851613
644.967490	-69.994372
645.106277	-73.796333
645.245124	-70.140811
645.384030	-70.733849
645.522997	-74.242608
645.662023	-72.034133
645.801109	-69.500333
645.940255	-70.849299
646.079460	-70.876190
646.218726	-68.375060
646.358052	-69.285785
646.497438	-75.050110
646.636884	-74.399503
646.776391	-73.722043
646.915957	-72.145729
647.055584	-70.167173
647.195271	-68.462553
647.335019	-69.855060
647.474826	-73.161896
647.614695	-70.295949
647.754623	-69.489604
647.894612	-72.758998
648.034662	-72.733897
648.174772	-72.084437
648.314943	-70.595566
648.455174	-69.228968
648.595466	-70.345806
648.735819	-73.182121
648.876233	-73.690238
649.016707	-70.203020
649.157242	-71.043204
649.297838	-69.955103
649.438495	-69.121660
649.579213	-70.595988
649.719992	-73.042523
649.860832	-78.079078
650.001733	-70.860032
650.142695	-68.679517
650.283718	-71.897851
650.424803	-70.035695
650.565949	-69.642741
650.707156	-70.045406
650.848424	-69.740496
650.989754	-71.627228
651.131145	-75.832572
651.272597	-76.260297
651.414111	-70.817891
651.555687	-70.211656
651.697324	-68.310970
651.839022	-70.277529
651.980782	-70.751363
652.122604	-70.699453
652.264488	-75.746586
652.406433	-71.876008
652.548441	-69.940325
652.690510	-70.554363
652.832640	-71.968862
652.974833	-70.827761
653.117088	-72.710142
653.259405	-71.922932
653.401784	-68.468795
653.544224	-71.706145
653.686727	-75.774046
653.829293	-67.846471
653.971920	-70.467991
654.114609	-70.524164
654.257361	-69.699538
654.400175	-71.781711
654.543052	-74.191177
654.685991	-75.098447
654.828992	-73.993790
654.972056	-70.263446
655.115183	-68.812810
655.258372	-71.386618
655.401623	-68.804175
655.544937	-69.798628
655.688314	-76.297321
655.831754	-72.382254
655.975256	-69.840716
656.118822	-68.962775
656.262450	-76.003908
656.406141	-71.285317
656.549894	-67.815878
656.693711	-71.768419
656.837591	-72.598316
656.981534	-70.804775
657.125540	-70.535814
657.269610	-74.198597
657.413742	-72.292931
657.557938	-72.171924
657.702196	-70.522904
657.846519	-68.707858
657.990904	-74.915284
658.135353	-70.216474
658.279866	-71.165552
658.424441	-76.145739
658.569081	-78.182078
658.713784	-69.689740
658.858550	-68.007999
659.003381	-72.109314
659.148274	-72.480090
659.293232	-69.018078
659.438253	-68.907227
659.583339	-74.015356
659.728488	-73.589991
659.873701	-70.919263
660.018978	-71.712408
660.164318	-74.239977
660.309723	-76.976081
660.455192	-68.069527
660.600725	-69.561648
660.746323	-74.979641
660.891984	-68.864120
661.037710	-70.073805
661.183500	-72.782832
661.329354	-76.944705
661.475272	-73.072423
661.621255	-70.176677
661.767303	-70.404910
661.913415	-73.875037
662.059591	-71.820063
662.205833	-72.795951
662.352138	-73.233140
662.498509	-70.261046
662.644944	-75.059229
662.791443	-75.488285
662.938008	-68.826432
663.084638	-71.253827
663.231332	-76.566520
663.378091	-70.055775
663.524915	-68.524780
663.671804	-72.940077
663.818759	-74.519915
663.965778	-69.905362
664.112863	-70.917819
664.260012	-77.763941
664.407227	-78.451381
664.554507	-74.826906
664.701853	-70.977256
664.849264	-69.526651
664.996740	-78.604815
665.144282	-70.706467
665.291889	-71.002882
665.439561	-78.189276
665.587300	-70.739462
665.735103	-73.182246
665.882973	-75.755728
666.030908	-69.678931
666.178909	-72.687178
666.326976	-81.143636
666.475109	-70.987118
666.623307	-72.870994
666.771571	-73.469151
666.919902	-75.150767
667.068298	-78.276729
667.216761	-69.235752
667.365289	-71.185100
667.513884	-85.375736
667.662545	-73.597694
667.811272	-73.330319
667.960065	-71.650328
668.108925	-73.166080
668.257851	-74.526270
668.406843	-74.338418
668.555902	-75.422057
668.705027	-75.241237
668.854219	-77.306975
669.003478	-81.843802
669.152803	-73.340993
669.302195	-70.940145
669.451653	-76.825982
669.601179	-79.095274
669.750771	-77.522345
669.900430	-72.561377
670.050156	-71.787825
670.199949	-88.671471
670.349808	-71.040568
670.499735	-75.518629
670.649729	-75.439130
670.799790	-69.809217
670.949918	-78.219726
671.100114	-73.301447
671.250377	-69.903134
671.400707	-74.971145
671.551104	-85.740010
671.701569	-77.244568
671.852101	-80.442603
672.002700	-75.491603
672.153368	-78.670701
672.304102	-82.609825
672.454905	-75.450102
672.605775	-88.378731
672.756713	-74.255424
672.907718	-72.677812
673.058791	-83.298209
673.209933	-80.157572
673.361142	-77.627634
673.512419	-74.282290
673.663764	-77.765724
673.815177	-81.668713
673.966658	-75.352031
674.118207	-80.540913
674.269825	-79.996431
674.421510	-80.840721
674.573264	-90.573767
674.725086	-77.283308
674.876977	-76.576540
675.028936	-97.834229
675.180963	-76.056937
675.333059	-75.344457
675.485224	-78.889289
675.637457	-77.345704
675.789758	-78.403568
675.942129	-76.685041
676.094568	-81.193049
676.247075	-76.466745
676.399652	-73.307751
676.552298	-87.662774
676.705012	-75.694631
676.857795	-78.004400
677.010648	-83.026776
677.163569	-80.359977
677.316560	-81.325454
677.469619	-93.997490
677.622748	-78.942249
677.775946	-78.286849
677.929214	-85.716871
678.082551	-76.515556
678.235957	-75.178787
678.389432	-83.483353
678.542977	-81.315196
678.696592	-81.673267
678.850276	-87.857601
679.004030	-72.601364
679.157853	-70.480889
679.311746	-78.471900
679.465709	-75.783610
679.619742	-74.347726
679.773844	-95.647747
679.928017	-76.482769
680.082259	-78.264635
680.236571	-76.566283
680.390954	-78.463152
680.545406	-80.772749
680.699929	-71.666261
680.854522	-72.864584
681.009185	-86.501923
681.163918	-73.702389
681.318722	-81.419584
681.473596	-75.622568
681.628540	-71.487082
681.783555	-79.782863
681.938641	-75.148201
682.093797	-77.231147
682.249023	-72.504506
682.404321	-71.819451
682.559689	-74.710572
682.715128	-71.920756
682.870637	-73.240258
683.026218	-71.571040
683.181869	-83.437462
683.337591	-69.424188
683.493385	-68.470773
683.649249	-75.506436
683.805185	-73.226260
683.961191	-71.950323
684.117269	-72.189355
684.273418	-72.972900
684.429639	-69.998513
684.585930	-70.503704
684.742294	-71.436264
684.898728	-71.206380
685.055234	-68.354487
685.211812	-71.294784
685.368461	-69.633787
685.525182	-69.152349
685.681975	-69.477112
685.838839	-69.396005
685.995775	-74.875314
686.152783	-67.880822
686.309863	-67.507627
686.467014	-74.698219
686.624238	-69.019405
686.781534	-69.548424
686.938902	-70.035573
687.096342	-67.547912
687.253854	-67.963710
687.411438	-69.046405
687.569095	-66.711822
687.726824	-67.702453
687.884626	-69.438401
688.042499	-64.160949
688.200446	-68.962048
688.358465	-68.102197
688.516556	-63.056275
688.674720	-68.774070
688.832957	-70.652887
688.991266	-64.742377
689.149649	-65.478576
689.308104	-68.985709
689.466632	-66.932697
689.625233	-66.119127
689.783906	-65.694167
689.942653	-69.541712
690.101473	-64.081392
690.260367	-63.027763
690.419333	-70.447622
690.578372	-64.107293
690.737485	-65.001606
690.896672	-65.747535
691.055931	-65.569735
691.215264	-66.559844
691.374671	-64.795744
691.534151	-64.109346
691.693704	-66.263792
691.853332	-67.641970
692.013033	-62.226498
692.172807	-65.157311
692.332656	-66.499861
692.492578	-62.529116
692.652575	-65.689686
692.812645	-64.551643
692.972789	-65.441779
693.133007	-62.913866
693.293300	-63.518914
693.453666	-64.591100
693.614107	-64.918151
693.774622	-64.275543
693.935211	-62.677796
694.095875	-64.605181
694.256613	-64.326886
694.417426	-63.376817
694.578313	-62.787526
694.739274	-64.930119
694.900311	-65.079574
695.061421	-61.841467
695.222607	-63.021991
695.383868	-64.874968
695.545203	-62.785242
695.706613	-62.359404
695.868098	-63.004601
696.029658	-64.440615
696.191293	-63.042303
696.353003	-61.868009
696.514789	-62.674654
696.676649	-62.931136
696.838585	-63.023326
697.000596	-62.414130
697.162682	-61.440973
697.324844	-63.751389
697.487081	-61.850454
697.649394	-61.775338
697.811782	-61.809892
697.974246	-62.531070
698.136786	-62.415808
698.299401	-61.665234
698.462092	-60.444573
698.624859	-61.801553
698.787702	-63.563880
698.950621	-59.819164
699.113616	-61.689921
699.276686	-62.182510
699.439833	-61.019441
699.603056	-62.024414
699.766355	-59.953608
699.929731	-63.586156
700.093183	-60.657516
700.256711	-62.109820
700.420315	-61.800657
700.583996	-59.662938
700.747754	-63.056544
700.911588	-61.349834
701.075499	-59.918723
701.239486	-60.544553
701.403550	-61.441064
701.567691	-61.493703
701.731909	-59.161927
701.896203	-61.231883
702.060575	-60.057091
702.225024	-60.359859
702.389549	-60.618293
702.554152	-59.964150
702.718832	-59.390775
702.883589	-60.508768
703.048424	-60.665429
703.213335	-58.697606
703.378324	-60.260850
703.543391	-60.704185
703.708535	-60.015850
703.873757	-60.969353
704.039056	-58.988682
704.204433	-60.501563
704.369887	-60.470111
704.535420	-61.074590
704.701030	-60.018996
704.866718	-59.779698
705.032484	-60.737604
705.198328	-60.458786
705.364250	-59.742281
705.530250	-59.590907
705.696328	-60.618455
705.862485	-59.211483
706.028720	-59.389157
706.195033	-61.548563
706.361424	-57.430001
706.527894	-58.686028
706.694442	-61.822026
706.861069	-57.783302
707.027775	-58.870607
707.194559	-59.622658
707.361422	-58.487625
707.528363	-59.519528
707.695384	-58.823641
707.862483	-59.828008
708.029661	-58.063863
708.196918	-58.996749
708.364254	-61.079926
708.531670	-58.258875
708.699164	-60.103960
708.866738	-58.362022
709.034391	-59.397013
709.202123	-60.507919
709.369935	-59.083887
709.537826	-60.303765
709.705796	-58.967613
709.873847	-60.435051
710.041976	-59.185119
710.210186	-59.713141
710.378475	-60.080912
710.546844	-59.002121
710.715292	-60.282484
710.883821	-58.962109
711.052429	-60.393572
711.221118	-59.170410
711.389887	-57.851530
711.558735	-59.876227
711.727664	-59.593417
711.896673	-58.049070
712.065763	-60.133304
712.234932	-58.002779
712.404183	-59.047036
712.573513	-58.572657
712.742924	-58.100398
712.912416	-60.788200
713.081988	-56.996677
713.251641	-59.922009
713.421375	-58.110935
713.591190	-57.938390
713.761085	-60.788399
713.931061	-56.682168
714.101119	-60.351895
714.271257	-57.640726
714.441476	-59.582405
714.611777	-59.106743
714.782159	-57.368397
714.952622	-61.925282
715.123166	-56.788207
715.293792	-59.872927
715.464499	-58.957670
715.635288	-58.711002
715.806158	-60.383076
715.977110	-57.652912
716.148143	-60.407717
716.319259	-58.697456
716.490456	-58.616395
716.661735	-60.521065
716.833096	-57.542689
717.004538	-60.136941
717.176063	-59.008370
717.347670	-59.580174
717.519359	-58.873955
717.691130	-58.416357
717.862984	-61.235775
718.034920	-56.972877
718.206938	-59.349525
718.379039	-60.622995
718.551222	-57.063286
718.723488	-61.337798
718.895836	-57.903389
719.068267	-59.330498
719.240781	-58.718539
719.413377	-59.090930
719.586057	-59.627501
719.758819	-57.031234
719.931664	-60.348919
720.104593	-59.605364
720.277604	-57.821845
720.450699	-60.072436
720.623876	-58.679919
720.797137	-58.596336
720.970482	-59.051190
721.143910	-58.203808
721.317421	-60.512758
721.491016	-57.872952
721.664694	-59.851662
721.838456	-59.488065
722.012302	-57.876593
722.186231	-58.965661
722.360244	-59.296150
722.534342	-59.076214
722.708523	-57.377101
722.882788	-59.805915
723.057137	-58.869596
723.231570	-59.030726
723.406088	-58.216013
723.580689	-59.683170
723.755375	-58.726824
723.930146	-56.973434
724.105000	-61.195956
724.279940	-57.721489
724.454963	-58.498892
724.630072	-58.271590
724.805265	-59.507606
724.980543	-58.264872
725.155905	-57.896572
725.331353	-59.360667
725.506885	-58.764914
725.682503	-57.749641
725.858205	-58.700990
726.033993	-58.479662
726.209865	-58.321561
726.385823	-58.042217
726.561866	-58.169412
726.737995	-59.158818
726.914209	-57.359643
727.090508	-57.848492
727.266893	-58.178594
727.443364	-59.585772
727.619920	-56.476390
727.796562	-58.182406
727.973290	-58.193754
728.150103	-56.936332
728.327003	-58.547096
728.503988	-56.538743
728.681060	-60.242812
728.858218	-55.920776
729.035461	-57.701753
729.212791	-57.745069
729.390208	-57.519366
729.567710	-57.457843
729.745299	-56.128966
729.922975	-58.933435
730.100737	-55.920625
730.278586	-58.064781
730.456521	-55.991292
730.634543	-57.920910
730.812652	-56.980512
730.990848	-56.110545
731.169130	-57.260210
731.347500	-56.603625
731.525957	-57.449599
731.704500	-55.289020
731.883131	-57.233376
732.061850	-57.137613
732.240655	-55.475454
732.419548	-57.121933
732.598528	-55.847078
732.777596	-56.828844
732.956751	-56.594189
733.135994	-55.224196
733.315325	-57.057480
733.494744	-55.245520
733.674250	-57.257604
733.853844	-54.794560
734.033526	-56.060837
734.213296	-56.630312
734.393154	-54.667148
734.573101	-56.126822
734.753135	-55.141445
734.933258	-56.004711
735.113469	-55.789003
735.293769	-55.019235
735.474157	-54.904368
735.654633	-56.197565
735.835198	-54.463585
736.015852	-55.303826
736.196594	-55.284263
736.377426	-53.936751
736.558346	-56.801434
736.739355	-53.794925
736.920453	-54.488644
737.101640	-55.345747
737.282916	-54.932787
737.464282	-53.744528
737.645736	-54.977153
737.827280	-54.555683
738.008914	-53.175391
738.190637	-56.851557
738.372449	-52.466751
738.554351	-54.513555
738.736342	-54.165552
738.918424	-53.889670
739.100595	-54.028876
739.282855	-53.579131
739.465206	-54.125316
739.647647	-53.282213
739.830178	-54.652173
740.012799	-52.442456
740.195510	-54.402547
740.378311	-53.002252
740.561203	-53.535965
740.744185	-53.852984
740.927258	-52.796487
741.110421	-53.190875
741.293674	-53.261821
741.477018	-53.209141
741.660453	-53.046137
741.843979	-52.502854
742.027596	-53.734855
742.211303	-52.372194
742.395102	-52.866466
742.578991	-53.271313
742.762972	-52.353820
742.947044	-52.356923
743.131207	-53.780144
743.315461	-51.804520
743.499807	-52.630350
743.684244	-52.705975
743.868773	-51.876158
744.053394	-53.601181
744.238106	-51.700351
744.422910	-52.947342
744.607805	-52.045626
744.792793	-52.457304
744.977872	-52.147352
745.163044	-52.810556
745.348307	-51.797549
745.533663	-52.646929
745.719111	-51.672575
745.904651	-52.338992
746.090283	-52.467469
746.276008	-50.992740
746.461826	-53.332167
746.647735	-51.604047
746.833738	-51.454292
747.019833	-53.005441
747.206021	-51.250117
747.392302	-52.200357
747.578676	-51.986564
747.765143	-51.762861
747.951703	-51.896832
748.138356	-52.090192
748.325102	-51.374748
748.511941	-51.848770
748.698874	-51.788829
748.885900	-51.827865
749.073019	-51.216118
749.260232	-52.058028
749.447539	-51.703790
749.634939	-50.754476
749.822433	-52.679634
750.010021	-50.642873
750.197703	-51.989181
750.385479	-51.336682
750.573348	-51.417205
750.761312	-51.425533
750.949370	-51.653134
751.137523	-50.907248
751.325769	-51.546940
751.514110	-51.225162
751.702545	-51.845095
751.891075	-50.797101
752.079700	-51.382427
752.268419	-51.585137
752.457233	-50.660761
752.646142	-51.896148
752.835145	-51.291445
753.024244	-50.843523
753.213437	-52.097626
753.402726	-50.565117
753.592110	-51.805759
753.781589	-50.993932
753.971163	-52.064858
754.160833	-50.705287
754.350598	-51.798720
754.540459	-51.252199
754.730415	-51.624735
754.920467	-51.082324
755.110615	-51.394581
755.300858	-51.525473
755.491198	-50.889806
755.681633	-52.365584
755.872164	-50.748225
756.062792	-51.615588
756.253515	-50.943970
756.444335	-52.624740
756.635252	-49.988421
756.826264	-53.099093
757.017373	-50.751620
757.208579	-51.455250
757.399881	-51.380678
757.591280	-52.073311
757.782776	-50.535982
757.974368	-52.124196
758.166058	-51.430150
758.357844	-51.096059
758.549728	-51.931687
758.741708	-51.460057
758.933786	-51.748514
759.125961	-51.412506
759.318233	-51.574621
759.510603	-52.607544
759.703071	-50.819056
759.895635	-52.918341
760.088298	-51.422093
760.281058	-52.093174
760.473916	-51.470396
760.666872	-53.101378
760.859926	-51.384001
761.053078	-52.249478
761.246328	-52.010910
761.439676	-52.516955
761.633122	-51.542105
761.826667	-52.724061
762.020310	-52.053075
762.214052	-52.177103
762.407892	-51.948712
762.601831	-53.018474
762.795868	-52.042189
762.990004	-52.632227
763.184239	-52.177045
763.378573	-53.144769
763.573006	-52.108758
763.767538	-52.549177
763.962169	-53.266876
764.156900	-52.671400
764.351729	-53.130199
764.546658	-52.569577
764.741687	-54.252475
764.936815	-52.186433
765.132042	-53.356060
765.327370	-53.978064
765.522797	-52.666392
765.718324	-54.558112
765.913950	-52.461829
766.109677	-55.333390
766.305504	-52.961457
766.501431	-54.044525
766.697458	-53.628403
766.893586	-54.562843
767.089814	-53.176374
767.286142	-54.690897
767.482571	-53.683897
767.679100	-55.327864
767.875730	-53.260574
768.072461	-55.015292
768.269293	-54.430226
768.466225	-54.288590
768.663259	-54.544881
768.860393	-54.517224
769.057629	-55.410699
769.254966	-54.728234
769.452404	-55.322444
769.649944	-54.224690
769.847585	-56.859613
770.045328	-54.303723
770.243172	-55.713703
770.441118	-56.451922
770.639166	-54.802670
770.837315	-57.085906
771.035567	-54.598452
771.233920	-57.564160
771.432376	-55.391096
771.630934	-57.277452
771.829594	-54.832269
772.028356	-57.874262
772.227220	-55.585524
772.426188	-56.953796
772.625257	-55.875561
772.824430	-57.318721
773.023705	-56.209867
773.223083	-57.067456
773.422563	-55.712060
773.622147	-58.040713
773.821834	-55.281091
774.021624	-59.797040
774.221517	-53.968124
774.421513	-59.633346
774.621613	-55.270926
774.821816	-57.594216
775.022122	-56.037131
775.222532	-56.650233
775.423046	-56.268402
775.623664	-57.094069
775.824385	-56.154531
776.025211	-57.029747
776.226140	-56.132064
776.427173	-57.727747
776.628311	-55.202974
776.829553	-57.797225
777.030899	-55.022984
777.232350	-56.990565
777.433905	-55.289927
777.635564	-55.541696
777.837328	-56.744836
778.039197	-53.999634
778.241171	-57.957691
778.443250	-53.745712
778.645433	-55.399988
778.847722	-55.215770
779.050116	-54.410910
779.252615	-54.634701
779.455219	-54.552727
779.657929	-53.644715
779.860744	-54.500451
780.063665	-53.680620
780.266691	-53.932226
780.469823	-53.377649
780.673061	-52.916831
780.876405	-53.573988
781.079855	-52.808251
781.283410	-52.634506
781.487072	-53.032102
781.690840	-52.237464
781.894715	-51.925655
782.098695	-52.634959
782.302783	-51.246975
782.506976	-52.322029
782.711277	-51.203487
782.915684	-51.633666
783.120198	-51.110697
783.324818	-51.091699
783.529546	-50.713879
783.734381	-51.476406
783.939322	-49.747266
784.144372	-51.242049
784.349528	-49.874495
784.554792	-50.467364
784.760163	-49.858530
784.965642	-50.128597
785.171228	-49.477335
785.376922	-49.811914
785.582724	-49.232756
785.788634	-49.443368
785.994651	-49.083572
786.200777	-48.807275
786.407011	-49.029173
786.613353	-48.601339
786.819804	-48.545183
787.026363	-48.162879
787.233030	-48.431067
787.439806	-48.011943
787.646691	-47.886768
787.853684	-47.839114
788.060786	-47.595579
788.267997	-47.312981
788.475317	-47.828990
788.682746	-46.747991
788.890285	-47.817503
789.097932	-46.579588
789.305689	-47.063702
789.513555	-46.738440
789.721531	-46.952731
789.929617	-45.824258
790.137812	-47.357000
790.346117	-45.372098
790.554531	-46.848785
790.763056	-45.820160
790.971691	-45.720629
791.180436	-46.002899
791.389291	-45.877891
791.598256	-44.982730
791.807332	-46.318890
792.016518	-44.688829
792.225815	-45.707452
792.435222	-44.983438
792.644740	-45.149819
792.854369	-44.720745
793.064109	-45.158548
793.273960	-44.417140
793.483922	-44.713004
793.693995	-44.554413
793.904180	-44.418145
794.114475	-44.104030
794.324882	-44.652439
794.535401	-43.632750
794.746031	-44.340345
794.956774	-43.848133
795.167627	-43.719006
795.378593	-43.749917
795.589671	-43.760088
795.800861	-43.400279
796.012162	-43.452613
796.223577	-43.530664
796.435103	-43.118579
796.646742	-43.195329
796.858493	-43.342760
797.070357	-42.555995
797.282334	-43.201788
797.494423	-42.822931
797.706626	-42.567860
797.918941	-42.886014
798.131369	-42.453230
798.343911	-42.501257
798.556566	-42.490840
798.769334	-42.243272
798.982215	-42.301637
799.195210	-42.217241
799.408319	-41.806326
799.621541	-42.473137
799.834877	-41.358932
800.048327	-42.271710
800.261890	-41.553414
800.475568	-41.783216
800.689360	-41.432455
800.903266	-41.959009
801.117287	-40.965208
801.331422	-41.889495
801.545671	-40.964244
801.760036	-41.683052
801.974514	-40.718798
802.189108	-41.770229
802.403816	-40.480169
802.618640	-41.460830
802.833578	-40.532669
803.048632	-41.255648
803.263800	-40.392766
803.479085	-41.165111
803.694484	-40.134955
803.909999	-41.234136
804.125630	-39.921253
804.341376	-40.961465
804.557239	-40.210060
804.773217	-40.411743
804.989311	-40.190916
805.205521	-40.511475
805.421847	-39.805090
805.638290	-40.363930
805.854849	-39.890991
806.071524	-40.082533
806.288316	-39.809313
806.505225	-39.932232
806.722250	-39.672290
806.939393	-39.871600
807.156652	-39.605931
807.374028	-39.641295
807.591521	-39.711333
807.809132	-39.439192
808.026859	-39.399081
808.244705	-39.699887
808.462667	-39.062771
808.680748	-39.568444
808.898946	-39.086235
809.117261	-39.433072
809.335695	-39.028787
809.554246	-39.255698
809.772916	-38.970771
809.991704	-39.133079
810.210610	-38.935466
810.429634	-38.982789
810.648777	-38.772639
810.868039	-39.137860
811.087419	-38.438587
811.306918	-39.108186
811.526535	-38.465090
811.746272	-38.840644
811.966127	-38.480097
812.186102	-38.694295
812.406196	-38.328259
812.626409	-38.879119
812.846742	-37.978607
813.067194	-38.961508
813.287766	-37.858306
813.508457	-38.901870
813.729269	-37.794134
813.950200	-38.682692
814.171251	-37.927259
814.392422	-38.373789
814.613714	-38.015322
814.835126	-38.224868
815.056658	-37.864045
815.278311	-38.319772
815.500084	-37.604650
815.721978	-38.348271
815.943993	-37.572154
816.166128	-38.225093
816.388385	-37.578374
816.610762	-38.030437
816.833261	-37.592523
817.055881	-37.955805
817.278623	-37.510386
817.501486	-37.853621
817.724471	-37.477216
817.947577	-37.715585
818.170805	-37.506014
818.394155	-37.648090
818.617627	-37.337221
818.841221	-37.749491
819.064937	-37.150764
819.288775	-37.792966
819.512736	-37.064433
819.736819	-37.748588
819.961025	-36.999336
820.185354	-37.730772
820.409805	-36.930453
820.634379	-37.585379
820.859076	-37.031525
821.083897	-37.408252
821.308840	-36.971600
821.533907	-37.574249
821.759097	-36.639286
821.984411	-37.776659
822.209848	-36.575586
822.435409	-37.518791
822.661093	-36.811752
822.886902	-37.223982
823.112834	-36.889092
823.338891	-37.141350
823.565072	-36.831383
823.791377	-37.151286
824.017807	-36.713848
824.244361	-37.161212
824.471039	-36.706168
824.697843	-36.977585
824.924771	-36.914908
825.151824	-36.682935
825.379002	-37.033609
825.606306	-36.653496
825.833734	-36.859179
826.061288	-36.841791
826.288967	-36.550006
826.516772	-37.022833
826.744703	-36.567839
826.972759	-36.658786
827.200941	-36.992325
827.429249	-36.283472
827.657683	-37.105386
827.886243	-36.460588
828.114930	-36.656433
828.343743	-36.770788
828.572682	-36.520274
828.801748	-36.635425
829.030941	-36.715098
829.260260	-36.384458
829.489706	-36.821886
829.719280	-36.315446
829.948980	-36.897860
830.178808	-36.205208
830.408763	-36.825217
830.638845	-36.450162
830.869055	-36.418054
831.099393	-36.609428
831.329858	-36.548730
831.560451	-36.204604
831.791173	-36.900565
832.022022	-36.077229
832.252999	-36.704417
832.484105	-36.393498
832.715339	-36.478927
832.946702	-36.407497
833.178193	-36.526828
833.409813	-36.401219
833.641561	-36.383417
833.873439	-36.523242
834.105445	-36.456119
834.337581	-36.144513
834.569846	-36.903571
834.802241	-35.984455
835.034764	-36.748944
835.267418	-36.307674
835.500201	-36.450763
835.733114	-36.483626
835.966157	-36.367768
836.199329	-36.617206
836.432632	-36.177495
836.666065	-36.734791
836.899629	-36.304646
837.133323	-36.327944
837.367147	-36.735254
837.601102	-36.219066
837.835188	-36.486465
838.069405	-36.678035
838.303752	-36.087196
838.538231	-36.831032
838.772841	-36.184201
839.007582	-36.647894
839.242455	-36.280161
839.477459	-36.585176
839.712595	-36.346143
839.947863	-36.468261
840.183263	-36.513151
840.418794	-36.324768
840.654458	-36.635219
840.890254	-36.316086
841.126182	-36.514563
841.362242	-36.584688
841.598435	-36.226385
841.834761	-36.838489
842.071220	-36.157329
842.307811	-36.759740
842.544536	-36.387308
842.781393	-36.573839
843.018384	-36.494759
843.255508	-36.601210
843.492765	-36.595375
843.730156	-36.443970
843.967681	-36.737164
844.205339	-36.571445
844.443132	-36.483661
844.681058	-36.778866
844.919118	-36.542761
845.157313	-36.680406
845.395642	-36.518318
845.634105	-36.998872
845.872703	-36.267051
846.111436	-36.964926
846.350303	-36.660415
846.589306	-36.462242
846.828443	-37.002496
847.067716	-36.437624
847.307124	-37.024078
847.546667	-36.333762
847.786345	-37.264682
848.026160	-36.293004
848.266110	-37.033555
848.506195	-36.728782
848.746417	-36.720085
848.986775	-36.727221
849.227269	-36.976366
849.467899	-36.664856
849.708666	-36.738819
849.949569	-37.058661
850.190609	-36.676679
850.431785	-36.863072
850.673099	-36.912743
850.914549	-37.008216
851.156137	-36.612771
851.397861	-37.108585
851.639723	-37.050024
851.881723	-36.572919
852.123860	-37.261513
852.366135	-36.891614
852.608547	-36.916902
852.851098	-36.969031
853.093786	-37.157025
853.336613	-36.933283
853.579578	-36.880668
853.822681	-37.285877
854.065923	-36.905294
854.309304	-37.033437
854.552823	-37.066596
854.796481	-37.208834
855.040278	-36.774929
855.284215	-37.374048
855.528290	-36.896681
855.772505	-37.211925
856.016859	-36.896212
856.261353	-37.458149
856.505987	-36.727041
856.750760	-37.283117
856.995673	-37.144888
857.240727	-36.994189
857.485920	-37.110364
857.731254	-37.164505
857.976729	-37.182060
858.222343	-36.896331
858.468099	-37.279435
858.713995	-37.184528
858.960032	-36.972112
859.206211	-37.111984
859.452530	-37.362355
859.698991	-36.902776
859.945593	-37.168969
860.192336	-37.180995
860.439222	-37.220316
860.686248	-36.910335
860.933417	-37.367365
861.180728	-37.086219
861.428181	-37.080514
861.675776	-37.147647
861.923514	-37.295529
862.171394	-36.960608
862.419417	-37.140583
862.667582	-37.358369
862.915890	-36.893413
863.164342	-37.179728
863.412936	-37.196319
863.661674	-37.125779
863.910555	-36.922953
864.159579	-37.264017
864.408747	-37.092064
864.658059	-36.953915
864.907515	-37.035369
865.157114	-37.263129
865.406858	-36.834763
865.656746	-36.969289
865.906778	-37.239512
866.156955	-36.792660
866.407277	-36.979309
866.657743	-36.978038
866.908354	-37.005471
867.159110	-36.696678
867.410011	-37.044119
867.661057	-36.866575
867.912249	-36.742174
868.163586	-36.751769
868.415069	-37.059378
868.666697	-36.471752
868.918472	-36.795118
869.170392	-36.810375
869.422458	-36.670018
869.674671	-36.437670
869.927030	-36.826259
870.179536	-36.608534
870.432188	-36.414603
870.684987	-36.507335
870.937933	-36.691769
871.191026	-36.415942
871.444266	-36.227168
871.697653	-36.693943
871.951188	-36.273653
872.204870	-36.395533
872.458700	-36.122742
872.712677	-36.685959
872.966803	-35.914393
873.221076	-36.410591
873.475498	-36.188888
873.730068	-36.226459
873.984787	-36.010081
874.239654	-36.275335
874.494669	-36.092410
874.749834	-35.938242
875.005147	-36.058367
875.260610	-36.126167
875.516222	-35.910165
875.771983	-35.760955
876.027894	-36.127624
876.283954	-35.835176
876.540164	-35.743403
876.796524	-35.696734
877.053033	-36.036428
877.309693	-35.537884
877.566503	-35.639166
877.823464	-35.665931
878.080575	-35.718414
878.337837	-35.382220
878.595249	-35.524473
878.852813	-35.539884
879.110528	-35.352794
879.368393	-35.350130
879.626410	-35.339662
879.884579	-35.311901
880.142899	-35.125245
880.401371	-35.248460
880.659994	-35.133632
880.918770	-35.043984
881.177698	-34.953703
881.436778	-35.152482
881.696010	-34.874799
881.955395	-34.707744
882.214933	-35.054672
882.474623	-34.765389
882.734467	-34.653969
882.994463	-34.650074
883.254613	-34.819941
883.514916	-34.532815
883.775372	-34.467253
884.035982	-34.474444
884.296746	-34.686528
884.557664	-34.202326
884.818735	-34.308173
885.079961	-34.435940
885.341341	-34.307074
885.602876	-34.003305
885.864565	-34.230657
886.126409	-34.213441
886.388407	-33.958850
886.650561	-33.903501
886.912870	-34.079167
887.175334	-33.927562
887.437953	-33.646391
887.700728	-33.911390
887.963658	-33.741296
888.226745	-33.682360
888.489987	-33.453210
888.753385	-33.775212
889.016940	-33.435378
889.280651	-33.421917
889.544518	-33.304011
889.808543	-33.564677
890.072723	-33.138120
890.337061	-33.147890
890.601556	-33.247503
890.866208	-33.183724
891.131017	-32.872207
891.395984	-33.013633
891.661109	-33.023283
891.926391	-32.794075
892.191831	-32.762369
892.457429	-32.735214
892.723186	-32.823500
892.989100	-32.462264
893.255173	-32.588088
893.521405	-32.530550
893.787796	-32.534775
894.054345	-32.228868
894.321053	-32.381937
894.587921	-32.367182
894.854948	-32.165682
895.122134	-32.099923
895.389480	-32.190354
895.656986	-32.093508
895.924651	-31.942397
896.192477	-31.910799
896.460463	-32.032291
896.728609	-31.822407
896.996915	-31.729079
897.265382	-31.782755
897.534010	-31.820938
897.802799	-31.603154
898.071749	-31.535017
898.340860	-31.643285
898.610132	-31.654103
898.879566	-31.377665
899.149162	-31.332413
899.418919	-31.603854
899.688838	-31.379056
899.958919	-31.207821
900.229162	-31.236005
900.499568	-31.438289
900.770136	-31.132607
901.040867	-31.146311
901.311761	-31.047504
901.582817	-31.241371
901.854037	-30.998873
902.125420	-30.932078
902.396966	-30.990250
902.668676	-30.993069
902.940550	-30.813113
903.212587	-30.802470
903.484788	-30.891139
903.757153	-30.707211
904.029683	-30.664290
904.302377	-30.682281
904.575236	-30.717629
904.848259	-30.480218
905.121447	-30.546140
905.394800	-30.480487
905.668319	-30.572036
905.942002	-30.336408
906.215852	-30.305982
906.489866	-30.355266
906.764047	-30.413880
907.038393	-30.150176
907.312906	-30.136072
907.587584	-30.187647
907.862429	-30.238005
908.137441	-29.982947
908.412619	-29.973937
908.687964	-29.986858
908.963476	-30.055521
909.239155	-29.854074
909.515002	-29.722175
909.791015	-29.878612
910.067197	-29.822362
910.343546	-29.682371
910.620063	-29.543542
910.896748	-29.747492
911.173601	-29.555301
911.450623	-29.523073
911.727813	-29.421414
912.005171	-29.526389
912.282699	-29.384416
912.560395	-29.328909
912.838261	-29.280807
913.116296	-29.367101
913.394500	-29.203896
913.672874	-29.105172
913.951418	-29.194161
914.230131	-29.165556
914.509015	-29.036529
914.788068	-28.942205
915.067292	-29.020806
915.346687	-28.995883
915.626252	-28.888335
915.905988	-28.757279
916.185895	-28.857125
916.465973	-28.788391
916.746223	-28.744700
917.026644	-28.610575
917.307236	-28.638712
917.588000	-28.612510
917.868937	-28.580985
918.150045	-28.426302
918.431325	-28.504940
918.712778	-28.411854
918.994404	-28.365295
919.276202	-28.309584
919.558173	-28.342324
919.840317	-28.231618
920.122634	-28.208640
920.405125	-28.121707
920.687789	-28.190636
920.970627	-28.140440
921.253639	-28.003396
921.536824	-27.966565
921.820184	-28.034882
922.103718	-28.037387
922.387427	-27.824063
922.671310	-27.859808
922.955368	-27.843025
923.239601	-27.861203
923.524009	-27.767414
923.808592	-27.700678
924.093351	-27.636327
924.378285	-27.750918
924.663396	-27.614909
924.948682	-27.539153
925.234144	-27.558000
925.519782	-27.531306
925.805597	-27.462560
926.091589	-27.412720
926.377757	-27.422258
926.664102	-27.384421
926.950624	-27.336374
927.237323	-27.211976
927.524200	-27.280424
927.811255	-27.347208
928.098487	-27.144008
928.385897	-27.058542
928.673485	-27.178250
928.961251	-27.190630
929.249196	-27.086304
929.537319	-26.946703
929.825621	-27.008621
930.114102	-27.070732
930.402762	-27.023772
930.691601	-26.843637
930.980620	-26.913631
931.269818	-26.919402
931.559196	-26.911105
931.848753	-26.816541
932.138491	-26.767358
932.428409	-26.814015
932.718508	-26.816072
933.008787	-26.676986
933.299246	-26.689799
933.589887	-26.723001
933.880709	-26.625296
934.171712	-26.647270
934.462896	-26.526762
934.754262	-26.570379
935.045810	-26.583380
935.337539	-26.482569
935.629451	-26.374422
935.921545	-26.509670
936.213822	-26.392483
936.506281	-26.377894
936.798922	-26.298682
937.091747	-26.289836
937.384755	-26.338156
937.677946	-26.241029
937.971321	-26.153483
938.264879	-26.170364
938.558621	-26.217503
938.852547	-26.136377
939.146657	-26.021352
939.440952	-26.011556
939.735431	-26.128402
940.030095	-25.987028
940.324943	-25.958648
940.619977	-25.881929
940.915196	-25.903912
941.210600	-25.944242
941.506189	-25.866851
941.801965	-25.737537
942.097926	-25.783948
942.394074	-25.781331
942.690407	-25.778035
942.986927	-25.645420
943.283634	-25.672511
943.580527	-25.641905
943.877608	-25.629603
944.174875	-25.590883
944.472330	-25.517008
944.769972	-25.573842
945.067802	-25.531419
945.365820	-25.440856
945.664026	-25.417876
945.962420	-25.486122
946.261002	-25.439192
946.559773	-25.376484
946.858733	-25.326100
947.157881	-25.297401
947.457219	-25.356120
947.756746	-25.407350
948.056462	-25.209942
948.356368	-25.149350
948.656464	-25.246732
948.956749	-25.333848
949.257225	-25.152771
949.557891	-25.103586
949.858748	-25.104815
950.159796	-25.160455
950.461034	-25.100513
950.762463	-25.051867
951.064084	-24.993211
951.365896	-25.043854
951.667900	-24.962169
951.970095	-24.923224
952.272483	-24.918238
952.575063	-24.926597
952.877835	-24.865970
953.180799	-24.787782
953.483956	-24.765820
953.787307	-24.748691
954.090850	-24.849197
954.394586	-24.701791
954.698516	-24.583179
955.002640	-24.589431
955.306957	-24.740743
955.611469	-24.597519
955.916174	-24.548623
956.221074	-24.501446
956.526169	-24.482124
956.831458	-24.513855
957.136942	-24.573439
957.442622	-24.394733
957.748496	-24.336112
958.054567	-24.473544
958.360833	-24.473141
958.667294	-24.286959
958.973952	-24.337523
959.280806	-24.432172
959.587857	-24.329233
959.895104	-24.277386
960.202548	-24.314215
960.510189	-24.285446
960.818027	-24.294916
961.126062	-24.355081
961.434295	-24.230243
961.742726	-24.126854
962.051355	-24.254478
962.360182	-24.367018
962.669207	-24.200892
962.978431	-24.093191
963.287854	-24.160980
963.597475	-24.214908
963.907296	-24.170905
964.217315	-24.151013
964.527535	-24.085382
964.837954	-24.051409
965.148573	-24.090749
965.459392	-24.119321
965.770411	-23.995600
966.081630	-23.993867
966.393051	-24.046053
966.704672	-23.993518
967.016494	-23.869290
967.328517	-23.924895
967.640742	-23.976320
967.953169	-23.936027
968.265797	-23.829584
968.578627	-23.781930
968.891660	-23.794564
969.204895	-23.895032
969.518332	-23.851954
969.831972	-23.712299
970.145816	-23.663222
970.459862	-23.737226
970.774112	-23.765384
971.088565	-23.734407
971.403223	-23.656430
971.718084	-23.583816
972.033149	-23.637505
972.348419	-23.681159
972.663893	-23.618011
972.979572	-23.550529
973.295456	-23.568575
973.611546	-23.560788
973.927840	-23.561929
974.244340	-23.518827
974.561046	-23.464327
974.877958	-23.476672
975.195076	-23.544904
975.512401	-23.468221
975.829932	-23.360837
976.147670	-23.369599
976.465615	-23.444987
976.783767	-23.428050
977.102126	-23.369026
977.420693	-23.286092
977.739468	-23.259725
978.058451	-23.309618
978.377642	-23.341824
978.697041	-23.272747
979.016649	-23.200657
979.336466	-23.159941
979.656492	-23.180933
979.976727	-23.209519
980.297171	-23.183701
980.617825	-23.107566
980.938689	-23.091550
981.259763	-23.073346
981.581048	-23.056796
981.902542	-23.064930
982.224248	-23.074921
982.546164	-23.005055
982.868291	-22.964142
983.190630	-22.970863
983.513180	-22.971449
983.835942	-22.966150
984.158916	-22.954047
984.482101	-22.916871
984.805500	-22.884353
985.129110	-22.894503
985.452934	-22.886723
985.776970	-22.875836
986.101220	-22.869950
986.425683	-22.863168
986.750359	-22.831916
987.075250	-22.801746
987.400354	-22.799730
987.725673	-22.847166
988.051206	-22.839933
988.376954	-22.767681
988.702916	-22.733431
989.029094	-22.790902
989.355487	-22.808206
989.682095	-22.757004
990.008919	-22.712377
990.335959	-22.748265
990.663216	-22.785083
990.990688	-22.753059
991.318377	-22.652152
991.646283	-22.669106
991.974406	-22.785112
992.302746	-22.812764
992.631304	-22.646531
992.960079	-22.563409
993.289072	-22.673065
993.618283	-22.818363
993.947713	-22.730214
994.277361	-22.581641
994.607227	-22.567785
994.937313	-22.677173
995.267618	-22.694914
995.598142	-22.659083
995.928886	-22.607050
996.259849	-22.564793
996.591033	-22.536898
996.922437	-22.621952
997.254061	-22.650592
997.585906	-22.545748
997.917972	-22.435811
998.250260	-22.496705
998.582768	-22.583103
998.915498	-22.539231
999.248450	-22.402449
999.581624	-22.379094
999.915020	-22.437130
1000.248639	-22.465298
1000.582480	-22.403217
1000.916545	-22.328919
1001.250832	-22.268954
1001.585343	-22.294753
1001.920077	-22.349920
1002.255035	-22.329156
1002.590218	-22.191390
1002.925624	-22.135543
1003.261255	-22.182380
1003.597111	-22.238336
1003.933192	-22.181270
1004.269497	-22.086139
1004.606029	-22.036052
1004.942785	-22.067286
1005.279768	-22.099074
1005.616977	-22.063866
1005.954412	-21.982380
1006.292074	-21.935252
1006.629962	-21.968088
1006.968077	-22.008737
1007.306420	-21.957032
1007.644990	-21.859866
1007.983787	-21.844565
1008.322813	-21.909109
1008.662067	-21.933664
1009.001549	-21.872243
1009.341259	-21.775234
1009.681199	-21.754093
1010.021367	-21.830138
1010.361765	-21.896688
1010.702392	-21.830075
1011.043250	-21.704001
1011.384337	-21.675990
1011.725654	-21.768212
1012.067202	-21.850638
1012.408980	-21.792014
1012.750989	-21.672808
1013.093230	-21.634640
1013.435702	-21.711690
1013.778405	-21.784300
1014.121341	-21.752273
1014.464508	-21.660898
1014.807908	-21.623420
1015.151540	-21.674447
1015.495405	-21.726939
1015.839503	-21.695580
1016.183835	-21.642813
1016.528400	-21.626939
1016.873198	-21.655088
1017.218231	-21.669845
1017.563498	-21.663621
1017.908999	-21.614432
1018.254735	-21.585968
1018.600707	-21.624727
1018.946913	-21.664853
1019.293354	-21.637273
1019.640032	-21.550906
1019.986945	-21.523027
1020.334094	-21.588946
1020.681480	-21.640504
1021.029102	-21.593269
1021.376961	-21.495638
1021.725058	-21.466957
1022.073391	-21.507756
1022.421962	-21.561054
1022.770772	-21.544117
1023.119819	-21.455434
1023.469104	-21.386261
1023.818628	-21.410615
1024.168391	-21.464602
1024.518393	-21.460443
1024.868634	-21.375454
1025.219115	-21.311367
1025.569836	-21.314911
1025.920796	-21.358737
1026.271997	-21.341248
1026.623438	-21.268715
1026.975121	-21.213249
1027.327044	-21.218135
1027.679208	-21.247072
1028.031614	-21.227796
1028.384262	-21.141415
1028.737152	-21.081395
1029.090284	-21.092423
1029.443659	-21.142388
1029.797276	-21.114430
1030.151137	-21.018466
1030.505240	-20.936852
1030.859587	-20.942636
1031.214178	-21.012080
1031.569013	-21.009253
1031.924093	-20.914620
1032.279417	-20.807846
1032.634985	-20.795398
1032.990799	-20.862401
1033.346858	-20.896914
1033.703162	-20.829380
1034.059712	-20.713092
1034.416509	-20.675598
1034.773551	-20.723517
1035.130841	-20.774239
1035.488377	-20.741043
1035.846160	-20.651198
1036.204190	-20.592911
1036.562468	-20.615694
1036.920994	-20.660110
1037.279768	-20.660289
1037.638790	-20.592309
1037.998061	-20.545815
1038.357581	-20.540518
1038.717350	-20.582054
1039.077368	-20.593231
1039.437636	-20.540751
1039.798154	-20.500629
1040.158922	-20.497841
1040.519940	-20.534996
1040.881209	-20.552520
1041.242729	-20.500466
1041.604501	-20.448824
1041.966524	-20.459743
1042.328798	-20.509916
1042.691325	-20.521367
1043.054103	-20.462021
1043.417135	-20.410854
1043.780419	-20.413129
1044.143956	-20.462478
1044.507746	-20.477029
1044.871791	-20.433657
1045.236088	-20.374325
1045.600641	-20.353608
1045.965447	-20.381557
1046.330508	-20.419811
1046.695824	-20.387675
1047.061395	-20.321452
1047.427222	-20.282559
1047.793304	-20.305529
1048.159642	-20.324860
1048.526237	-20.308105
1048.893088	-20.252110
1049.260196	-20.210347
1049.627561	-20.214120
1049.995183	-20.225250
1050.363063	-20.201708
1050.731201	-20.163124
1051.099597	-20.117523
1051.468251	-20.116895
1051.837164	-20.124943
1052.206336	-20.092578
1052.575767	-20.044922
1052.945458	-20.007592
1053.315409	-20.007735
1053.685619	-20.013858
1054.056090	-19.981566
1054.426821	-19.924796
1054.797814	-19.875207
1055.169067	-19.877665
1055.540582	-19.890529
1055.912359	-19.862129
1056.284398	-19.807789
1056.656698	-19.740822
1057.029262	-19.734144
1057.402088	-19.755984
1057.775177	-19.740086
1058.148530	-19.686945
1058.522146	-19.630557
1058.896027	-19.598177
1059.270171	-19.622427
1059.644580	-19.624540
1060.019254	-19.581560
1060.394193	-19.533717
1060.769397	-19.505345
1061.144867	-19.511498
1061.520602	-19.530070
1061.896604	-19.501429
1062.272872	-19.465098
1062.649407	-19.448941
1063.026210	-19.450888
1063.403279	-19.461453
1063.780616	-19.459267
1064.158221	-19.425179
1064.536094	-19.418556
1064.914235	-19.427686
1065.292645	-19.432614
1065.671325	-19.436466
1066.050273	-19.408220
1066.429491	-19.395558
1066.808979	-19.410048
1067.188738	-19.420874
1067.568766	-19.417691
1067.949066	-19.379874
1068.329636	-19.356804
1068.710478	-19.364750
1069.091592	-19.384237
1069.472977	-19.369428
1069.854635	-19.309667
1070.236565	-19.281457
1070.618768	-19.267785
1071.001243	-19.281901
1071.383993	-19.263171
1071.767016	-19.198836
1072.150313	-19.145020
1072.533884	-19.113854
1072.917730	-19.116210
1073.301850	-19.107451
1073.686246	-19.038053
1074.070917	-18.969197
1074.455864	-18.923789
1074.841087	-18.925919
1075.226586	-18.914944
1075.612362	-18.861641
1075.998415	-18.791386
1076.384745	-18.740725
1076.771353	-18.738295
1077.158238	-18.741175
1077.545401	-18.704281
1077.932843	-18.644349
1078.320564	-18.596136
1078.708564	-18.594854
1079.096842	-18.611003
1079.485401	-18.591211
1079.874240	-18.543691
1080.263358	-18.505180
1080.652757	-18.502203
1081.042438	-18.524945
1081.432399	-18.524388
1081.822641	-18.481157
1082.213166	-18.449407
1082.603972	-18.445326
1082.995061	-18.466861
1083.386433	-18.474025
1083.778087	-18.438258
1084.170025	-18.400932
1084.562246	-18.397080
1084.954751	-18.410415
1085.347541	-18.418175
1085.740615	-18.387018
1086.133973	-18.342026
1086.527617	-18.331556
1086.921546	-18.342058
1087.315761	-18.341928
1087.710262	-18.310723
1088.105050	-18.263726
1088.500124	-18.242722
1088.895485	-18.249338
1089.291134	-18.244426
1089.687070	-18.210438
1090.083294	-18.158654
1090.479806	-18.135795
1090.876607	-18.135251
1091.273696	-18.127049
1091.671075	-18.088533
1092.068744	-18.041192
1092.466702	-18.012149
1092.864950	-18.011011
1093.263489	-17.998192
1093.662319	-17.963973
1094.061440	-17.921485
1094.460852	-17.893171
1094.860555	-17.885931
1095.260551	-17.882037
1095.660840	-17.855383
1096.061421	-17.817758
1096.462295	-17.790459
1096.863462	-17.784110
1097.264923	-17.793090
1097.666678	-17.776197
1098.068727	-17.734183
1098.471071	-17.712600
1098.873710	-17.717228
1099.276644	-17.722391
1099.679874	-17.708839
1100.083400	-17.671938
1100.487222	-17.648278
1100.891340	-17.646987
1101.295756	-17.650088
1101.700468	-17.634968
1102.105478	-17.596222
1102.510787	-17.556783
1102.916393	-17.549341
1103.322298	-17.550571
1103.728502	-17.521911
1104.135005	-17.474165
1104.541807	-17.428112
1104.948909	-17.411137
1105.356312	-17.404754
1105.764015	-17.370429
1106.172019	-17.314378
1106.580324	-17.268477
1106.988931	-17.246735
1107.397840	-17.237355
1107.807051	-17.205383
1108.216564	-17.149418
1108.626380	-17.107459
1109.036500	-17.094420
1109.446923	-17.086562
1109.857649	-17.060670
1110.268680	-17.014530
1110.680016	-16.978625
1111.091657	-16.979135
1111.503602	-16.979623
1111.915854	-16.954034
1112.328411	-16.919850
1112.741275	-16.898503
1113.154445	-16.901603
1113.567922	-16.907392
1113.981706	-16.886062
1114.395798	-16.852798
1114.810198	-16.843079
1115.224906	-16.848683
1115.639923	-16.847052
1116.055249	-16.824818
1116.470884	-16.793438
1116.886829	-16.784344
1117.303084	-16.789323
1117.719650	-16.778115
1118.136526	-16.745414
1118.553713	-16.716366
1118.971212	-16.706107
1119.389022	-16.707888
1119.807145	-16.686289
1120.225580	-16.645238
1120.644328	-16.616923
1121.063389	-16.611571
1121.482763	-16.606715
1121.902452	-16.583001
1122.322454	-16.537886
1122.742771	-16.513072
1123.163404	-16.518946
1123.584351	-16.513751
1124.005614	-16.481045
1124.427193	-16.447749
1124.849089	-16.436224
1125.271301	-16.444042
1125.693830	-16.444354
1126.116677	-16.410230
1126.539842	-16.381398
1126.963324	-16.389660
1127.387126	-16.406946
1127.811246	-16.394562
1128.235685	-16.363833
1128.660444	-16.345474
1129.085522	-16.358521
1129.510922	-16.378960
1129.936641	-16.359597
1130.362682	-16.320798
1130.789044	-16.307891
1131.215728	-16.325611
1131.642734	-16.331465
1132.070063	-16.302868
1132.497714	-16.259548
1132.925689	-16.248479
1133.353987	-16.261325
1133.782610	-16.248792
1134.211556	-16.203207
1134.640827	-16.164665
1135.070424	-16.159034
1135.500345	-16.158641
1135.930593	-16.125712
1136.361166	-16.068638
1136.792067	-16.042811
1137.223294	-16.046676
1137.654848	-16.029754
1138.086730	-15.979784
1138.518940	-15.932951
1138.951479	-15.918310
1139.384346	-15.924429
1139.817543	-15.906329
1140.251069	-15.848666
1140.684925	-15.809477
1141.119111	-15.818119
1141.553628	-15.825825
1141.988475	-15.793552
1142.423655	-15.750490
1142.859166	-15.731881
1143.295009	-15.741876
1143.731185	-15.748254
1144.167694	-15.721073
1144.604536	-15.687360
1145.041711	-15.683609
1145.479221	-15.694666
1145.917065	-15.687452
1146.355245	-15.668444
1146.793759	-15.651525
1147.232609	-15.646959
1147.671795	-15.644040
1148.111317	-15.631807
1148.551177	-15.618539
1148.991373	-15.612079
1149.431907	-15.597224
1149.872779	-15.572760
1150.313989	-15.560955
1150.755538	-15.553885
1151.197426	-15.538105
1151.639653	-15.510143
1152.082220	-15.478313
1152.525128	-15.453999
1152.968376	-15.445778
1153.411966	-15.426380
1153.855897	-15.381137
1154.300169	-15.341085
1154.744784	-15.319453
1155.189742	-15.298239
1155.635042	-15.266141
1156.080687	-15.226721
1156.526674	-15.183232
1156.973007	-15.148839
1157.419683	-15.125001
1157.866705	-15.093112
1158.314072	-15.050853
1158.761786	-15.009905
1159.209845	-14.974293
1159.658251	-14.944228
1160.107004	-14.916308
1160.556104	-14.879148
1161.005553	-14.840118
1161.455349	-14.808931
1161.905494	-14.777460
1162.355989	-14.749989
1162.806832	-14.725845
1163.258026	-14.693351
1163.709570	-14.656100
1164.161464	-14.634430
1164.613710	-14.614777
1165.066307	-14.589049
1165.519256	-14.566703
1165.972558	-14.539308
1166.426212	-14.509472
1166.880219	-14.497603
1167.334580	-14.490346
1167.789295	-14.461088
1168.244364	-14.431256
1168.699788	-14.418158
1169.155567	-14.409753
1169.611702	-14.398106
1170.068193	-14.376484
1170.525041	-14.349528
1170.982245	-14.338044
1171.439807	-14.338674
1171.897726	-14.324613
1172.356004	-14.299097
1172.814640	-14.281902
1173.273635	-14.275554
1173.732989	-14.271519
1174.192703	-14.258637
1174.652778	-14.236779
1175.113213	-14.216839
1175.574009	-14.217793
1176.035167	-14.218310
1176.496687	-14.193217
1176.958569	-14.169872
1177.420814	-14.169590
1177.883422	-14.166977
1178.346394	-14.152051
1178.809730	-14.135223
1179.273430	-14.120719
1179.737496	-14.114164
1180.201927	-14.113416
1180.666723	-14.100329
1181.131886	-14.074021
1181.597416	-14.068605
1182.063312	-14.072165
1182.529576	-14.057833
1182.996209	-14.036680
1183.463209	-14.026440
1183.930579	-14.023380
1184.398317	-14.016637
1184.866426	-14.000944
1185.334904	-13.981464
1185.803754	-13.974961
1186.272974	-13.975951
1186.742566	-13.959019
1187.212529	-13.934366
1187.682865	-13.930654
1188.153574	-13.929957
1188.624656	-13.909082
1189.096112	-13.890053
1189.567942	-13.885696
1190.040147	-13.875519
1190.512726	-13.858262
1190.985681	-13.846660
1191.459012	-13.833676
1191.932720	-13.818987
1192.406804	-13.809727
1192.881265	-13.797734
1193.356104	-13.777357
1193.831322	-13.765774
1194.306918	-13.759940
1194.782893	-13.742253
1195.259248	-13.722628
1195.735982	-13.715528
1196.213097	-13.705440
1196.690593	-13.685243
1197.168471	-13.673347
1197.646730	-13.663583
1198.125371	-13.647103
1198.604395	-13.635137
1199.083803	-13.624449
1199.563594	-13.607408
1200.043769	-13.594579
1200.524329	-13.588762
1201.005273	-13.571927
1201.486604	-13.552597
1201.968320	-13.549119
1202.450422	-13.540976
1202.932912	-13.516818
1203.415789	-13.505237
1203.899054	-13.506358
1204.382707	-13.488877
1204.866748	-13.466045
1205.351179	-13.464658
1205.836000	-13.460158
1206.321211	-13.437369
1206.806812	-13.424123
1207.292805	-13.424490
1207.779189	-13.411412
1208.265965	-13.393346
1208.753134	-13.388090
1209.240696	-13.380711
1209.728651	-13.366867
1210.217000	-13.359313
1210.705744	-13.351033
1211.194883	-13.337589
1211.684417	-13.333173
1212.174347	-13.328754
1212.664673	-13.312442
1213.155396	-13.303902
1213.646516	-13.306482
1214.138034	-13.297827
1214.629951	-13.280135
1215.122266	-13.278380
1215.614980	-13.282945
1216.108095	-13.269777
1216.601609	-13.254145
1217.095524	-13.258950
1217.589841	-13.261086
1218.084559	-13.243771
1218.579679	-13.234773
1219.075202	-13.242771
1219.571128	-13.236434
1220.067458	-13.222218
1220.564191	-13.220305
1221.061330	-13.220994
1221.558874	-13.212533
1222.056823	-13.204474
1222.555178	-13.201020
1223.053940	-13.195440
1223.553109	-13.188900
1224.052686	-13.184110
1224.552671	-13.174692
1225.053065	-13.165228
1225.553867	-13.163598
1226.055079	-13.156293
1226.556702	-13.139042
1227.058735	-13.132066
1227.561179	-13.132378
1228.064035	-13.116588
1228.567303	-13.096955
1229.070983	-13.094645
1229.575077	-13.090225
1230.079585	-13.067097
1230.584506	-13.050262
1231.089842	-13.050123
1231.595594	-13.036737
1232.101761	-13.010518
1232.608345	-12.999817
1233.115345	-12.996177
1233.622762	-12.973671
1234.130597	-12.950421
1234.638851	-12.944199
1235.147523	-12.932679
1235.656615	-12.905086
1236.166126	-12.888084
1236.676058	-12.882334
1237.186411	-12.862166
1237.697185	-12.833768
1238.208381	-12.823460
1238.719999	-12.814774
1239.232040	-12.786469
1239.744505	-12.762063
1240.257394	-12.757053
1240.770708	-12.741003
1241.284446	-12.709371
1241.798610	-12.692341
1242.313201	-12.685843
1242.828218	-12.664215
1243.343662	-12.634767
1243.859534	-12.621267
1244.375834	-12.612449
1244.892563	-12.587502
1245.409721	-12.561992
1245.927309	-12.551085
1246.445327	-12.537692
1246.963777	-12.513246
1247.482657	-12.493140
1248.001970	-12.481732
1248.521716	-12.464706
1249.041894	-12.443944
1249.562506	-12.429011
1250.083553	-12.414877
1250.605034	-12.396820
1251.126950	-12.382084
1251.649302	-12.370442
1252.172091	-12.353736
1252.695316	-12.337209
1253.218979	-12.329101
1253.743079	-12.319010
1254.267619	-12.301152
1254.792597	-12.288603
1255.318015	-12.286074
1255.843874	-12.276711
1256.370173	-12.259606
1256.896913	-12.252972
1257.424095	-12.253869
1257.951720	-12.244684
1258.479787	-12.231850
1259.008298	-12.230669
1259.537254	-12.232904
1260.066654	-12.224497
1260.596499	-12.218534
1261.126790	-12.222055
1261.657527	-12.222417
1262.188711	-12.217558
1262.720342	-12.219385
1263.252422	-12.224832
1263.784950	-12.223675
1264.317928	-12.222694
1264.851355	-12.232614
1265.385232	-12.238524
1265.919560	-12.234236
1266.454340	-12.240025
1266.989572	-12.256788
1267.525256	-12.259480
1268.061394	-12.255026
1268.597985	-12.268628
1269.135031	-12.287508
1269.672531	-12.286515
1270.210487	-12.285621
1270.748899	-12.305795
1271.287768	-12.321518
1271.827094	-12.319600
1272.366877	-12.325643
1272.907119	-12.347680
1273.447820	-12.357692
1273.988981	-12.358407
1274.530601	-12.372555
1275.072683	-12.391022
1275.615226	-12.395938
1276.158230	-12.402938
1276.701697	-12.422574
1277.245627	-12.433995
1277.790021	-12.437347
1278.334879	-12.450208
1278.880202	-12.471109
1279.425991	-12.477296
1279.972245	-12.480502
1280.518966	-12.497473
1281.066155	-12.516019
1281.613811	-12.520442
1282.161936	-12.523447
1282.710529	-12.539892
1283.259593	-12.557367
1283.809126	-12.560420
1284.359131	-12.561746
1284.909607	-12.576939
1285.460555	-12.592560
1286.011976	-12.592339
1286.563870	-12.593498
1287.116237	-12.607243
1287.669080	-12.617049
1288.222397	-12.614314
1288.776191	-12.616845
1289.330460	-12.627173
1289.885207	-12.628592
1290.440431	-12.623848
1290.996133	-12.629682
1291.552314	-12.634221
1292.108975	-12.625273
1292.666115	-12.622179
1293.223737	-12.629662
1293.781839	-12.624879
1294.340424	-12.609944
1294.899491	-12.608964
1295.459041	-12.613551
1296.019075	-12.600963
1296.579593	-12.584485
1297.140597	-12.583001
1297.702086	-12.581206
1298.264061	-12.565492
1298.826524	-12.549935
1299.389474	-12.543686
1299.952912	-12.536945
1300.516839	-12.521038
1301.081255	-12.504004
1301.646162	-12.494713
1302.211559	-12.484352
1302.777448	-12.466279
1303.343829	-12.449487
1303.910702	-12.439448
1304.478069	-12.423953
1305.045930	-12.402245
1305.614285	-12.389332
1306.183136	-12.378153
1306.752483	-12.355331
1307.322326	-12.333781
1307.892666	-12.324514
1308.463504	-12.309138
1309.034841	-12.281851
1309.606677	-12.263309
1310.179012	-12.253458
1310.751849	-12.233904
1311.325186	-12.207714
1311.899025	-12.190214
1312.473366	-12.177466
1313.048211	-12.157023
1313.623559	-12.132854
1314.199412	-12.115161
1314.775770	-12.101297
1315.352634	-12.080125
1315.930004	-12.056893
1316.507881	-12.042132
1317.086266	-12.027414
1317.665159	-12.003317
1318.244562	-11.983666
1318.824474	-11.973832
1319.404897	-11.955021
1319.985831	-11.930525
1320.567276	-11.916977
1321.149234	-11.907510
1321.731706	-11.887340
1322.314691	-11.865779
1322.898190	-11.854358
1323.482205	-11.845060
1324.066736	-11.827406
1324.651783	-11.806453
1325.237347	-11.797480
1325.823430	-11.790150
1326.410031	-11.770874
1326.997151	-11.755148
1327.584791	-11.748193
1328.172952	-11.738394
1328.761634	-11.721801
1329.350839	-11.710525
1329.940566	-11.705009
1330.530817	-11.692201
1331.121592	-11.679465
1331.712891	-11.673078
1332.304716	-11.665551
1332.897068	-11.654806
1333.489946	-11.644563
1334.083352	-11.638543
1334.677287	-11.635207
1335.271750	-11.625244
1335.866744	-11.613498
1336.462268	-11.612537
1337.058323	-11.611911
1337.654910	-11.599810
1338.252029	-11.591177
1338.849682	-11.594191
1339.447869	-11.592449
1340.046591	-11.582040
1340.645848	-11.576754
1341.245641	-11.580682
1341.845972	-11.579476
1342.446840	-11.569375
1343.048246	-11.568580
1343.650191	-11.574903
1344.252677	-11.569230
1344.855702	-11.562145
1345.459269	-11.568724
1346.063379	-11.571350
1346.668030	-11.563051
1347.273226	-11.563126
1347.878965	-11.571132
1348.485250	-11.570819
1349.092080	-11.564534
1349.699456	-11.567017
1350.307380	-11.576284
1350.915851	-11.576096
1351.524871	-11.569482
1352.134441	-11.574480
1352.744560	-11.586164
1353.355231	-11.583874
1353.966453	-11.578008
1354.578227	-11.588425
1355.190555	-11.597712
1355.803436	-11.593095
1356.416872	-11.593681
1357.030863	-11.604597
1357.645411	-11.609975
1358.260515	-11.607611
1358.876177	-11.611705
1359.492397	-11.622855
1360.109176	-11.625444
1360.726516	-11.623198
1361.344416	-11.633046
1361.962877	-11.643055
1362.581901	-11.640323
1363.201487	-11.642605
1363.821637	-11.656009
1364.442352	-11.661981
1365.063632	-11.658322
1365.685478	-11.663973
1366.307891	-11.678718
1366.930871	-11.681998
1367.554420	-11.677651
1368.178538	-11.687618
1368.803226	-11.701670
1369.428485	-11.701124
1370.054315	-11.700809
1370.680717	-11.712662
1371.307693	-11.722597
1371.935242	-11.723284
1372.563366	-11.726172
1373.192065	-11.736187
1373.821341	-11.744590
1374.451193	-11.746645
1375.081623	-11.750991
1375.712632	-11.760058
1376.344221	-11.765852
1376.976389	-11.769974
1377.609139	-11.775705
1378.242470	-11.781512
1378.876384	-11.787611
1379.510881	-11.792525
1380.145963	-11.797398
1380.781629	-11.803579
1381.417881	-11.808108
1382.054720	-11.812662
1382.692147	-11.819234
1383.330161	-11.824182
1383.968765	-11.827747
1384.607959	-11.832912
1385.247743	-11.839489
1385.888119	-11.845379
1386.529087	-11.847811
1387.170648	-11.851943
1387.812804	-11.861436
1388.455554	-11.866654
1389.098899	-11.867068
1389.742842	-11.873444
1390.387381	-11.882918
1391.032519	-11.886783
1391.678256	-11.888313
1392.324592	-11.894869
1392.971529	-11.903763
1393.619068	-11.907299
1394.267208	-11.909519
1394.915952	-11.916660
1395.565300	-11.923296
1396.215253	-11.927211
1396.865812	-11.931362
1397.516977	-11.935980
1398.168749	-11.942001
1398.821130	-11.947713
1399.474120	-11.950511
1400.127719	-11.954302
1400.781930	-11.961484
1401.436752	-11.966951
1402.092186	-11.968481
1402.748234	-11.972768
1403.404897	-11.981982
1404.062174	-11.985809
1404.720067	-11.984618
1405.378577	-11.992682
1406.037705	-12.003526
1406.697451	-12.002449
1407.357817	-12.001896
1408.018803	-12.014282
1408.680410	-12.024115
1409.342639	-12.020072
1410.005492	-12.021702
1410.668968	-12.037771
1411.333068	-12.044483
1411.997795	-12.039390
1412.663147	-12.046369
1413.329127	-12.061466
1413.995736	-12.064205
1414.662973	-12.062982
1415.330840	-12.074245
1415.999339	-12.085157
1416.668469	-12.085300
1417.338232	-12.091695
1418.008628	-12.104934
1418.679659	-12.109027
1419.351325	-12.112435
1420.023628	-12.125109
1420.696568	-12.134803
1421.370145	-12.137390
1422.044362	-12.145215
1422.719219	-12.158350
1423.394717	-12.165223
1424.070856	-12.170435
1424.747638	-12.180987
1425.425064	-12.190759
1426.103134	-12.198971
1426.781850	-12.209229
1427.461212	-12.218345
1428.141221	-12.227340
1428.821878	-12.239816
1429.503185	-12.251373
1430.185141	-12.259334
1430.867749	-12.269888
1431.551008	-12.283872
1432.234920	-12.293449
1432.919486	-12.301448
1433.604707	-12.314251
1434.290583	-12.325319
1434.977116	-12.333100
1435.664307	-12.344833
1436.352156	-12.357201
1437.040664	-12.365713
1437.729833	-12.377058
1438.419663	-12.391915
1439.110156	-12.402049
1439.801312	-12.412662
1440.493132	-12.428667
1441.185617	-12.440315
1441.878768	-12.449638
1442.572586	-12.463570
1443.267072	-12.474859
1443.962228	-12.482005
1444.658053	-12.492072
1445.354549	-12.501876
1446.051717	-12.506431
1446.749558	-12.513259
1447.448073	-12.523016
1448.147263	-12.527209
1448.847128	-12.533041
1449.547671	-12.544606
1450.248891	-12.551873
1450.950789	-12.558423
1451.653368	-12.571839
1452.356627	-12.583333
1453.060568	-12.589739
1453.765192	-12.601799
1454.470500	-12.614475
1455.176492	-12.618141
1455.883170	-12.624613
1456.590534	-12.633070
1457.298586	-12.632132
1458.007327	-12.630760
1458.716758	-12.632898
1459.426880	-12.628648
1460.137693	-12.622059
1460.849199	-12.621414
1461.561398	-12.618219
1462.274293	-12.613224
1462.987883	-12.616477
1463.702170	-12.619883
1464.417155	-12.622744
1465.132838	-12.634330
1465.849222	-12.646741
1466.566306	-12.658427
1467.284093	-12.676317
1468.002582	-12.694065
1468.721775	-12.707648
1469.441674	-12.723892
1470.162278	-12.737670
1470.883590	-12.742740
1471.605609	-12.748317
1472.328338	-12.749133
1473.051777	-12.739628
1473.775928	-12.730849
1474.500790	-12.718133
1475.226367	-12.697711
1475.952657	-12.680498
1476.679663	-12.663752
1477.407386	-12.643574
1478.135826	-12.630594
1478.864985	-12.623002
1479.594863	-12.615004
1480.325463	-12.617841
1481.056784	-12.627108
1481.788828	-12.636693
1482.521597	-12.656706
1483.255090	-12.678638
1483.989309	-12.698066
1484.724256	-12.721666
1485.459931	-12.738474
1486.196336	-12.745926
1486.933471	-12.747718
1487.671337	-12.733112
1488.409937	-12.702190
1489.149270	-12.658692
1489.889337	-12.593360
1490.630141	-12.511481
1491.371682	-12.417292
1492.113961	-12.303677
1492.856979	-12.181855
1493.600738	-12.052981
1494.345238	-11.914142
1495.090481	-11.777898
1495.836467	-11.641752
1496.583198	-11.507319
1497.330675	-11.384034
1498.078899	-11.267882
1498.827872	-11.162560
1499.577593	-11.073475
1500.328065	-10.995990
1501.079289	-10.934313
1501.831265	-10.889775
1502.583995	-10.857069
1503.337480	-10.840174
1504.091721	-10.835290
1504.846719	-10.837422
1505.602475	-10.848261
1506.358991	-10.858193
1507.116268	-10.864083
1507.874306	-10.861664
1508.633108	-10.840436
1509.392673	-10.799701
1510.153004	-10.732151
1510.914101	-10.635341
1511.675965	-10.512222
1512.438599	-10.361679
1513.202002	-10.191840
1513.966176	-10.008673
1514.731122	-9.818644
1515.496842	-9.632333
1516.263336	-9.454838
1517.030607	-9.293900
1517.798654	-9.155955
1518.567479	-9.043735
1519.337083	-8.963379
1520.107468	-8.916931
1520.878634	-8.907215
1521.650584	-8.939145
1522.423317	-9.013529
1523.196836	-9.136286
1523.971141	-9.311410
1524.746233	-9.542609
1525.522115	-9.838457
1526.298786	-10.202027
1527.076249	-10.640921
1527.854504	-11.160291
1528.633553	-11.759214
1529.413397	-12.435691
1530.194037	-13.169074
1530.975474	-13.918350
1531.757709	-14.610095
1532.540745	-15.128212
1533.324581	-15.351295
1534.109220	-15.212852
1534.894662	-14.743922
1535.680909	-14.063703
1536.467961	-13.295860
1537.255821	-12.534780
1538.044489	-11.838774
1538.833967	-11.235953
1539.624256	-10.740212
1540.415357	-10.356447
1541.207271	-10.083429
1542.000000	-9.920307
1542.793545	-9.862802
1543.587907	-9.907354
1544.383087	-10.049820
1545.179088	-10.283774
1545.975909	-10.603529
1546.773552	-10.998605
1547.572019	-11.456331
1548.371311	-11.958075
1549.171428	-12.476727
1549.972373	-12.978892
1550.774147	-13.420215
1551.576751	-13.757194
1552.380185	-13.951732
1553.184453	-13.984953
1553.989554	-13.864598
1554.795490	-13.617363
1555.602263	-13.283136
1556.409873	-12.900651
1557.218322	-12.501261
1558.027612	-12.109929
1558.837743	-11.740348
1559.648717	-11.403737
1560.460536	-11.103907
1561.273200	-10.843817
1562.086710	-10.624315
1562.901069	-10.444076
1563.716278	-10.303643
1564.532337	-10.199942
1565.349249	-10.133598
1566.167014	-10.101662
1566.985634	-10.103930
1567.805111	-10.138813
1568.625444	-10.204655
1569.446637	-10.301321
1570.268690	-10.425688
1571.091605	-10.578387
1571.915382	-10.755583
1572.740024	-10.957370
1573.565532	-11.180239
1574.391907	-11.422569
1575.219150	-11.681879
1576.047262	-11.954147
1576.876246	-12.238120
1577.706103	-12.527530
1578.536833	-12.821687
1579.368439	-13.112943
1580.200922	-13.400171
1581.034282	-13.675636
1581.868522	-13.936849
1582.703643	-14.177589
1583.539646	-14.393835
1584.376532	-14.582213
1585.214304	-14.737823
1586.052962	-14.861207
1586.892508	-14.947751
1587.732943	-15.001780
1588.574269	-15.020262
1589.416487	-15.009835
1590.259599	-14.969537
1591.103605	-14.906096
1591.948508	-14.820622
1592.794309	-14.718068
1593.641009	-14.600986
1594.488609	-14.471905
1595.337112	-14.334077
1596.186518	-14.188220
1597.036829	-14.037513
1597.888047	-13.881786
1598.740172	-13.723800
1599.593207	-13.563490
1600.447153	-13.402944
1601.302010	-13.242630
1602.157782	-13.084123
1603.014469	-12.928447
1603.872072	-12.776802
1604.730593	-12.630406
1605.590034	-12.490229
1606.450397	-12.357355
1607.311681	-12.232694
1608.173890	-12.116747
1609.037024	-12.010417
1609.901085	-11.913445
1610.766075	-11.826764
1611.631995	-11.749302
1612.498846	-11.681926
1613.366630	-11.622951
1614.235349	-11.573109
1615.105004	-11.530376
1615.975596	-11.495257
1616.847128	-11.465615
1617.719600	-11.441758
1618.593014	-11.421668
1619.467372	-11.405443
1620.342675	-11.391323
1621.218924	-11.379339
1622.096122	-11.368020
1622.974270	-11.357486
1623.853369	-11.346491
1624.733420	-11.335567
1625.614427	-11.323598
1626.496389	-11.311525
1627.379308	-11.298322
1628.263187	-11.285429
1629.148026	-11.271726
1630.033828	-11.259082
1630.920593	-11.246365
1631.808324	-11.235614
1632.697022	-11.225584
1633.586688	-11.218349
1634.477324	-11.212508
1635.368932	-11.209850
1636.261514	-11.208869
1637.155070	-11.210964
1638.049602	-11.214638
1638.945113	-11.220740
1639.841603	-11.227851
1640.739075	-11.236469
1641.637529	-11.245396
1642.536968	-11.254829
1643.437393	-11.263929
1644.338806	-11.272787
1645.241209	-11.280849
1646.144602	-11.288257
1647.048988	-11.294678
1647.954368	-11.300368
1648.860744	-11.305147
1649.768118	-11.309417
1650.676491	-11.313121
1651.585865	-11.316732
1652.496241	-11.320348
1653.407621	-11.324294
1654.320008	-11.328823
1655.233401	-11.334057
1656.147804	-11.340267
1657.063218	-11.347318
1657.979645	-11.355431
1658.897085	-11.364199
1659.815542	-11.373884
1660.735016	-11.383837
1661.655509	-11.394385
1662.577023	-11.404882
1663.499560	-11.415629
1664.423121	-11.426194
1665.347709	-11.436810
1666.273324	-11.447308
1667.199969	-11.457961
1668.127645	-11.468844
1669.056353	-11.480091
1669.986097	-11.491783
1670.916877	-11.504049
1671.848695	-11.516966
1672.781553	-11.530534
1673.715452	-11.544704
1674.650395	-11.559634
1675.586383	-11.574955
1676.523418	-11.590937
1677.461501	-11.607013
1678.400635	-11.623575
1679.340821	-11.640157
1680.282061	-11.657006
1681.224357	-11.674005
1682.167710	-11.691302
1683.112122	-11.708973
1684.057595	-11.726822
1685.004132	-11.745300
1685.951732	-11.763838
1686.900400	-11.783093
1687.850135	-11.802313
1688.800940	-11.822296
1689.752818	-11.842297
1690.705768	-11.862908
1691.659795	-11.883797
1692.614898	-11.905172
1693.571081	-11.926977
1694.528345	-11.949043
1695.486691	-11.971722
1696.446122	-11.994537
1697.406640	-12.018149
1698.368245	-12.041965
1699.330941	-12.066720
1700.294729	-12.091912
1701.259611	-12.117885
1702.225588	-12.144481
1703.192664	-12.171665
1704.160838	-12.199479
1705.130114	-12.227724
1706.100493	-12.256686
1707.071977	-12.286093
1708.044568	-12.316243
1709.018268	-12.347042
1709.993079	-12.378589
1710.969003	-12.410849
1711.946041	-12.443633
1712.924196	-12.477060
1713.903469	-12.510854
1714.883862	-12.545029
1715.865378	-12.579688
1716.848017	-12.614570
1717.831783	-12.650134
1718.816677	-12.685922
1719.802701	-12.722300
1720.789857	-12.758911
1721.778147	-12.795939
1722.767573	-12.833134
1723.758136	-12.870523
1724.749840	-12.908231
1725.742685	-12.945875
1726.736673	-12.984078
1727.731808	-13.022179
1728.728090	-13.060744
1729.725521	-13.099364
1730.724105	-13.138268
1731.723842	-13.177487
1732.724735	-13.217025
1733.726785	-13.257052
1734.729995	-13.297341
1735.734366	-13.338063
1736.739902	-13.378884
1737.746603	-13.419922
1738.754472	-13.461100
1739.763510	-13.502537
1740.773721	-13.544487
1741.785105	-13.586814
1742.797665	-13.629592
1743.811403	-13.672805
1744.826321	-13.716059
1745.842422	-13.759491
1746.859706	-13.802708
1747.878177	-13.845831
1748.897835	-13.888830
1749.918685	-13.931748
1750.940726	-13.974637
1751.963963	-14.017512
1752.988395	-14.060362
1754.014027	-14.102836
1755.040860	-14.145057
1756.068895	-14.186600
1757.098135	-14.227782
1758.128583	-14.268472
1759.160240	-14.308932
1760.193109	-14.349372
1761.227191	-14.389861
1762.262488	-14.430314
1763.299004	-14.470700
1764.336740	-14.510943
1765.375697	-14.550697
1766.415880	-14.590406
1767.457288	-14.630028
1768.499926	-14.669970
1769.543794	-14.710356
1770.588895	-14.751058
1771.635231	-14.791964
1772.682805	-14.832862
1773.731619	-14.873575
1774.781674	-14.914244
1775.832973	-14.955037
1776.885519	-14.996081
1777.939312	-15.037425
1778.994357	-15.078869
1780.050654	-15.120044
1781.108207	-15.160625
1782.167017	-15.200367
1783.227087	-15.239118
1784.288418	-15.277190
1785.351013	-15.314530
1786.414875	-15.351285
1787.480006	-15.387569
1788.546407	-15.422942
1789.614082	-15.457299
1790.683032	-15.490378
1791.753259	-15.521875
1792.824767	-15.551963
1793.897557	-15.580751
1794.971632	-15.608556
1796.046994	-15.635523
1797.123645	-15.661608
1798.201588	-15.686646
1799.280824	-15.710448
1800.361357	-15.732782
1801.443188	-15.753782
1802.526320	-15.773635
1803.610756	-15.792308
1804.696497	-15.810087
1805.783546	-15.826845
1806.871906	-15.842499
1807.961578	-15.856994
1809.052565	-15.870269
1810.144870	-15.882197
1811.238494	-15.892772
1812.333441	-15.902168
1813.429713	-15.910285
1814.527311	-15.917239
1815.626239	-15.923080
1816.726499	-15.927744
1817.828094	-15.931358
1818.931025	-15.933889
1820.035295	-15.935273
1821.140906	-15.935565
1822.247862	-15.934628
1823.356165	-15.932538
1824.465816	-15.929471
1825.576819	-15.925457
1826.689175	-15.920730
1827.802888	-15.915458
1828.917960	-15.909435
1830.034394	-15.902809
1831.152191	-15.895619
1832.271354	-15.887507
1833.391887	-15.878593
1834.513790	-15.868714
1835.637068	-15.857802
1836.761722	-15.846109
1837.887755	-15.833839
1839.015169	-15.821034
1840.143968	-15.807788
1841.274153	-15.793793
1842.405727	-15.778731
1843.538693	-15.762387
1844.673053	-15.744492
1845.808810	-15.725384
1846.945966	-15.705404
1848.084525	-15.684795
1849.224488	-15.663837
1850.365858	-15.642382
1851.508638	-15.619953
1852.652831	-15.596442
1853.798438	-15.571648
1854.945463	-15.545706
1856.093909	-15.519215
1857.243777	-15.492505
1858.395071	-15.465937
1859.547794	-15.439467
1860.701947	-15.412817
1861.857533	-15.385684
1863.014556	-15.357865
1864.173018	-15.329311
1865.332922	-15.300185
1866.494270	-15.270678
1867.657065	-15.240966
1868.821309	-15.211231
1869.987006	-15.181278
1871.154158	-15.150927
1872.322768	-15.120034
1873.492839	-15.088364
1874.664373	-15.055951
1875.837373	-15.022961
1877.011841	-14.989445
1878.187782	-14.955601
1879.365197	-14.921569
1880.544089	-14.887430
1881.724460	-14.853355
1882.906315	-14.819139
1884.089655	-14.784628
1885.274483	-14.749707
1886.460803	-14.714313
1887.648616	-14.678834
1888.837927	-14.643634
1890.028736	-14.608875
1891.221049	-14.574615
1892.414866	-14.540519
1893.610192	-14.506223
1894.807028	-14.471667
1896.005379	-14.436931
1897.205246	-14.402426
1898.406633	-14.368598
1899.609542	-14.335542
1900.813977	-14.303257
1902.019940	-14.271334
1903.227434	-14.239435
1904.436462	-14.207546
1905.647028	-14.175892
1906.859133	-14.144820
1908.072781	-14.114607
1909.287976	-14.085058
1910.504719	-14.055830
1911.723013	-14.026752
1912.942863	-13.997674
1914.164270	-13.968869
1915.387238	-13.940367
1916.611770	-13.912004
1917.837868	-13.883606
1919.065536	-13.854966
1920.294777	-13.826311
1921.525594	-13.797883
1922.757989	-13.769761
1923.991967	-13.741968
1925.227529	-13.714149
1926.464679	-13.686158
1927.703420	-13.658283
1928.943755	-13.630714
1930.185688	-13.603733
1931.429221	-13.577137
1932.674356	-13.550466
1933.921099	-13.523546
1935.169451	-13.496286
1936.419415	-13.469136
1937.670996	-13.442320
1938.924195	-13.415661
1940.179017	-13.388824
1941.435463	-13.361342
1942.693538	-13.333427
1943.953245	-13.305552
1945.214586	-13.278134
1946.477566	-13.251361
1947.742186	-13.224908
1949.008451	-13.198501
1950.276363	-13.172053
1951.545926	-13.145950
1952.817143	-13.120673
1954.090017	-13.096232
1955.364551	-13.072377
1956.640749	-13.048668
1957.918615	-13.025146
1959.198150	-13.002292
1960.479359	-12.980478
1961.762244	-12.959656
1963.046810	-12.939372
1964.333059	-12.919311
1965.620995	-12.899641
1966.910621	-12.880775
1968.201940	-12.862981
1969.494956	-12.846089
1970.789672	-12.829651
1972.086091	-12.813283
1973.384217	-12.796972
1974.684053	-12.780978
1975.985602	-12.765500
1977.288869	-12.750418
1978.593855	-12.735391
1979.900566	-12.720173
1981.209003	-12.705000
1982.519171	-12.690309
1983.831073	-12.676336
1985.144712	-12.662764
1986.460093	-12.649105
1987.777217	-12.635291
1989.096089	-12.621834
1990.416713	-12.609206
1991.739092	-12.597299
1993.063228	-12.585451
1994.389127	-12.572970
1995.716791	-12.559835
1997.046223	-12.546544
1998.377428	-12.533743
1999.710409	-12.521397
2001.045169	-12.508843
2002.381713	-12.495449
2003.720043	-12.481313
2005.060163	-12.467262
2006.402077	-12.453965
2007.745788	-12.441295
2009.091301	-12.428634
2010.438618	-12.415759
2011.787743	-12.403065
2013.138680	-12.391004
2014.491433	-12.379722
2015.846005	-12.369064
2017.202399	-12.359019
2018.560621	-12.349559
2019.920673	-12.340737
2021.282558	-12.332633
2022.646281	-12.325293
2024.011846	-12.318680
2025.379256	-12.312689
2026.748515	-12.307361
2028.119626	-12.302864
2029.492594	-12.299143
2030.867422	-12.295911
2032.244114	-12.292981
2033.622673	-12.290533
2035.003104	-12.288834
2036.385411	-12.287842
2037.769597	-12.287305
2039.155665	-12.287198
2040.543621	-12.287769
2041.933467	-12.289238
2043.325208	-12.291253
2044.718847	-12.293064
2046.114389	-12.294299
2047.511837	-12.295416
2048.911195	-12.297105
2050.312467	-12.299473
2051.715657	-12.301841
2053.120769	-12.303505
2054.527807	-12.304586
2055.936775	-12.305971
2057.347677	-12.308319
2058.760516	-12.311331
2060.175297	-12.314079
2061.592025	-12.316006
2063.010701	-12.317438
2064.431332	-12.319103
2065.853921	-12.321268
2067.278472	-12.323550
2068.704988	-12.325426
2070.133475	-12.326789
2071.563936	-12.328107
2072.996375	-12.330081
2074.430796	-12.333101
2075.867204	-12.336987
2077.305603	-12.341158
2078.745996	-12.345247
2080.188389	-12.349538
2081.632784	-12.354756
2083.079187	-12.361506
2084.527601	-12.369726
2085.978030	-12.378692
2087.430480	-12.387803
2088.884954	-12.397424
2090.341455	-12.408591
2091.799990	-12.421865
2093.260561	-12.436660
2094.723173	-12.451894
2096.187831	-12.467119
2097.654538	-12.482999
2099.123300	-12.500631
2100.594119	-12.520089
2102.067001	-12.540113
2103.541950	-12.559510
2105.018971	-12.578577
2106.498067	-12.598481
2107.979243	-12.619601
2109.462503	-12.641047
2110.947853	-12.661718
2112.435295	-12.681490
2113.924836	-12.701068
2115.416478	-12.720993
2116.910227	-12.741174
2118.406087	-12.761172
2119.904063	-12.780782
2121.404158	-12.800254
2122.906378	-12.819977
2124.410727	-12.840040
2125.917210	-12.860316
2127.425831	-12.880549
2128.936594	-12.900529
2130.449505	-12.920460
2131.964567	-12.940916
2133.481786	-12.962231
2135.001166	-12.984043
2136.522711	-13.005726
2138.046427	-13.027286
2139.572317	-13.049577
2141.100388	-13.073358
2142.630642	-13.098332
2144.163085	-13.123593
2145.697722	-13.149132
2147.234558	-13.176175
2148.773596	-13.205480
2150.314842	-13.236258
2151.858301	-13.267593
2153.403977	-13.299809
2154.951875	-13.333679
2156.502000	-13.369324
2158.054357	-13.406611
2159.608950	-13.445728
2161.165785	-13.486644
2162.724866	-13.528813
2164.286198	-13.571824
2165.849786	-13.615770
2167.415635	-13.660767
2168.983749	-13.706252
2170.554134	-13.751539
2172.126795	-13.796881
2173.701737	-13.843055
2175.278964	-13.889932
2176.858481	-13.936469
2178.440294	-13.982337
2180.024408	-14.028222
2181.610827	-14.074094
2183.199557	-14.119197
2184.790602	-14.163739
2186.383968	-14.208454
2187.979660	-14.253173
2189.577683	-14.297434
2191.178041	-14.341480
2192.780741	-14.385938
2194.385787	-14.431005
2195.993185	-14.476132
2197.602939	-14.521082
2199.215054	-14.566923
2200.829537	-14.614452
2202.446392	-14.662762
2204.065624	-14.711423
2205.687239	-14.761661
2207.311242	-14.813776
2208.937638	-14.866526
2210.566433	-14.920005
2212.197631	-14.975713
2213.831239	-15.033590
2215.467261	-15.092278
2217.105703	-15.151968
2218.746570	-15.214066
2220.389867	-15.278559
2222.035601	-15.344464
2223.683776	-15.412405
2225.334398	-15.483524
2226.987472	-15.556980
2228.643004	-15.631579
2230.300999	-15.708010
2231.961463	-15.786235
2233.624402	-15.864204
2235.289820	-15.942044
2236.957723	-16.022338
2238.628118	-16.104953
2240.301009	-16.186613
2241.976402	-16.266559
2243.654303	-16.347887
2245.334717	-16.431856
2247.017650	-16.516038
2248.703108	-16.599271
2250.391096	-16.682875
2252.081620	-16.767270
2253.774686	-16.850933
2255.470300	-16.932265
2257.168467	-17.010858
2258.869193	-17.087958
2260.572484	-17.165307
2262.278345	-17.242989
2263.986783	-17.318521
2265.697804	-17.390579
2267.411412	-17.463210
2269.127615	-17.541011
2270.846417	-17.622364
2272.567826	-17.703486
2274.291846	-17.785903
2276.018484	-17.873775
2277.747745	-17.965953
2279.479637	-18.057985
2281.214164	-18.149038
2282.951333	-18.241570
2284.691149	-18.337069
2286.433619	-18.433897
2288.178750	-18.529249
2289.926546	-18.624974
2291.677014	-18.727076
2293.430161	-18.835580
2295.185992	-18.944201
2296.944513	-19.052987
2298.705732	-19.169030
2300.469653	-19.292111
2302.236283	-19.414357
2304.005629	-19.536046
2305.777696	-19.664429
2307.552492	-19.797883
2309.330022	-19.927702
2311.110292	-20.051854
2312.893310	-20.176146
2314.679080	-20.304444
2316.467611	-20.430798
2318.258907	-20.548028
2320.052976	-20.661487
2321.849824	-20.779126
2323.649457	-20.895790
2325.451883	-21.006391
2327.257106	-21.113414
2329.065135	-21.223023
2330.875975	-21.336513
2332.689633	-21.443409
2334.506116	-21.550725
2336.325430	-21.665545
2338.147581	-21.784238
2339.972578	-21.902372
2341.800425	-22.020246
2343.631130	-22.138605
2345.464700	-22.258854
2347.301141	-22.381102
2349.140461	-22.501516
2350.982665	-22.614577
2352.827760	-22.731547
2354.675754	-22.853992
2356.526653	-22.978521
2358.380464	-23.106602
2360.237195	-23.243462
2362.096851	-23.390994
2363.959440	-23.550086
2365.824968	-23.723539
2367.693444	-23.900378
2369.564873	-24.079073
2371.439263	-24.266835
2373.316620	-24.452513
2375.196953	-24.636717
2377.080267	-24.808625
2378.966570	-24.977245
2380.855869	-25.137766
2382.748171	-25.295804
2384.643484	-25.432947
2386.541815	-25.562481
2388.443170	-25.703037
2390.347557	-25.834120
2392.254984	-25.951996
2394.165457	-26.067562
2396.078984	-26.205563
2397.995572	-26.323328
2399.915229	-26.441904
2401.837961	-26.559887
2403.763777	-26.696207
2405.692684	-26.817428
2407.624689	-26.944904
2409.559800	-27.076663
2411.498023	-27.229832
2413.439368	-27.377353
2415.383840	-27.523150
2417.331449	-27.670933
2419.282201	-27.844371
2421.236104	-28.004167
2423.193165	-28.168867
2425.153393	-28.338936
2427.116795	-28.524159
2429.083378	-28.714717
2431.053151	-28.891708
2433.026121	-29.100548
2435.002297	-29.312691
2436.981685	-29.549906
2438.964293	-29.747923
2440.950131	-29.997561
2442.939204	-30.228889
2444.931522	-30.465992
2446.927092	-30.669118
2448.925923	-30.897436
2450.928022	-31.098279
2452.933397	-31.282552
2454.942056	-31.433383
2456.954008	-31.601681
2458.969260	-31.735045
2460.987821	-31.857556
2463.009699	-31.959513
2465.034902	-32.095557
2467.063437	-32.178785
2469.095315	-32.257318
2471.130542	-32.377372
2473.169127	-32.487618
2475.211078	-32.588659
2477.256404	-32.681869
2479.305112	-32.844325
2481.357212	-32.954201
2483.412713	-33.101386
2485.471621	-33.263039
2487.533946	-33.435866
2489.599696	-33.578651
2491.668880	-33.759986
2493.741507	-33.972252
2495.817585	-34.175841
2497.897122	-34.350123
2499.980127	-34.600091
2502.066609	-34.796961
2504.156578	-35.054471
2506.250040	-35.316113
2508.347006	-35.631361
2510.447483	-35.905932
2512.551482	-36.243167
2514.659010	-36.615607
2516.770076	-36.939660
2518.884690	-37.304119
2521.002861	-37.646756
2523.124597	-37.963160
2525.249907	-38.194196
2527.378801	-38.461861
2529.511287	-38.618774
2531.647375	-38.731998
2533.787074	-38.850784
2535.930393	-38.914831
2538.077340	-38.962618
2540.227927	-39.021506
2542.382160	-39.016369
2544.540051	-39.033284
2546.701608	-39.048751
2548.866840	-39.085243
2551.035757	-39.095526
2553.208369	-39.132004
2555.384684	-39.229311
2557.564713	-39.247938
2559.748465	-39.406592
2561.935948	-39.484704
2564.127174	-39.616326
2566.322152	-39.726245
2568.520890	-39.899351
2570.723399	-40.074153
2572.929689	-40.273584
2575.139769	-40.525240
2577.353649	-40.701965
2579.571340	-41.024582
2581.792849	-41.282514
2584.018189	-41.698843
2586.247368	-42.112233
2588.480396	-42.576312
2590.717284	-43.145038
2592.958041	-43.719768
2595.202678	-44.450263
2597.451204	-45.041601
2599.703630	-45.819616
2601.959966	-46.253542
2604.220222	-46.867933
2606.484408	-47.259092
2608.752535	-47.521841
2611.024612	-47.638885
2613.300651	-47.693527
2615.580661	-47.796772
2617.864653	-47.594529
2620.152638	-47.605841
2622.444625	-47.264391
2624.740626	-47.128087
2627.040651	-46.897869
2629.344710	-46.752983
2631.652814	-46.525231
2633.964974	-46.341475
2636.281200	-46.312707
2638.601504	-46.116968
2640.925896	-46.135152
2643.254386	-46.034751
2645.586987	-45.971015
2647.923707	-45.971120
2650.264559	-45.980478
2652.609554	-46.018368
2654.958702	-46.099322
2657.312015	-46.091132
2659.669503	-46.378385
2662.031178	-46.549674
2664.397051	-46.876700
2666.767132	-47.306882
2669.141434	-47.659777
2671.519968	-48.487433
2673.902745	-49.198983
2676.289776	-50.046245
2678.681072	-50.971549
2681.076646	-51.989290
2683.476508	-53.131868
2685.880671	-54.294398
2688.289145	-54.887526
2690.701942	-56.591105
2693.119075	-57.094819
2695.540554	-58.541865
2697.966391	-59.128463
2700.396599	-59.212254
2702.831189	-60.349733
2705.270172	-59.734106
2707.713561	-59.025308
2710.161368	-58.498611
2712.613605	-58.181400
2715.070283	-57.176070
2717.531416	-56.361967
2719.997014	-56.193085
2722.467090	-55.195411
2724.941657	-54.788232
2727.420726	-54.031780
2729.904310	-53.251128
2732.392421	-53.403564
2734.885072	-52.424503
2737.382275	-52.286815
2739.884042	-51.895423
2742.390387	-52.002055
2744.901321	-51.717221
2747.416857	-51.990761
2749.937008	-52.063586
2752.461787	-52.598456
2754.991206	-53.186681
2757.525279	-53.734505
2760.064017	-54.523800
2762.607434	-55.561973
2765.155544	-56.078627
2767.708358	-56.560016
2770.265890	-57.638554
2772.828153	-57.913782
2775.395160	-58.943688
2777.966924	-59.437543
2780.543459	-60.120190
2783.124778	-61.399536
2785.710894	-61.988522
2788.301821	-62.299266
2790.897572	-65.048602
2793.498160	-65.145524
2796.103599	-67.292450
2798.713903	-68.465048
2801.329085	-73.043165
2803.949159	-78.489092
2806.574139	-87.532019
2809.204038	-71.181726
2811.838871	-68.996331
2814.478650	-66.978170
2817.123391	-62.640763
2819.773107	-63.088034
2822.427812	-60.813449
2825.087521	-60.327796
2827.752247	-59.901366
2830.422005	-58.901587
2833.096808	-58.580378
2835.776672	-59.354948
2838.461611	-59.344078
2841.151638	-60.053870
2843.846769	-60.228411
2846.547019	-61.802278
2849.252401	-63.012341
2851.962930	-61.944100
2854.678621	-64.022666
2857.399489	-63.464671
2860.125549	-63.478856
2862.856815	-64.901753
2865.593302	-63.854211
2868.335026	-64.747856
2871.082002	-64.328637
2873.834244	-64.404244
2876.591767	-63.964272
2879.354588	-63.699169
2882.122721	-64.488039
2884.896181	-63.619354
2887.674984	-63.827390
2890.459146	-64.596255
2893.248681	-64.808916
2896.043606	-65.567896
2898.843937	-66.566510
2901.649687	-68.306679
2904.460875	-68.478345
2907.277515	-71.216142
2910.099623	-69.667950
2912.927215	-70.682072
2915.760308	-70.605629
2918.598916	-68.628270
2921.443057	-69.195239
2924.292747	-66.469690
2927.148002	-68.656679
2930.008837	-70.925664
2932.875270	-67.867321
2935.747318	-68.531404
2938.624995	-71.863853
2941.508320	-75.135030
2944.397308	-71.331863
2947.291977	-74.178456
2950.192343	-73.799259
2953.098423	-72.516138
2956.010234	-75.752809
2958.927792	-78.361244
2961.851116	-83.035440
2964.780221	-82.136016
2967.715126	-74.797706
2970.655847	-72.087253
2973.602402	-69.429005
2976.554808	-68.503933
2979.513083	-68.621957
2982.477243	-69.488725
2985.447308	-66.053745
2988.423293	-66.796750
2991.405218	-67.459810
2994.393099	-66.590787
2997.386955	-68.014490
