# 2022-03-21_14.55.25
# shape = sech2
# FWHM_ps = 0.1
# carrier_nm = 1542
# frep_MHz = 12126
# pow_mW = 8000
# GDD = 0.0
# propa_len = 0.16
# untap_len = 0.01
# taper_len = 0.1
# waist_len = 0.02
# uptap_len = 0.02
# untap_scale = 1.0
# waist_scale = 0.16666666666666669
# workingDir = NL_20110305_12 (Spirou)
# axis = slow
# window_ps = 10.0
# steps = 200
# points = 13000
# 
# wavelength [nm]	 power spectral density [dB]
1000.248639	-26.384936
1000.582480	-26.310466
1000.916545	-26.503099
1001.250832	-26.301678
1001.585343	-26.314880
1001.920077	-26.388689
1002.255035	-26.246652
1002.590218	-26.187195
1002.925624	-26.375902
1003.261255	-26.142843
1003.597111	-26.221946
1003.933192	-26.154017
1004.269497	-26.153722
1004.606029	-26.070552
1004.942785	-26.183451
1005.279768	-26.001575
1005.616977	-26.094773
1005.954412	-25.990835
1006.292074	-26.061332
1006.629962	-25.891843
1006.968077	-26.024233
1007.306420	-25.895390
1007.644990	-25.973694
1007.983787	-25.876568
1008.322813	-25.933106
1008.662067	-25.805939
1009.001549	-25.943458
1009.341259	-25.779983
1009.681199	-25.846082
1010.021367	-25.801751
1010.361765	-25.770241
1010.702392	-25.729734
1011.043250	-25.769211
1011.384337	-25.663418
1011.725654	-25.684782
1012.067202	-25.728031
1012.408980	-25.560657
1012.750989	-25.604441
1013.093230	-25.592115
1013.435702	-25.509939
1013.778405	-25.462042
1014.121341	-25.543822
1014.464508	-25.307817
1014.807908	-25.504908
1015.151540	-25.354753
1015.495405	-25.361773
1015.839503	-25.255863
1016.183835	-25.359171
1016.528400	-25.187218
1016.873198	-25.285963
1017.218231	-25.224608
1017.563498	-25.230388
1017.908999	-25.147344
1018.254735	-25.249339
1018.600707	-25.092445
1018.946913	-25.159981
1019.293354	-25.158665
1019.640032	-25.071244
1019.986945	-25.147330
1020.334094	-25.094236
1020.681480	-25.115426
1021.029102	-25.046479
1021.376961	-25.107400
1021.725058	-24.993387
1022.073391	-25.140182
1022.421962	-24.962791
1022.770772	-25.083433
1023.119819	-24.990672
1023.469104	-25.010198
1023.818628	-24.961134
1024.168391	-25.023876
1024.518393	-24.901058
1024.868634	-25.031549
1025.219115	-24.946359
1025.569836	-24.884992
1025.920796	-24.994036
1026.271997	-24.923988
1026.623438	-24.920808
1026.975121	-24.950485
1027.327044	-24.950444
1027.679208	-24.819989
1028.031614	-25.091472
1028.384262	-24.805535
1028.737152	-24.968814
1029.090284	-24.955249
1029.443659	-24.867335
1029.797276	-24.901447
1030.151137	-24.959746
1030.505240	-24.809285
1030.859587	-24.939191
1031.214178	-24.885801
1031.569013	-24.752455
1031.924093	-24.937349
1032.279417	-24.749751
1032.634985	-24.801899
1032.990799	-24.769190
1033.346858	-24.749980
1033.703162	-24.648899
1034.059712	-24.784120
1034.416509	-24.556280
1034.773551	-24.685961
1035.130841	-24.610206
1035.488377	-24.520372
1035.846160	-24.607012
1036.204190	-24.484274
1036.562468	-24.507713
1036.920994	-24.462091
1037.279768	-24.482727
1037.638790	-24.378899
1037.998061	-24.500306
1038.357581	-24.285165
1038.717350	-24.425149
1039.077368	-24.323810
1039.437636	-24.318313
1039.798154	-24.330775
1040.158922	-24.226732
1040.519940	-24.276319
1040.881209	-24.219788
1041.242729	-24.223196
1041.604501	-24.134269
1041.966524	-24.240187
1042.328798	-24.020020
1042.691325	-24.218365
1043.054103	-24.022082
1043.417135	-24.062357
1043.780419	-24.116046
1044.143956	-23.937336
1044.507746	-24.078056
1044.871791	-23.955874
1045.236088	-23.992210
1045.600641	-23.943878
1045.965447	-24.001551
1046.330508	-23.852029
1046.695824	-24.017545
1047.061395	-23.858678
1047.427222	-23.902175
1047.793304	-23.963975
1048.159642	-23.786332
1048.526237	-23.984195
1048.893088	-23.797125
1049.260196	-23.899344
1049.627561	-23.837449
1049.995183	-23.843785
1050.363063	-23.799206
1050.731201	-23.842091
1051.099597	-23.746419
1051.468251	-23.767083
1051.837164	-23.794523
1052.206336	-23.618131
1052.575767	-23.828476
1052.945458	-23.546160
1053.315409	-23.717512
1053.685619	-23.610773
1054.056090	-23.532809
1054.426821	-23.640457
1054.797814	-23.455300
1055.169067	-23.565100
1055.540582	-23.441717
1055.912359	-23.466255
1056.284398	-23.403623
1056.656698	-23.438903
1057.029262	-23.328264
1057.402088	-23.381179
1057.775177	-23.309464
1058.148530	-23.264045
1058.522146	-23.349619
1058.896027	-23.128037
1059.270171	-23.345841
1059.644580	-23.103148
1060.019254	-23.200005
1060.394193	-23.167044
1060.769397	-23.036594
1061.144867	-23.192227
1061.520602	-22.968079
1061.896604	-23.083612
1062.272872	-22.984708
1062.649407	-22.995692
1063.026210	-22.951091
1063.403279	-22.950951
1063.780616	-22.906926
1064.158221	-22.907290
1064.536094	-22.928098
1064.914235	-22.802304
1065.292645	-22.971331
1065.671325	-22.757158
1066.050273	-22.914611
1066.429491	-22.818607
1066.808979	-22.791747
1067.188738	-22.923581
1067.568766	-22.700309
1067.949066	-22.924544
1068.329636	-22.744619
1068.710478	-22.823812
1069.091592	-22.828734
1069.472977	-22.717042
1069.854635	-22.871248
1070.236565	-22.722714
1070.618768	-22.817784
1071.001243	-22.761257
1071.383993	-22.751041
1071.767016	-22.773107
1072.150313	-22.712420
1072.533884	-22.752397
1072.917730	-22.709278
1073.301850	-22.726262
1073.686246	-22.654084
1074.070917	-22.694616
1074.455864	-22.613559
1074.841087	-22.643175
1075.226586	-22.602237
1075.612362	-22.529851
1075.998415	-22.619360
1076.384745	-22.431039
1076.771353	-22.564593
1077.158238	-22.398570
1077.545401	-22.411356
1077.932843	-22.431040
1078.320564	-22.234890
1078.708564	-22.386136
1079.096842	-22.138378
1079.485401	-22.222801
1079.874240	-22.131848
1080.263358	-22.001214
1080.652757	-22.094825
1081.042438	-21.856566
1081.432399	-21.971355
1081.822641	-21.820413
1082.213166	-21.757138
1082.603972	-21.796021
1082.995061	-21.586479
1083.386433	-21.721891
1083.778087	-21.510981
1084.170025	-21.534345
1084.562246	-21.486130
1084.954751	-21.343878
1085.347541	-21.450675
1085.740615	-21.212337
1086.133973	-21.320545
1086.527617	-21.189131
1086.921546	-21.147920
1087.315761	-21.182623
1087.710262	-21.029342
1088.105050	-21.141334
1088.500124	-21.006352
1088.895485	-21.043995
1089.291134	-21.044890
1089.687070	-20.944645
1090.083294	-21.063771
1090.479806	-20.937736
1090.876607	-20.999850
1091.273696	-20.964922
1091.671075	-20.904563
1092.068744	-21.005314
1092.466702	-20.843529
1092.864950	-20.958543
1093.263489	-20.838646
1093.662319	-20.851089
1094.061440	-20.897880
1094.460852	-20.764491
1094.860555	-20.888897
1095.260551	-20.754548
1095.660840	-20.846581
1096.061421	-20.824909
1096.462295	-20.762568
1096.863462	-20.897467
1097.264923	-20.734527
1097.666678	-20.870512
1098.068727	-20.794718
1098.471071	-20.772862
1098.873710	-20.826042
1099.276644	-20.656220
1099.679874	-20.793852
1100.083400	-20.604365
1100.487222	-20.616744
1100.891340	-20.580982
1101.295756	-20.444602
1101.700468	-20.513158
1102.105478	-20.323947
1102.510787	-20.376335
1102.916393	-20.296857
1103.322298	-20.223269
1103.728502	-20.284121
1104.135005	-20.141549
1104.541807	-20.222348
1104.948909	-20.144443
1105.356312	-20.144875
1105.764015	-20.159383
1106.172019	-20.073948
1106.580324	-20.128597
1106.988931	-20.050945
1107.397840	-20.031140
1107.807051	-19.999993
1108.216564	-19.938424
1108.626380	-19.895566
1109.036500	-19.835670
1109.446923	-19.760239
1109.857649	-19.732925
1110.268680	-19.647701
1110.680016	-19.592630
1111.091657	-19.585180
1111.503602	-19.478769
1111.915854	-19.523612
1112.328411	-19.447412
1112.741275	-19.451813
1113.154445	-19.481900
1113.567922	-19.405914
1113.981706	-19.525695
1114.395798	-19.420726
1114.810198	-19.512965
1115.224906	-19.500936
1115.639923	-19.463083
1116.055249	-19.524215
1116.470884	-19.433932
1116.886829	-19.467763
1117.303084	-19.393707
1117.719650	-19.341754
1118.136526	-19.313506
1118.553713	-19.207389
1118.971212	-19.148716
1119.389022	-19.081909
1119.807145	-18.990719
1120.225580	-18.916880
1120.644328	-18.866501
1121.063389	-18.759536
1121.482763	-18.760562
1121.902452	-18.651719
1122.322454	-18.654470
1122.742771	-18.630409
1123.163404	-18.545124
1123.584351	-18.620728
1124.005614	-18.515135
1124.427193	-18.582064
1124.849089	-18.541003
1125.271301	-18.529175
1125.693830	-18.557396
1126.116677	-18.501637
1126.539842	-18.514539
1126.963324	-18.489210
1127.387126	-18.446508
1127.811246	-18.431474
1128.235685	-18.385418
1128.660444	-18.316008
1129.085522	-18.315358
1129.510922	-18.219546
1129.936641	-18.188567
1130.362682	-18.152758
1130.789044	-18.059606
1131.215728	-18.086705
1131.642734	-17.971468
1132.070063	-18.001364
1132.497714	-17.944763
1132.925689	-17.934609
1133.353987	-17.924637
1133.782610	-17.923976
1134.211556	-17.905895
1134.640827	-17.940757
1135.070424	-17.926925
1135.500345	-17.930976
1135.930593	-17.985236
1136.361166	-17.924440
1136.792067	-18.005517
1137.223294	-17.945937
1137.654848	-17.981601
1138.086730	-17.957696
1138.518940	-17.929620
1138.951479	-17.920956
1139.384346	-17.880726
1139.817543	-17.824623
1140.251069	-17.797811
1140.684925	-17.734790
1141.119111	-17.647275
1141.553628	-17.639668
1141.988475	-17.508399
1142.423655	-17.488751
1142.859166	-17.395570
1143.295009	-17.332680
1143.731185	-17.276756
1144.167694	-17.207935
1144.604536	-17.148480
1145.041711	-17.116225
1145.479221	-17.046276
1145.917065	-17.022901
1146.355245	-16.994329
1146.793759	-16.938823
1147.232609	-16.961358
1147.671795	-16.907330
1148.111317	-16.914032
1148.551177	-16.918216
1148.991373	-16.894643
1149.431907	-16.908956
1149.872779	-16.927728
1150.313989	-16.904145
1150.755538	-16.937997
1151.197426	-16.941282
1151.639653	-16.931745
1152.082220	-16.968602
1152.525128	-16.945023
1152.968376	-16.958212
1153.411966	-16.966028
1153.855897	-16.941217
1154.300169	-16.949343
1154.744784	-16.930625
1155.189742	-16.905371
1155.635042	-16.900651
1156.080687	-16.863501
1156.526674	-16.828414
1156.973007	-16.823328
1157.419683	-16.751136
1157.866705	-16.741472
1158.314072	-16.692184
1158.761786	-16.640925
1159.209845	-16.611096
1159.658251	-16.567989
1160.107004	-16.497882
1160.556104	-16.490705
1161.005553	-16.414689
1161.455349	-16.377716
1161.905494	-16.346840
1162.355989	-16.287354
1162.806832	-16.248409
1163.258026	-16.221961
1163.709570	-16.167517
1164.161464	-16.133620
1164.613710	-16.116079
1165.066307	-16.056383
1165.519256	-16.052144
1165.972558	-16.014789
1166.426212	-15.981410
1166.880219	-15.977588
1167.334580	-15.950138
1167.789295	-15.918447
1168.244364	-15.938658
1168.699788	-15.889651
1169.155567	-15.899015
1169.611702	-15.891732
1170.068193	-15.872497
1170.525041	-15.872877
1170.982245	-15.877599
1171.439807	-15.850251
1171.897726	-15.866443
1172.356004	-15.855009
1172.814640	-15.836792
1173.273635	-15.850285
1173.732989	-15.828690
1174.192703	-15.812861
1174.652778	-15.818997
1175.113213	-15.786338
1175.574009	-15.769723
1176.035167	-15.765369
1176.496687	-15.717738
1176.958569	-15.707591
1177.420814	-15.680250
1177.883422	-15.636512
1178.346394	-15.610222
1178.809730	-15.585051
1179.273430	-15.523950
1179.737496	-15.505375
1180.201927	-15.464769
1180.666723	-15.412351
1181.131886	-15.382870
1181.597416	-15.348776
1182.063312	-15.286472
1182.529576	-15.271497
1182.996209	-15.223355
1183.463209	-15.179539
1183.930579	-15.156100
1184.398317	-15.119883
1184.866426	-15.073936
1185.334904	-15.064368
1185.803754	-15.023676
1186.272974	-14.990716
1186.742566	-14.983475
1187.212529	-14.949559
1187.682865	-14.925562
1188.153574	-14.922465
1188.624656	-14.892230
1189.096112	-14.876408
1189.567942	-14.878350
1190.040147	-14.847379
1190.512726	-14.845101
1190.985681	-14.839616
1191.459012	-14.815881
1191.932720	-14.815654
1192.406804	-14.813824
1192.881265	-14.781264
1193.356104	-14.794914
1193.831322	-14.779476
1194.306918	-14.753874
1194.782893	-14.759946
1195.259248	-14.748980
1195.735982	-14.712811
1196.213097	-14.723770
1196.690593	-14.699036
1197.168471	-14.671316
1197.646730	-14.665410
1198.125371	-14.642084
1198.604395	-14.605619
1199.083803	-14.598683
1199.563594	-14.561754
1200.043769	-14.527843
1200.524329	-14.510081
1201.005273	-14.476277
1201.486604	-14.428961
1201.968320	-14.412800
1202.450422	-14.378917
1202.932912	-14.328222
1203.415789	-14.304394
1203.899054	-14.280648
1204.382707	-14.226894
1204.866748	-14.205418
1205.351179	-14.179291
1205.836000	-14.139438
1206.321211	-14.119557
1206.806812	-14.092885
1207.292805	-14.058335
1207.779189	-14.058985
1208.265965	-14.022685
1208.753134	-13.996856
1209.240696	-14.002178
1209.728651	-13.985641
1210.217000	-13.947537
1210.705744	-13.956420
1211.194883	-13.958115
1211.684417	-13.928288
1212.174347	-13.908361
1212.664673	-13.936864
1213.155396	-13.918078
1213.646516	-13.879748
1214.138034	-13.896698
1214.629951	-13.911344
1215.122266	-13.867544
1215.614980	-13.851029
1216.108095	-13.880841
1216.601609	-13.872409
1217.095524	-13.811919
1217.589841	-13.828600
1218.084559	-13.867502
1218.579679	-13.798883
1219.075202	-13.765151
1219.571128	-13.831672
1220.067458	-13.804413
1220.564191	-13.721701
1221.061330	-13.756504
1221.558874	-13.803590
1222.056823	-13.705412
1222.555178	-13.673403
1223.053940	-13.759095
1223.553109	-13.712137
1224.052686	-13.609689
1224.552671	-13.676237
1225.053065	-13.700689
1225.553867	-13.589664
1226.055079	-13.577576
1226.556702	-13.657220
1227.058735	-13.588440
1227.561179	-13.508073
1228.064035	-13.581803
1228.567303	-13.580383
1229.070983	-13.475887
1229.575077	-13.504958
1230.079585	-13.548482
1230.584506	-13.469453
1231.089842	-13.442352
1231.595594	-13.500586
1232.101761	-13.465923
1232.608345	-13.400632
1233.115345	-13.448082
1233.622762	-13.450452
1234.130597	-13.377355
1234.638851	-13.395350
1235.147523	-13.421216
1235.656615	-13.364129
1236.166126	-13.346351
1236.676058	-13.381179
1237.186411	-13.351313
1237.697185	-13.304052
1238.208381	-13.336065
1238.719999	-13.327479
1239.232040	-13.276468
1239.744505	-13.283249
1240.257394	-13.292804
1240.770708	-13.253722
1241.284446	-13.235986
1241.798610	-13.244796
1242.313201	-13.225729
1242.828218	-13.193438
1243.343662	-13.195136
1243.859534	-13.180875
1244.375834	-13.156252
1244.892563	-13.144223
1245.409721	-13.124908
1245.927309	-13.115638
1246.445327	-13.093213
1246.963777	-13.070982
1247.482657	-13.058684
1248.001970	-13.046629
1248.521716	-13.020097
1249.041894	-12.994089
1249.562506	-12.996994
1250.083553	-12.969521
1250.605034	-12.933772
1251.126950	-12.937566
1251.649302	-12.918337
1252.172091	-12.881512
1252.695316	-12.867457
1253.218979	-12.867335
1253.743079	-12.827197
1254.267619	-12.800523
1254.792597	-12.805925
1255.318015	-12.771577
1255.843874	-12.737453
1256.370173	-12.733600
1256.896913	-12.714952
1257.424095	-12.674454
1257.951720	-12.658458
1258.479787	-12.652903
1259.008298	-12.610086
1259.537254	-12.588909
1260.066654	-12.581630
1260.596499	-12.549424
1261.126790	-12.522309
1261.657527	-12.508165
1262.188711	-12.492136
1262.720342	-12.454501
1263.252422	-12.445186
1263.784950	-12.427223
1264.317928	-12.397726
1264.851355	-12.381804
1265.385232	-12.366891
1265.919560	-12.344825
1266.454340	-12.319968
1266.989572	-12.314768
1267.525256	-12.289623
1268.061394	-12.269515
1268.597985	-12.259444
1269.135031	-12.244460
1269.672531	-12.220706
1270.210487	-12.209975
1270.748899	-12.202218
1271.287768	-12.179383
1271.827094	-12.164316
1272.366877	-12.162813
1272.907119	-12.145288
1273.447820	-12.125937
1273.988981	-12.123682
1274.530601	-12.116916
1275.072683	-12.096297
1275.615226	-12.085973
1276.158230	-12.090993
1276.701697	-12.070968
1277.245627	-12.058879
1277.790021	-12.056717
1278.334879	-12.056580
1278.880202	-12.031052
1279.425991	-12.030049
1279.972245	-12.033003
1280.518966	-12.016629
1281.066155	-12.002628
1281.613811	-12.007982
1282.161936	-12.005151
1282.710529	-11.982194
1283.259593	-11.984726
1283.809126	-11.989296
1284.359131	-11.974292
1284.909607	-11.964335
1285.460555	-11.972345
1286.011976	-11.972604
1286.563870	-11.952292
1287.116237	-11.961359
1287.669080	-11.964526
1288.222397	-11.958472
1288.776191	-11.947850
1289.330460	-11.963127
1289.885207	-11.960739
1290.440431	-11.949736
1290.996133	-11.956727
1291.552314	-11.961611
1292.108975	-11.959449
1292.666115	-11.946753
1293.223737	-11.964916
1293.781839	-11.956501
1294.340424	-11.954307
1294.899491	-11.947845
1295.459041	-11.961639
1296.019075	-11.948829
1296.579593	-11.942173
1297.140597	-11.948770
1297.702086	-11.944734
1298.264061	-11.938133
1298.826524	-11.926373
1299.389474	-11.942719
1299.952912	-11.920641
1300.516839	-11.923980
1301.081255	-11.911066
1301.646162	-11.925692
1302.211559	-11.897943
1302.777448	-11.904982
1303.343829	-11.897154
1303.910702	-11.897964
1304.478069	-11.879099
1305.045930	-11.880970
1305.614285	-11.880096
1306.183136	-11.863795
1306.752483	-11.860853
1307.322326	-11.851123
1307.892666	-11.856014
1308.463504	-11.825856
1309.034841	-11.837219
1309.606677	-11.814764
1310.179012	-11.821601
1310.751849	-11.785867
1311.325186	-11.803068
1311.899025	-11.772744
1312.473366	-11.776026
1313.048211	-11.744712
1313.623559	-11.757610
1314.199412	-11.726445
1314.775770	-11.723465
1315.352634	-11.702222
1315.930004	-11.703620
1316.507881	-11.678232
1317.086266	-11.667956
1317.665159	-11.658764
1318.244562	-11.646105
1318.824474	-11.629995
1319.404897	-11.614340
1319.985831	-11.614116
1320.567276	-11.589836
1321.149234	-11.583886
1321.731706	-11.564802
1322.314691	-11.569446
1322.898190	-11.538360
1323.482205	-11.540719
1324.066736	-11.520808
1324.651783	-11.524903
1325.237347	-11.493205
1325.823430	-11.500515
1326.410031	-11.480999
1326.997151	-11.481682
1327.584791	-11.454089
1328.172952	-11.462829
1328.761634	-11.444673
1329.350839	-11.440675
1329.940566	-11.420750
1330.530817	-11.427871
1331.121592	-11.411707
1331.712891	-11.404235
1332.304716	-11.392939
1332.897068	-11.397558
1333.489946	-11.383834
1334.083352	-11.375165
1334.677287	-11.373107
1335.271750	-11.374845
1335.866744	-11.364745
1336.462268	-11.357130
1337.058323	-11.364259
1337.654910	-11.362146
1338.252029	-11.357330
1338.849682	-11.351473
1339.447869	-11.366322
1340.046591	-11.359994
1340.645848	-11.360908
1341.245641	-11.356888
1341.845972	-11.376779
1342.446840	-11.365898
1343.048246	-11.372039
1343.650191	-11.368898
1344.252677	-11.391523
1344.855702	-11.376384
1345.459269	-11.387148
1346.063379	-11.384679
1346.668030	-11.408203
1347.273226	-11.390441
1347.878965	-11.405434
1348.485250	-11.404295
1349.092080	-11.428376
1349.699456	-11.409753
1350.307380	-11.429519
1350.915851	-11.430475
1351.524871	-11.454454
1352.134441	-11.437574
1352.744560	-11.460149
1353.355231	-11.464604
1353.966453	-11.486607
1354.578227	-11.473195
1355.190555	-11.496796
1355.803436	-11.505648
1356.416872	-11.524307
1357.030863	-11.516006
1357.645411	-11.538566
1358.260515	-11.552164
1358.876177	-11.566386
1359.492397	-11.562942
1360.109176	-11.583044
1360.726516	-11.600502
1361.344416	-11.609392
1361.962877	-11.610241
1362.581901	-11.627247
1363.201487	-11.647085
1363.821637	-11.651070
1364.442352	-11.655076
1365.063632	-11.668077
1365.685478	-11.689667
1366.307891	-11.688807
1366.930871	-11.694840
1367.554420	-11.704605
1368.178538	-11.726632
1368.803226	-11.722282
1369.428485	-11.729902
1370.054315	-11.736917
1370.680717	-11.759680
1371.307693	-11.752788
1371.935242	-11.761821
1372.563366	-11.767057
1373.192065	-11.791190
1373.821341	-11.782601
1374.451193	-11.793700
1375.081623	-11.797332
1375.712632	-11.823263
1376.344221	-11.814068
1376.976389	-11.825702
1377.609139	-11.829544
1378.242470	-11.855419
1378.876384	-11.848293
1379.510881	-11.857825
1380.145963	-11.864258
1380.781629	-11.886501
1381.417881	-11.884272
1382.054720	-11.887108
1382.692147	-11.898094
1383.330161	-11.912537
1383.968765	-11.917957
1384.607959	-11.910760
1385.247743	-11.928369
1385.888119	-11.933313
1386.529087	-11.946428
1387.170648	-11.929969
1387.812804	-11.951189
1388.455554	-11.950001
1389.098899	-11.965862
1389.742842	-11.947066
1390.387381	-11.964216
1391.032519	-11.965653
1391.678256	-11.975823
1392.324592	-11.963988
1392.971529	-11.968207
1393.619068	-11.981093
1394.267208	-11.979740
1394.915952	-11.982731
1395.565300	-11.972874
1396.215253	-11.998804
1396.865812	-11.988839
1397.516977	-12.001823
1398.168749	-11.985185
1398.821130	-12.012960
1399.474120	-12.006773
1400.127719	-12.016153
1400.781930	-12.008918
1401.436752	-12.024912
1402.092186	-12.036893
1402.748234	-12.032503
1403.404897	-12.043237
1404.062174	-12.042903
1404.720067	-12.073473
1405.378577	-12.060576
1406.037705	-12.080920
1406.697451	-12.077149
1407.357817	-12.108072
1408.018803	-12.104288
1408.680410	-12.112229
1409.342639	-12.121604
1410.005492	-12.133461
1410.668968	-12.151217
1411.333068	-12.138989
1411.997795	-12.164433
1412.663147	-12.162991
1413.329127	-12.192053
1413.995736	-12.177892
1414.662973	-12.196512
1415.330840	-12.203941
1415.999339	-12.218249
1416.668469	-12.224839
1417.338232	-12.219518
1418.008628	-12.247546
1418.679659	-12.244592
1419.351325	-12.266925
1420.023628	-12.250777
1420.696568	-12.275570
1421.370145	-12.277825
1422.044362	-12.286720
1422.719219	-12.287196
1423.394717	-12.287438
1424.070856	-12.314260
1424.747638	-12.307351
1425.425064	-12.326928
1426.103134	-12.316763
1426.781850	-12.345462
1427.461212	-12.346441
1428.141221	-12.352295
1428.821878	-12.358059
1429.503185	-12.363274
1430.185141	-12.390855
1430.867749	-12.383054
1431.551008	-12.406684
1432.234920	-12.407758
1432.919486	-12.437790
1433.604707	-12.443348
1434.290583	-12.447490
1434.977116	-12.463754
1435.664307	-12.467065
1436.352156	-12.492873
1437.040664	-12.483211
1437.729833	-12.507954
1438.419663	-12.519098
1439.110156	-12.544238
1439.801312	-12.560760
1440.493132	-12.565511
1441.185617	-12.596292
1441.878768	-12.598159
1442.572586	-12.620408
1443.267072	-12.611800
1443.962228	-12.627129
1444.658053	-12.642482
1445.354549	-12.650585
1446.051717	-12.674587
1446.749558	-12.679585
1447.448073	-12.720820
1448.147263	-12.733537
1448.847128	-12.754915
1449.547671	-12.764655
1450.248891	-12.769557
1450.950789	-12.787968
1451.653368	-12.773402
1452.356627	-12.783061
1453.060568	-12.777658
1453.765192	-12.796393
1454.470500	-12.813855
1455.176492	-12.823343
1455.883170	-12.856800
1456.590534	-12.871380
1457.298586	-12.904101
1458.007327	-12.904656
1458.716758	-12.904062
1459.426880	-12.901113
1460.137693	-12.879996
1460.849199	-12.870405
1461.561398	-12.837358
1462.274293	-12.833976
1462.987883	-12.833618
1463.702170	-12.843748
1464.417155	-12.870031
1465.132838	-12.888208
1465.849222	-12.934540
1466.566306	-12.958256
1467.284093	-12.979192
1468.002582	-12.981722
1468.721775	-12.963936
1469.441674	-12.950117
1470.162278	-12.902662
1470.883590	-12.867307
1471.605609	-12.826782
1472.328338	-12.804139
1473.051777	-12.806907
1473.775928	-12.809299
1474.500790	-12.852533
1475.226367	-12.899343
1475.952657	-12.968261
1476.679663	-13.037962
1477.407386	-13.085695
1478.135826	-13.140813
1478.864985	-13.155175
1479.594863	-13.160170
1480.325463	-13.134255
1481.056784	-13.087111
1481.788828	-13.057783
1482.521597	-13.014559
1483.255090	-13.009333
1483.989309	-13.024043
1484.724256	-13.077886
1485.459931	-13.195981
1486.196336	-13.333383
1486.933471	-13.531962
1487.671337	-13.749857
1488.409937	-13.983929
1489.149270	-14.230383
1489.889337	-14.413571
1490.630141	-14.565954
1491.371682	-14.623778
1492.113961	-14.596753
1492.856979	-14.499317
1493.600738	-14.302383
1494.345238	-14.092423
1495.090481	-13.848670
1495.836467	-13.617516
1496.583198	-13.427567
1497.330675	-13.254429
1498.078899	-13.164056
1498.827872	-13.119433
1499.577593	-13.131724
1500.328065	-13.218911
1501.079289	-13.328162
1501.831265	-13.502168
1502.583995	-13.688068
1503.337480	-13.860375
1504.091721	-14.035427
1504.846719	-14.132801
1505.602475	-14.191046
1506.358991	-14.175251
1507.116268	-14.075860
1507.874306	-13.965417
1508.633108	-13.808171
1509.392673	-13.676378
1510.153004	-13.590623
1510.914101	-13.539983
1511.675965	-13.608754
1512.438599	-13.766346
1513.202002	-14.042013
1513.966176	-14.495294
1514.731122	-15.091158
1515.496842	-15.923521
1516.263336	-17.043867
1517.030607	-18.478994
1517.798654	-20.493757
1518.567479	-23.352233
1519.337083	-27.706382
1520.107468	-34.179317
1520.878634	-30.013120
1521.650584	-24.307258
1522.423317	-20.651214
1523.196836	-18.123521
1523.971141	-16.154782
1524.746233	-14.584732
1525.522115	-13.326193
1526.298786	-12.244606
1527.076249	-11.339386
1527.854504	-10.574306
1528.633553	-9.888093
1529.413397	-9.306937
1530.194037	-8.798465
1530.975474	-8.333264
1531.757709	-7.939026
1532.540745	-7.583389
1533.324581	-7.259876
1534.109220	-6.991344
1534.894662	-6.745504
1535.680909	-6.532243
1536.467961	-6.368855
1537.255821	-6.226201
1538.044489	-6.124173
1538.833967	-6.072249
1539.624256	-6.046696
1540.415357	-6.074429
1541.207271	-6.154923
1542.000000	-6.269336
1542.793545	-6.450392
1543.587907	-6.688077
1544.383087	-6.969613
1545.179088	-7.331853
1545.975909	-7.755506
1546.773552	-8.239028
1547.572019	-8.823017
1548.371311	-9.476511
1549.171428	-10.216546
1549.972373	-11.087433
1550.774147	-12.043124
1551.576751	-13.128627
1552.380185	-14.374859
1553.184453	-15.695040
1553.989554	-17.133383
1554.795490	-18.519953
1555.602263	-19.506649
1556.409873	-19.907302
1557.218322	-19.426586
1558.027612	-18.466834
1558.837743	-17.346445
1559.648717	-16.187925
1560.460536	-15.204656
1561.273200	-14.326136
1562.086710	-13.561147
1562.901069	-12.962992
1563.716278	-12.438675
1564.532337	-12.020145
1565.349249	-11.721746
1566.167014	-11.469381
1566.985634	-11.311681
1567.805111	-11.238883
1568.625444	-11.197708
1569.446637	-11.244721
1570.268690	-11.347052
1571.091605	-11.471872
1571.915382	-11.677151
1572.740024	-11.908951
1573.565532	-12.156116
1574.391907	-12.468270
1575.219150	-12.772758
1576.047262	-13.085039
1576.876246	-13.436242
1577.706103	-13.740267
1578.536833	-14.041547
1579.368439	-14.343867
1580.200922	-14.566631
1581.034282	-14.782215
1581.868522	-14.962119
1582.703643	-15.053786
1583.539646	-15.148064
1584.376532	-15.189816
1585.214304	-15.165992
1586.052962	-15.162640
1586.892508	-15.108307
1587.732943	-15.025783
1588.574269	-14.977876
1589.416487	-14.886224
1590.259599	-14.794038
1591.103605	-14.736694
1591.948508	-14.638947
1592.794309	-14.553467
1593.641009	-14.492724
1594.488609	-14.391275
1595.337112	-14.306821
1596.186518	-14.237658
1597.036829	-14.129070
1597.888047	-14.040657
1598.740172	-13.962502
1599.593207	-13.851609
1600.447153	-13.767540
1601.302010	-13.693687
1602.157782	-13.597002
1603.014469	-13.534723
1603.872072	-13.484019
1604.730593	-13.418579
1605.590034	-13.391819
1606.450397	-13.376760
1607.311681	-13.353220
1608.173890	-13.370820
1609.037024	-13.398243
1609.901085	-13.419933
1610.766075	-13.482566
1611.631995	-13.551016
1612.498846	-13.612335
1613.366630	-13.710693
1614.235349	-13.808866
1615.105004	-13.896024
1615.975596	-14.014640
1616.847128	-14.124731
1617.719600	-14.216775
1618.593014	-14.333660
1619.467372	-14.435187
1620.342675	-14.512823
1621.218924	-14.611028
1622.096122	-14.692964
1622.974270	-14.751587
1623.853369	-14.833013
1624.733420	-14.902308
1625.614427	-14.951330
1626.496389	-15.028176
1627.379308	-15.100301
1628.263187	-15.157481
1629.148026	-15.247431
1630.033828	-15.339214
1630.920593	-15.419342
1631.808324	-15.533040
1632.697022	-15.649389
1633.586688	-15.749383
1634.477324	-15.877736
1635.368932	-16.005638
1636.261514	-16.109494
1637.155070	-16.233637
1638.049602	-16.352820
1638.945113	-16.440390
1639.841603	-16.540544
1640.739075	-16.634637
1641.637529	-16.693297
1642.536968	-16.762560
1643.437393	-16.831890
1644.338806	-16.869650
1645.241209	-16.919163
1646.144602	-16.976607
1647.048988	-17.006683
1647.954368	-17.047340
1648.860744	-17.100188
1649.768118	-17.126548
1650.676491	-17.158110
1651.585865	-17.202452
1652.496241	-17.219233
1653.407621	-17.232148
1654.320008	-17.254942
1655.233401	-17.249356
1656.147804	-17.232280
1657.063218	-17.224834
1657.979645	-17.193742
1658.897085	-17.149981
1659.815542	-17.119976
1660.735016	-17.075653
1661.655509	-17.019337
1662.577023	-16.978105
1663.499560	-16.929239
1664.423121	-16.867356
1665.347709	-16.818397
1666.273324	-16.764604
1667.199969	-16.694800
1668.127645	-16.633876
1669.056353	-16.570992
1669.986097	-16.490358
1670.916877	-16.415334
1671.848695	-16.344333
1672.781553	-16.258824
1673.715452	-16.178119
1674.650395	-16.106582
1675.586383	-16.024011
1676.523418	-15.943107
1677.461501	-15.873886
1678.400635	-15.795757
1679.340821	-15.713775
1680.282061	-15.643358
1681.224357	-15.567518
1682.167710	-15.484214
1683.112122	-15.411548
1684.057595	-15.338691
1685.004132	-15.257302
1685.951732	-15.185291
1686.900400	-15.118424
1687.850135	-15.042254
1688.800940	-14.970874
1689.752818	-14.907729
1690.705768	-14.836494
1691.659795	-14.765471
1692.614898	-14.704700
1693.571081	-14.639636
1694.528345	-14.571019
1695.486691	-14.512361
1696.446122	-14.453455
1697.406640	-14.388462
1698.368245	-14.331502
1699.330941	-14.278447
1700.294729	-14.218516
1701.259611	-14.162834
1702.225588	-14.113958
1703.192664	-14.058935
1704.160838	-14.003756
1705.130114	-13.956756
1706.100493	-13.906882
1707.071977	-13.854322
1708.044568	-13.810330
1709.018268	-13.767234
1709.993079	-13.718480
1710.969003	-13.675338
1711.946041	-13.636426
1712.924196	-13.591686
1713.903469	-13.549486
1714.883862	-13.515248
1715.865378	-13.477767
1716.848017	-13.438819
1717.831783	-13.407990
1718.816677	-13.377115
1719.802701	-13.341221
1720.789857	-13.311089
1721.778147	-13.285025
1722.767573	-13.253607
1723.758136	-13.224000
1724.749840	-13.200923
1725.742685	-13.174234
1726.736673	-13.145065
1727.731808	-13.122879
1728.728090	-13.101557
1729.725521	-13.075472
1730.724105	-13.053101
1731.723842	-13.034421
1732.724735	-13.011091
1733.726785	-12.988029
1734.729995	-12.970903
1735.734366	-12.952239
1736.739902	-12.930718
1737.746603	-12.914019
1738.754472	-12.899021
1739.763510	-12.879996
1740.773721	-12.863181
1741.785105	-12.850969
1742.797665	-12.836221
1743.811403	-12.820120
1744.826321	-12.808186
1745.842422	-12.795661
1746.859706	-12.779655
1747.878177	-12.766526
1748.897835	-12.756082
1749.918685	-12.742768
1750.940726	-12.729711
1751.963963	-12.720227
1752.988395	-12.708960
1754.014027	-12.694996
1755.040860	-12.683703
1756.068895	-12.673383
1757.098135	-12.660221
1758.128583	-12.648327
1759.160240	-12.639770
1760.193109	-12.629853
1761.227191	-12.619109
1762.262488	-12.611580
1763.299004	-12.604555
1764.336740	-12.595402
1765.375697	-12.587784
1766.415880	-12.582243
1767.457288	-12.574756
1768.499926	-12.566974
1769.543794	-12.562362
1770.588895	-12.558051
1771.635231	-12.552129
1772.682805	-12.548088
1773.731619	-12.545710
1774.781674	-12.541241
1775.832973	-12.536251
1776.885519	-12.533393
1777.939312	-12.530114
1778.994357	-12.525429
1780.050654	-12.522614
1781.108207	-12.521480
1782.167017	-12.519127
1783.227087	-12.516750
1784.288418	-12.516404
1785.351013	-12.515826
1786.414875	-12.513778
1787.480006	-12.512535
1788.546407	-12.512144
1789.614082	-12.510750
1790.683032	-12.510030
1791.753259	-12.511669
1792.824767	-12.513709
1793.897557	-12.514767
1794.971632	-12.516158
1796.046994	-12.517822
1797.123645	-12.518269
1798.201588	-12.518583
1799.280824	-12.520639
1800.361357	-12.523359
1801.443188	-12.525810
1802.526320	-12.529082
1803.610756	-12.532836
1804.696497	-12.535847
1805.783546	-12.538888
1806.871906	-12.542943
1807.961578	-12.547262
1809.052565	-12.551342
1810.144870	-12.556494
1811.238494	-12.562763
1812.333441	-12.568853
1813.429713	-12.575146
1814.527311	-12.582032
1815.626239	-12.588300
1816.726499	-12.593592
1817.828094	-12.599465
1818.931025	-12.606316
1820.035295	-12.613107
1821.140906	-12.620105
1822.247862	-12.628123
1823.356165	-12.636003
1824.465816	-12.643232
1825.576819	-12.650973
1826.689175	-12.659648
1827.802888	-12.668319
1828.917960	-12.677174
1830.034394	-12.687607
1831.152191	-12.698719
1832.271354	-12.709222
1833.391887	-12.719561
1834.513790	-12.730460
1835.637068	-12.741714
1836.761722	-12.753460
1837.887755	-12.766405
1839.015169	-12.779885
1840.143968	-12.792838
1841.274153	-12.805710
1842.405727	-12.819198
1843.538693	-12.832953
1844.673053	-12.846636
1845.808810	-12.861112
1846.945966	-12.876174
1848.084525	-12.890369
1849.224488	-12.904166
1850.365858	-12.918692
1851.508638	-12.933956
1852.652831	-12.949461
1853.798438	-12.965380
1854.945463	-12.981828
1856.093909	-12.997909
1857.243777	-13.013662
1858.395071	-13.029851
1859.547794	-13.046127
1860.701947	-13.062352
1861.857533	-13.078589
1863.014556	-13.094806
1864.173018	-13.110509
1865.332922	-13.126126
1866.494270	-13.142356
1867.657065	-13.158804
1868.821309	-13.175226
1869.987006	-13.192103
1871.154158	-13.209124
1872.322768	-13.225580
1873.492839	-13.242415
1874.664373	-13.260325
1875.837373	-13.278983
1877.011841	-13.298460
1878.187782	-13.318362
1879.365197	-13.338127
1880.544089	-13.358221
1881.724460	-13.378737
1882.906315	-13.399867
1884.089655	-13.422372
1885.274483	-13.445713
1886.460803	-13.468599
1887.648616	-13.491626
1888.837927	-13.515463
1890.028736	-13.539417
1891.221049	-13.563741
1892.414866	-13.588965
1893.610192	-13.613980
1894.807028	-13.638383
1896.005379	-13.663515
1897.205246	-13.688827
1898.406633	-13.713200
1899.609542	-13.737407
1900.813977	-13.761798
1902.019940	-13.786057
1903.227434	-13.810765
1904.436462	-13.836098
1905.647028	-13.860996
1906.859133	-13.885274
1908.072781	-13.909364
1909.287976	-13.933489
1910.504719	-13.957555
1911.723013	-13.981575
1912.942863	-14.004857
1914.164270	-14.027569
1915.387238	-14.050271
1916.611770	-14.073231
1917.837868	-14.095913
1919.065536	-14.118205
1920.294777	-14.140571
1921.525594	-14.163857
1922.757989	-14.188517
1923.991967	-14.213477
1925.227529	-14.237656
1926.464679	-14.261398
1927.703420	-14.285285
1928.943755	-14.309083
1930.185688	-14.333123
1931.429221	-14.357701
1932.674356	-14.382214
1933.921099	-14.406080
1935.169451	-14.429748
1936.419415	-14.453648
1937.670996	-14.477735
1938.924195	-14.502086
1940.179017	-14.526557
1941.435463	-14.550203
1942.693538	-14.572960
1943.953245	-14.595970
1945.214586	-14.619579
1946.477566	-14.642592
1947.742186	-14.663919
1949.008451	-14.683835
1950.276363	-14.702682
1951.545926	-14.720525
1952.817143	-14.737745
1954.090017	-14.754641
1955.364551	-14.770681
1956.640749	-14.784954
1957.918615	-14.797380
1959.198150	-14.808688
1960.479359	-14.819371
1961.762244	-14.829485
1963.046810	-14.839288
1964.333059	-14.848629
1965.620995	-14.856262
1966.910621	-14.862387
1968.201940	-14.868208
1969.494956	-14.874596
1970.789672	-14.880872
1972.086091	-14.886086
1973.384217	-14.889912
1974.684053	-14.892807
1975.985602	-14.895056
1977.288869	-14.897424
1978.593855	-14.900157
1979.900566	-14.902988
1981.209003	-14.905644
1982.519171	-14.908732
1983.831073	-14.911619
1985.144712	-14.913903
1986.460093	-14.916047
1987.777217	-14.918672
1989.096089	-14.921058
1990.416713	-14.922010
1991.739092	-14.921455
1993.063228	-14.919722
1994.389127	-14.917031
1995.716791	-14.914077
1997.046223	-14.910963
1998.377428	-14.906793
1999.710409	-14.901408
2001.045169	-14.894206
2002.381713	-14.885857
2003.720043	-14.876354
2005.060163	-14.866423
2006.402077	-14.855476
2007.745788	-14.842552
2009.091301	-14.827541
2010.438618	-14.811501
2011.787743	-14.794169
2013.138680	-14.775341
2014.491433	-14.755166
2015.846005	-14.734347
2017.202399	-14.713340
2018.560621	-14.691572
2019.920673	-14.669087
2021.282558	-14.646372
2022.646281	-14.624664
2024.011846	-14.603995
2025.379256	-14.583822
2026.748515	-14.561667
2028.119626	-14.536981
2029.492594	-14.511736
2030.867422	-14.486938
2032.244114	-14.461162
2033.622673	-14.432566
2035.003104	-14.400802
2036.385411	-14.366960
2037.769597	-14.332120
2039.155665	-14.295898
2040.543621	-14.257156
2041.933467	-14.215677
2043.325208	-14.173118
2044.718847	-14.131474
2046.114389	-14.091788
2047.511837	-14.054779
2048.911195	-14.021710
2050.312467	-13.994074
2051.715657	-13.973164
2053.120769	-13.958395
2054.527807	-13.948276
2055.936775	-13.942965
2057.347677	-13.942930
2058.760516	-13.947017
2060.175297	-13.952296
2061.592025	-13.956365
2063.010701	-13.958922
2064.431332	-13.960030
2065.853921	-13.958104
2067.278472	-13.951262
2068.704988	-13.938273
2070.133475	-13.920235
2071.563936	-13.898636
2072.996375	-13.873265
2074.430796	-13.843470
2075.867204	-13.809239
2077.305603	-13.771410
2078.745996	-13.731247
2080.188389	-13.689443
2081.632784	-13.645885
2083.079187	-13.601278
2084.527601	-13.556893
2085.978030	-13.513176
2087.430480	-13.470956
2088.884954	-13.430888
2090.341455	-13.394276
2091.799990	-13.361435
2093.260561	-13.331259
2094.723173	-13.303261
2096.187831	-13.278729
2097.654538	-13.259229
2099.123300	-13.244123
2100.594119	-13.232740
2102.067001	-13.224141
2103.541950	-13.218148
2105.018971	-13.214470
2106.498067	-13.211316
2107.979243	-13.207606
2109.462503	-13.202772
2110.947853	-13.196096
2112.435295	-13.187393
2113.924836	-13.176351
2115.416478	-13.162675
2116.910227	-13.146103
2118.406087	-13.126254
2119.904063	-13.102795
2121.404158	-13.077718
2122.906378	-13.052757
2124.410727	-13.027477
2125.917210	-13.002564
2127.425831	-12.979877
2128.936594	-12.960155
2130.449505	-12.942484
2131.964567	-12.927310
2133.481786	-12.914735
2135.001166	-12.904095
2136.522711	-12.894926
2138.046427	-12.887339
2139.572317	-12.880689
2141.100388	-12.873237
2142.630642	-12.865065
2144.163085	-12.857829
2145.697722	-12.851625
2147.234558	-12.845530
2148.773596	-12.840192
2150.314842	-12.836494
2151.858301	-12.833940
2153.403977	-12.832062
2154.951875	-12.831067
2156.502000	-12.830883
2158.054357	-12.830953
2159.608950	-12.831106
2161.165785	-12.831964
2162.724866	-12.833139
2164.286198	-12.833827
2165.849786	-12.834426
2167.415635	-12.835566
2168.983749	-12.836939
2170.554134	-12.837205
2172.126795	-12.835287
2173.701737	-12.831986
2175.278964	-12.829194
2176.858481	-12.826433
2178.440294	-12.822903
2180.024408	-12.819870
2181.610827	-12.818287
2183.199557	-12.817556
2184.790602	-12.817051
2186.383968	-12.817682
2187.979660	-12.821108
2189.577683	-12.826626
2191.178041	-12.833652
2192.780741	-12.842692
2194.385787	-12.853508
2195.993185	-12.865367
2197.602939	-12.878347
2199.215054	-12.886754
