# 2022-03-22_10.28.21
# shape = sech2
# FWHM_ps = 0.11
# carrier_nm = 1542
# frep_MHz = 12126
# pow_mW = 8000
# GDD = 0.0
# propa_len = 0.12555555555555556
# untap_len = 0.01
# taper_len = 0.06555555555555556
# waist_len = 0.02
# uptap_len = 0.02
# untap_scale = 1.0
# waist_scale = 0.22631578947368425
# workingDir = NL_20110305_12 (Spirou)
# axis = slow
# window_ps = 10.0
# steps = 200
# points = 21700
# 
# wavelength [nm]	 power spectral density [dB]
600.043425	-80.554908
600.163550	-80.824507
600.283723	-80.993371
600.403943	-81.055067
600.524212	-81.045876
600.644529	-81.018842
600.764895	-81.027066
600.885308	-81.113736
601.005770	-81.313130
601.126280	-81.637162
601.246839	-82.084565
601.367446	-82.635990
601.488101	-83.251419
601.608804	-83.855207
601.729557	-84.375842
601.850357	-84.768784
601.971206	-85.043106
602.092104	-85.242361
602.213050	-85.431439
602.334045	-85.669980
602.455089	-86.021952
602.576181	-86.527548
602.697322	-87.193483
602.818511	-88.017529
602.939749	-88.959165
603.061036	-89.932742
603.182372	-90.885153
603.303757	-91.687188
603.425191	-92.265767
603.546673	-92.657063
603.668204	-92.974614
603.789785	-93.244438
603.911414	-93.405451
604.033092	-93.356347
604.154820	-93.016011
604.276596	-92.395782
604.398422	-91.536280
604.520297	-90.603678
604.642220	-89.704342
604.764193	-88.897237
604.886216	-88.163721
605.008287	-87.490424
605.130408	-86.835383
605.252578	-86.146406
605.374798	-85.373861
605.497066	-84.545032
605.619385	-83.690806
605.741752	-82.881359
605.864169	-82.144462
605.986636	-81.503236
606.109152	-80.957962
606.231718	-80.511373
606.354333	-80.151550
606.476998	-79.855856
606.599712	-79.608025
606.722476	-79.391023
606.845290	-79.183040
606.968154	-78.955378
607.091067	-78.697228
607.214030	-78.408078
607.337043	-78.088670
607.460106	-77.767886
607.583219	-77.476558
607.706381	-77.234678
607.829594	-77.056172
607.952856	-76.947246
608.076169	-76.904601
608.199531	-76.905427
608.322944	-76.932860
608.446407	-76.956190
608.569920	-76.956353
608.693483	-76.923892
608.817096	-76.857994
608.940759	-76.760597
609.064473	-76.650182
609.188237	-76.552542
609.312051	-76.478202
609.435916	-76.445713
609.559831	-76.468480
609.683796	-76.552639
609.807812	-76.698328
609.931878	-76.884934
610.055995	-77.103368
610.180162	-77.333127
610.304380	-77.555924
610.428648	-77.764611
610.552967	-77.972500
610.677337	-78.202473
610.801757	-78.473422
610.926228	-78.812829
611.050750	-79.240474
611.175323	-79.772041
611.299946	-80.418063
611.424620	-81.183541
611.549345	-82.078123
611.674121	-83.093467
611.798948	-84.211990
611.923826	-85.418951
612.048755	-86.612638
612.173734	-87.654167
612.298765	-88.312043
612.423847	-88.399327
612.548980	-87.892912
612.674165	-86.947387
612.799400	-85.807447
612.924687	-84.611455
613.050025	-83.476021
613.175414	-82.431980
613.300854	-81.515675
613.426346	-80.722057
613.551889	-80.036980
613.677484	-79.436142
613.803130	-78.910532
613.928827	-78.446709
614.054576	-78.024614
614.180377	-77.635451
614.306229	-77.269688
614.432132	-76.915057
614.558087	-76.562065
614.684094	-76.208450
614.810153	-75.868556
614.936263	-75.542319
615.062425	-75.248619
615.188639	-74.990688
615.314904	-74.774007
615.441222	-74.600552
615.567591	-74.469179
615.694012	-74.379166
615.820486	-74.332566
615.947011	-74.319058
616.073588	-74.341203
616.200217	-74.385652
616.326898	-74.452483
616.453632	-74.533867
616.580417	-74.627020
616.707255	-74.734879
616.834144	-74.864480
616.961086	-75.018343
617.088081	-75.207323
617.215127	-75.449466
617.342226	-75.752806
617.469378	-76.129743
617.596581	-76.596124
617.723837	-77.163462
617.851146	-77.838794
617.978507	-78.625129
618.105920	-79.524346
618.233386	-80.539505
618.360905	-81.677708
618.488476	-82.945887
618.616100	-84.386429
618.743777	-86.096565
618.871506	-88.247137
618.999288	-91.214769
619.127123	-96.002115
619.255011	-108.860883
619.382951	-100.675947
619.510945	-92.959963
619.638991	-88.923742
619.767090	-86.208690
619.895243	-84.230085
620.023448	-82.729774
620.151706	-81.571742
620.280017	-80.662680
620.408382	-79.936159
620.536799	-79.338577
620.665270	-78.824907
620.793794	-78.357968
620.922371	-77.909815
621.051002	-77.464723
621.179686	-77.010146
621.308423	-76.540767
621.437213	-76.073545
621.566057	-75.626244
621.694954	-75.216597
621.823905	-74.869363
621.952909	-74.593752
622.081967	-74.382562
622.211079	-74.237963
622.340244	-74.141492
622.469462	-74.076867
622.598735	-74.028144
622.728061	-73.980950
622.857441	-73.921675
622.986874	-73.843818
623.116361	-73.750583
623.245903	-73.654217
623.375498	-73.583639
623.505147	-73.558773
623.634850	-73.591174
623.764606	-73.694235
623.894417	-73.865552
624.024282	-74.084478
624.154201	-74.332547
624.284174	-74.589010
624.414202	-74.836641
624.544283	-75.060356
624.674419	-75.257634
624.804609	-75.435681
624.934853	-75.617965
625.065151	-75.821865
625.195504	-76.075205
625.325911	-76.409066
625.456373	-76.839933
625.586889	-77.364796
625.717460	-77.983128
625.848085	-78.674817
625.978764	-79.429933
626.109498	-80.224138
626.240287	-81.046781
626.371131	-81.899760
626.502029	-82.762449
626.632982	-83.588435
626.763989	-84.335669
626.895052	-84.915886
627.026169	-85.266267
627.157341	-85.355025
627.288568	-85.158825
627.419850	-84.678919
627.551187	-83.930826
627.682579	-83.004605
627.814026	-81.968915
627.945528	-80.880689
628.077085	-79.781235
628.208697	-78.712078
628.340364	-77.690228
628.472087	-76.745252
628.603865	-75.905926
628.735698	-75.173697
628.867586	-74.544904
628.999530	-74.002516
629.131529	-73.524580
629.263584	-73.084474
629.395694	-72.673956
629.527859	-72.285696
629.660080	-71.921328
629.792357	-71.578138
629.924689	-71.257828
630.057077	-70.970027
630.189520	-70.722323
630.322019	-70.523980
630.454574	-70.387007
630.587184	-70.319446
630.719851	-70.317515
630.852573	-70.377278
630.985351	-70.486843
631.118185	-70.631001
631.251075	-70.802208
631.384021	-71.000151
631.517023	-71.213174
631.650081	-71.453681
631.783195	-71.721547
631.916365	-72.021452
632.049592	-72.368519
632.182874	-72.781142
632.316213	-73.281305
632.449608	-73.899213
632.583059	-74.662614
632.716567	-75.595156
632.850131	-76.730214
632.983751	-78.099271
633.117428	-79.761413
633.251161	-81.828756
633.384951	-84.469276
633.518797	-87.908031
633.652700	-91.634526
633.786660	-91.276417
633.920676	-87.555326
634.054749	-84.345558
634.188879	-81.896230
634.323065	-79.961680
634.457308	-78.384383
634.591608	-77.063096
634.725965	-75.940881
634.860379	-74.974609
634.994850	-74.135595
635.129377	-73.396976
635.263962	-72.748740
635.398604	-72.189696
635.533303	-71.711250
635.668058	-71.310237
635.802872	-70.983653
635.937742	-70.727033
636.072669	-70.532627
636.207654	-70.393279
636.342696	-70.311341
636.477796	-70.285460
636.612953	-70.311398
636.748167	-70.385695
636.883439	-70.501596
637.018768	-70.646300
637.154155	-70.821997
637.289599	-71.034629
637.425101	-71.298839
637.560660	-71.621534
637.696277	-72.016998
637.831952	-72.499052
637.967685	-73.075261
638.103475	-73.753395
638.239324	-74.549890
638.375230	-75.465804
638.511194	-76.485938
638.647215	-77.553871
638.783295	-78.568937
638.919433	-79.372805
639.055629	-79.789375
639.191883	-79.770676
639.328195	-79.410362
639.464565	-78.837077
639.600994	-78.174556
639.737481	-77.491262
639.874025	-76.803285
640.010629	-76.134949
640.147290	-75.491977
640.284010	-74.878729
640.420789	-74.309976
640.557625	-73.796627
640.694521	-73.353294
640.831474	-72.985790
640.968487	-72.698608
641.105558	-72.492344
641.242687	-72.352499
641.379876	-72.277132
641.517123	-72.267024
641.654429	-72.320887
641.791793	-72.442783
641.929216	-72.641172
642.066699	-72.917745
642.204240	-73.268898
642.341840	-73.682806
642.479499	-74.138833
642.617217	-74.596693
642.754994	-75.028552
642.892830	-75.420243
643.030726	-75.769812
643.168680	-76.097978
643.306694	-76.425722
643.444767	-76.749489
643.582899	-77.031976
643.721091	-77.208498
643.859342	-77.207439
643.997652	-76.977223
644.136022	-76.523338
644.274451	-75.902861
644.412940	-75.196203
644.551488	-74.469189
644.690096	-73.766240
644.828763	-73.119835
644.967490	-72.546445
645.106277	-72.049325
645.245124	-71.625203
645.384030	-71.272401
645.522997	-70.992952
645.662023	-70.776737
645.801109	-70.624660
645.940255	-70.536794
646.079460	-70.509210
646.218726	-70.538198
646.358052	-70.623302
646.497438	-70.764205
646.636884	-70.957389
646.776391	-71.200241
646.915957	-71.503578
647.055584	-71.867924
647.195271	-72.310311
647.335019	-72.843779
647.474826	-73.482132
647.614695	-74.239395
647.754623	-75.121146
647.894612	-76.114302
648.034662	-77.194644
648.174772	-78.314344
648.314943	-79.355689
648.455174	-80.158110
648.595466	-80.535358
648.735819	-80.409559
648.876233	-79.874222
649.016707	-79.099656
649.157242	-78.232575
649.297838	-77.362191
649.438495	-76.544027
649.579213	-75.797186
649.719992	-75.134606
649.860832	-74.548580
650.001733	-74.014046
650.142695	-73.514352
650.283718	-73.035864
650.424803	-72.579632
650.565949	-72.160534
650.707156	-71.789345
650.848424	-71.486032
650.989754	-71.251904
651.131145	-71.089123
651.272597	-70.991280
651.414111	-70.946498
651.555687	-70.941280
651.697324	-70.953396
651.839022	-70.966548
651.980782	-70.981787
652.122604	-70.999335
652.264488	-71.032707
652.406433	-71.099370
652.548441	-71.200722
652.690510	-71.331979
652.832640	-71.482858
652.974833	-71.645111
653.117088	-71.821032
653.259405	-72.013648
653.401784	-72.233906
653.544224	-72.494709
653.686727	-72.797815
653.829293	-73.132080
653.971920	-73.502960
654.114609	-73.891691
654.257361	-74.288203
654.400175	-74.683994
654.543052	-75.083075
654.685991	-75.526383
654.828992	-76.069371
654.972056	-76.775103
655.115183	-77.699702
655.258372	-78.867416
655.401623	-80.253919
655.544937	-81.681360
655.688314	-82.662023
655.831754	-82.518776
655.975256	-81.229211
656.118822	-79.444582
656.262450	-77.622458
656.406141	-75.950028
656.549894	-74.459094
656.693711	-73.154714
656.837591	-72.033601
656.981534	-71.080587
657.125540	-70.286247
657.269610	-69.634109
657.413742	-69.103239
657.557938	-68.680451
657.702196	-68.340445
657.846519	-68.068523
657.990904	-67.852501
658.135353	-67.686564
658.279866	-67.563398
658.424441	-67.485195
658.569081	-67.457779
658.713784	-67.487293
658.858550	-67.578904
659.003381	-67.738503
659.148274	-67.961872
659.293232	-68.250282
659.438253	-68.606099
659.583339	-69.039788
659.728488	-69.572153
659.873701	-70.228637
660.018978	-71.042070
660.164318	-72.060094
660.309723	-73.340311
660.455192	-74.967198
660.600725	-77.039205
660.746323	-79.674294
660.891984	-82.687454
661.037710	-84.177079
661.183500	-82.179741
661.329354	-79.220815
661.475272	-76.698148
661.621255	-74.667477
661.767303	-73.026375
661.913415	-71.684984
662.059591	-70.583425
662.205833	-69.675721
662.352138	-68.928730
662.498509	-68.312997
662.644944	-67.802594
662.791443	-67.376396
662.938008	-67.019776
663.084638	-66.725017
663.231332	-66.493688
663.378091	-66.335922
663.524915	-66.254815
663.671804	-66.259275
663.818759	-66.354762
663.965778	-66.536677
664.112863	-66.800577
664.260012	-67.145867
664.407227	-67.573012
664.554507	-68.084180
664.701853	-68.695005
664.849264	-69.420669
664.996740	-70.287946
665.144282	-71.333056
665.291889	-72.605969
665.439561	-74.171615
665.587300	-76.123237
665.735103	-78.634116
665.882973	-82.018905
666.030908	-86.644114
666.178909	-88.975786
666.326976	-84.564525
666.475109	-80.584186
666.623307	-77.755638
666.771571	-75.652812
666.919902	-74.032945
667.068298	-72.756010
667.216761	-71.740526
667.365289	-70.932671
667.513884	-70.300439
667.662545	-69.810096
667.811272	-69.430311
667.960065	-69.142158
668.108925	-68.927038
668.257851	-68.784937
668.406843	-68.719298
668.555902	-68.731168
668.705027	-68.822751
668.854219	-68.990698
669.003478	-69.221929
669.152803	-69.516888
669.302195	-69.868447
669.451653	-70.272424
669.601179	-70.736038
669.750771	-71.269598
669.900430	-71.884224
670.050156	-72.606910
670.199949	-73.457075
670.349808	-74.438828
670.499735	-75.569114
670.649729	-76.858035
670.799790	-78.290601
670.949918	-79.824268
671.100114	-81.361919
671.250377	-82.723121
671.400707	-83.684192
671.551104	-83.982891
671.701569	-83.540449
671.852101	-82.620292
672.002700	-81.568109
672.153368	-80.605397
672.304102	-79.802673
672.454905	-79.142728
672.605775	-78.559637
672.756713	-77.987219
672.907718	-77.379914
673.058791	-76.735346
673.209933	-76.068285
673.361142	-75.418095
673.512419	-74.813585
673.663764	-74.265369
673.815177	-73.774769
673.966658	-73.347777
674.118207	-72.976479
674.269825	-72.663405
674.421510	-72.410401
674.573264	-72.227606
674.725086	-72.123469
674.876977	-72.104290
675.028936	-72.174213
675.180963	-72.332092
675.333059	-72.571667
675.485224	-72.882468
675.637457	-73.250016
675.789758	-73.673481
675.942129	-74.155303
676.094568	-74.714894
676.247075	-75.364638
676.399652	-76.122238
676.552298	-76.994192
676.705012	-77.990666
676.857795	-79.139501
677.010648	-80.490123
677.163569	-82.070074
677.316560	-83.782451
677.469619	-85.271257
677.622748	-85.687139
677.775946	-84.569742
677.929214	-82.646635
678.082551	-80.688341
678.235957	-78.959161
678.389432	-77.484117
678.542977	-76.249624
678.696592	-75.223956
678.850276	-74.361440
679.004030	-73.651164
679.157853	-73.065668
679.311746	-72.586579
679.465709	-72.212156
679.619742	-71.935863
679.773844	-71.746209
679.928017	-71.639336
680.082259	-71.605851
680.236571	-71.634786
680.390954	-71.716922
680.545406	-71.856639
680.699929	-72.053686
680.854522	-72.301094
681.009185	-72.593732
681.163918	-72.932249
681.318722	-73.323811
681.473596	-73.785457
681.628540	-74.332784
681.783555	-74.986161
681.938641	-75.755947
682.093797	-76.646006
682.249023	-77.656553
682.404321	-78.710748
682.559689	-79.631310
682.715128	-80.097377
682.870637	-79.780568
683.026218	-78.700297
683.181869	-77.218825
683.337591	-75.677901
683.493385	-74.247379
683.649249	-72.983414
683.805185	-71.890810
683.961191	-70.952120
684.117269	-70.150461
684.273418	-69.472145
684.429639	-68.912287
684.585930	-68.468082
684.742294	-68.142077
684.898728	-67.929624
685.055234	-67.833575
685.211812	-67.843408
685.368461	-67.956574
685.525182	-68.156952
685.681975	-68.437703
685.838839	-68.793343
685.995775	-69.239934
686.152783	-69.800474
686.309863	-70.510667
686.467014	-71.412885
686.624238	-72.543739
686.781534	-73.951805
686.938902	-75.714953
687.096342	-78.027891
687.253854	-81.269947
687.411438	-85.971030
687.569095	-87.926132
687.726824	-82.748380
687.884626	-78.555582
688.042499	-75.637570
688.200446	-73.501147
688.358465	-71.886242
688.516556	-70.641245
688.674720	-69.677424
688.832957	-68.933175
688.991266	-68.370834
689.149649	-67.968026
689.308104	-67.711133
689.466632	-67.585813
689.625233	-67.580756
689.783906	-67.679795
689.942653	-67.861341
690.101473	-68.086462
690.260367	-68.315244
690.419333	-68.512018
690.578372	-68.663391
690.737485	-68.778187
690.896672	-68.865252
691.055931	-68.918720
691.215264	-68.941233
691.374671	-68.929823
691.534151	-68.879116
691.693704	-68.787133
691.853332	-68.662698
692.013033	-68.514521
692.172807	-68.356853
692.332656	-68.192123
692.492578	-68.022360
692.652575	-67.854709
692.812645	-67.704977
692.972789	-67.610032
693.133007	-67.613440
693.293300	-67.747487
693.453666	-68.011734
693.614107	-68.372005
693.774622	-68.753560
693.935211	-69.073630
694.095875	-69.252022
694.256613	-69.234662
694.417426	-68.987612
694.578313	-68.510314
694.739274	-67.851775
694.900311	-67.097479
695.061421	-66.347492
695.222607	-65.676523
695.383868	-65.124438
695.545203	-64.699597
695.706613	-64.390412
695.868098	-64.169628
696.029658	-64.009739
696.191293	-63.896049
696.353003	-63.830880
696.514789	-63.824507
696.676649	-63.881984
696.838585	-64.004653
697.000596	-64.185701
697.162682	-64.421281
697.324844	-64.719084
697.487081	-65.091421
697.649394	-65.548625
697.811782	-66.078209
697.974246	-66.611953
698.136786	-67.040845
698.299401	-67.238187
698.462092	-67.126847
698.624859	-66.729927
698.787702	-66.155355
698.950621	-65.521417
699.113616	-64.912232
699.276686	-64.377929
699.439833	-63.940896
699.603056	-63.614003
699.766355	-63.397649
699.929731	-63.280094
700.093183	-63.238008
700.256711	-63.242960
700.420315	-63.270584
700.583996	-63.295308
700.747754	-63.302828
700.911588	-63.288110
701.075499	-63.264627
701.239486	-63.251149
701.403550	-63.262249
701.567691	-63.299497
701.731909	-63.344278
701.896203	-63.371516
702.060575	-63.362118
702.225024	-63.309343
702.389549	-63.217492
702.554152	-63.091208
702.718832	-62.941431
702.883589	-62.781406
703.048424	-62.643306
703.213335	-62.569084
703.378324	-62.600896
703.543391	-62.762944
703.708535	-63.058742
703.873757	-63.465038
704.039056	-63.927239
704.204433	-64.368783
704.369887	-64.704242
704.535420	-64.851364
704.701030	-64.736757
704.866718	-64.349816
705.032484	-63.754409
705.198328	-63.072079
705.364250	-62.407876
705.530250	-61.832064
705.696328	-61.367150
705.862485	-61.002583
706.028720	-60.722112
706.195033	-60.512980
706.361424	-60.373812
706.527894	-60.311977
706.694442	-60.336715
706.861069	-60.452862
707.027775	-60.657558
707.194559	-60.949605
707.361422	-61.341388
707.528363	-61.854154
707.695384	-62.509841
707.862483	-63.308500
708.029661	-64.206779
708.196918	-65.074586
708.364254	-65.683011
708.531670	-65.791143
708.699164	-65.337482
708.866738	-64.492643
709.034391	-63.489959
709.202123	-62.504663
709.369935	-61.627758
709.537826	-60.900715
709.705796	-60.334118
709.873847	-59.924100
710.041976	-59.662930
710.210186	-59.537644
710.378475	-59.539563
710.546844	-59.660069
710.715292	-59.894944
710.883821	-60.238812
711.052429	-60.685664
711.221118	-61.232281
711.389887	-61.871689
711.558735	-62.585023
711.727664	-63.318121
711.896673	-63.967845
712.065763	-64.386030
712.234932	-64.457904
712.404183	-64.176807
712.573513	-63.631424
712.742924	-62.945547
712.912416	-62.225692
713.081988	-61.559522
713.251641	-61.003816
713.421375	-60.594417
713.591190	-60.337257
713.761085	-60.226252
713.931061	-60.241999
714.101119	-60.365065
714.271257	-60.580573
714.441476	-60.877220
714.611777	-61.240361
714.782159	-61.639204
714.952622	-62.023250
715.123166	-62.339410
715.293792	-62.555721
715.464499	-62.663472
715.635288	-62.671691
715.806158	-62.582484
715.977110	-62.400854
716.148143	-62.143157
716.319259	-61.848597
716.490456	-61.566423
716.661735	-61.343213
716.833096	-61.203116
717.004538	-61.156169
717.176063	-61.202812
717.347670	-61.342092
717.519359	-61.565799
717.691130	-61.850796
717.862984	-62.150145
718.034920	-62.391947
718.206938	-62.504256
718.379039	-62.454904
718.551222	-62.267456
718.723488	-61.995501
718.895836	-61.692496
719.068267	-61.410668
719.240781	-61.183604
719.413377	-61.024825
719.586057	-60.933376
719.758819	-60.903052
719.931664	-60.923285
720.104593	-60.987117
720.277604	-61.097200
720.450699	-61.265574
720.623876	-61.500292
720.797137	-61.798764
720.970482	-62.144766
721.143910	-62.502631
721.317421	-62.805534
721.491016	-62.957328
721.664694	-62.865281
721.838456	-62.502718
722.012302	-61.956011
722.186231	-61.363270
722.360244	-60.828556
722.534342	-60.409916
722.708523	-60.138237
722.882788	-60.026564
723.057137	-60.072182
723.231570	-60.258579
723.406088	-60.550362
723.580689	-60.901013
723.755375	-61.259209
723.930146	-61.576859
724.105000	-61.831208
724.279940	-62.016873
724.454963	-62.131116
724.630072	-62.155393
724.805265	-62.069541
724.980543	-61.855735
725.155905	-61.516121
725.331353	-61.075266
725.506885	-60.577734
725.682503	-60.090227
725.858205	-59.680080
726.033993	-59.401252
726.209865	-59.282102
726.385823	-59.324800
726.561866	-59.513819
726.737995	-59.825231
726.914209	-60.212992
727.090508	-60.603101
727.266893	-60.908244
727.443364	-61.051248
727.619920	-61.012932
727.796562	-60.840868
727.973290	-60.615456
728.150103	-60.384330
728.327003	-60.161781
728.503988	-59.949321
728.681060	-59.752706
728.858218	-59.575046
729.035461	-59.425487
729.212791	-59.314406
729.390208	-59.244256
729.567710	-59.216134
729.745299	-59.228236
729.922975	-59.274718
730.100737	-59.322300
730.278586	-59.316052
730.456521	-59.206207
730.634543	-58.986604
730.812652	-58.692986
730.990848	-58.377521
731.169130	-58.090217
731.347500	-57.866938
731.525957	-57.734940
731.704500	-57.711081
731.883131	-57.805101
732.061850	-58.011683
732.240655	-58.310992
732.419548	-58.667887
732.598528	-59.035440
732.777596	-59.362324
732.956751	-59.581216
733.135994	-59.604979
733.315325	-59.373931
733.494744	-58.908813
733.674250	-58.292121
733.853844	-57.618757
734.033526	-56.961141
734.213296	-56.373647
734.393154	-55.899996
734.573101	-55.568956
734.753135	-55.392000
734.933258	-55.367881
735.113469	-55.491200
735.293769	-55.761745
735.474157	-56.180383
735.654633	-56.737315
735.835198	-57.389876
736.015852	-58.053923
736.196594	-58.600319
736.377426	-58.889557
736.558346	-58.826794
736.739355	-58.414610
736.920453	-57.753396
737.101640	-56.985967
737.282916	-56.234979
737.464282	-55.578208
737.645736	-55.047203
737.827280	-54.646834
738.008914	-54.376014
738.190637	-54.237785
738.372449	-54.238845
738.554351	-54.380686
738.736342	-54.647359
738.918424	-55.007794
739.100595	-55.421840
739.282855	-55.840581
739.465206	-56.202019
739.647647	-56.434640
739.830178	-56.486147
740.012799	-56.362031
740.195510	-56.123401
740.378311	-55.837019
740.561203	-55.545022
740.744185	-55.261889
740.927258	-54.995221
741.110421	-54.754635
741.293674	-54.547680
741.477018	-54.375220
741.660453	-54.238898
741.843979	-54.143602
742.027596	-54.094161
742.211303	-54.086304
742.395102	-54.100463
742.578991	-54.107372
742.762972	-54.088289
742.947044	-54.044537
743.131207	-53.996147
743.315461	-53.972251
743.499807	-53.998235
743.684244	-54.091628
743.868773	-54.250887
744.053394	-54.449508
744.238106	-54.637715
744.422910	-54.756031
744.607805	-54.754243
744.792793	-54.617318
744.977872	-54.377086
745.163044	-54.079375
745.348307	-53.765940
745.533663	-53.468167
745.719111	-53.207985
745.904651	-52.993991
746.090283	-52.825008
746.276008	-52.708912
746.461826	-52.662975
746.647735	-52.706103
746.833738	-52.849586
747.019833	-53.085355
747.206021	-53.385191
747.392302	-53.704546
747.578676	-53.981749
747.765143	-54.149398
747.951703	-54.157025
748.138356	-54.000370
748.325102	-53.728721
748.511941	-53.412587
748.698874	-53.109417
748.885900	-52.850798
749.073019	-52.653226
749.260232	-52.524888
749.447539	-52.467976
749.634939	-52.481477
749.822433	-52.561045
750.010021	-52.695959
750.197703	-52.865413
750.385479	-53.037836
750.573348	-53.174809
750.761312	-53.244461
750.949370	-53.228160
751.137523	-53.132841
751.325769	-52.984475
751.514110	-52.818173
751.702545	-52.668391
751.891075	-52.565806
752.079700	-52.523599
752.268419	-52.536905
752.457233	-52.591211
752.646142	-52.676284
752.835145	-52.779030
753.024244	-52.879354
753.213437	-52.951096
753.402726	-52.964097
753.592110	-52.902623
753.781589	-52.783224
753.971163	-52.642943
754.160833	-52.513272
754.350598	-52.417097
754.540459	-52.379485
754.730415	-52.426714
754.920467	-52.566684
755.110615	-52.777489
755.300858	-53.011334
755.491198	-53.215970
755.681633	-53.353605
755.872164	-53.395468
756.062792	-53.317683
756.253515	-53.118510
756.444335	-52.837699
756.635252	-52.537207
756.826264	-52.270076
757.017373	-52.068530
757.208579	-51.956481
757.399881	-51.958124
757.591280	-52.095335
757.782776	-52.377962
757.974368	-52.790130
758.166058	-53.287545
758.357844	-53.799381
758.549728	-54.231093
758.741708	-54.466221
758.933786	-54.418786
759.125961	-54.101176
759.318233	-53.618736
759.510603	-53.099631
759.703071	-52.642200
759.895635	-52.301560
760.088298	-52.106972
760.281058	-52.073269
760.473916	-52.201088
760.666872	-52.478403
760.859926	-52.886706
761.053078	-53.395974
761.246328	-53.957187
761.439676	-54.490198
761.633122	-54.891892
761.826667	-55.077380
762.020310	-55.019756
762.214052	-54.755988
762.407892	-54.368583
762.601831	-53.959558
762.795868	-53.620001
762.990004	-53.408053
763.184239	-53.335841
763.378573	-53.387018
763.573006	-53.540108
763.767538	-53.773633
763.962169	-54.053887
764.156900	-54.333778
764.351729	-54.578602
764.546658	-54.790928
764.741687	-54.998213
764.936815	-55.216783
765.132042	-55.434871
765.327370	-55.640529
765.522797	-55.835493
765.718324	-56.018811
765.913950	-56.155822
766.109677	-56.192903
766.305504	-56.111599
766.501431	-55.931621
766.697458	-55.680766
766.893586	-55.388516
767.089814	-55.102632
767.286142	-54.890107
767.482571	-54.815086
767.679100	-54.924376
767.875730	-55.240193
768.072461	-55.771816
768.269293	-56.532861
768.466225	-57.524329
768.663259	-58.666425
768.860393	-59.723713
769.057629	-60.303336
769.254966	-60.126988
769.452404	-59.350471
769.649944	-58.361479
769.847585	-57.449733
770.045328	-56.762148
770.243172	-56.362421
770.441118	-56.265042
770.639166	-56.472095
770.837315	-56.988134
771.035567	-57.814470
771.233920	-58.937973
771.432376	-60.314777
771.630934	-61.779940
771.829594	-62.909809
772.028356	-63.183659
772.227220	-62.601080
772.426188	-61.683285
772.625257	-60.857782
772.824430	-60.301931
773.023705	-60.067572
773.223083	-60.184353
773.422563	-60.656465
773.622147	-61.428273
773.821834	-62.358791
774.021624	-63.207250
774.221517	-63.675489
774.421513	-63.610573
774.621613	-63.175914
774.821816	-62.678224
775.022122	-62.367069
775.222532	-62.368691
775.423046	-62.682645
775.623664	-63.241399
775.824385	-63.942659
776.025211	-64.573934
776.226140	-64.795457
776.427173	-64.353155
776.628311	-63.368032
776.829553	-62.233403
777.030899	-61.241290
777.232350	-60.513961
777.433905	-60.115045
777.635564	-60.092581
777.837328	-60.439635
778.039197	-61.056924
778.241171	-61.741540
778.443250	-62.143992
778.645433	-61.917624
778.847722	-61.071202
779.050116	-59.963145
779.252615	-58.936301
779.455219	-58.141288
779.657929	-57.597267
779.860744	-57.293045
780.063665	-57.214769
780.266691	-57.327582
780.469823	-57.557818
780.673061	-57.777892
780.876405	-57.822873
781.079855	-57.569025
781.283410	-57.024403
781.487072	-56.315318
781.690840	-55.611058
781.894715	-55.031080
782.098695	-54.629647
782.302783	-54.425969
782.506976	-54.401664
782.711277	-54.489640
782.915684	-54.601611
783.120198	-54.638634
783.324818	-54.518014
783.529546	-54.219311
783.734381	-53.780462
783.939322	-53.280610
784.144372	-52.814469
784.349528	-52.449282
784.554792	-52.211566
784.760163	-52.102845
784.965642	-52.104726
785.171228	-52.172968
785.376922	-52.230378
785.582724	-52.181168
785.788634	-51.968617
785.994651	-51.608992
786.200777	-51.167036
786.407011	-50.717583
786.613353	-50.331720
786.819804	-50.064436
787.026363	-49.943663
787.233030	-49.960949
787.439806	-50.081113
787.646691	-50.251801
787.853684	-50.394292
788.060786	-50.406655
788.267997	-50.213999
788.475317	-49.824939
788.682746	-49.322787
788.890285	-48.813399
789.097932	-48.378674
789.305689	-48.066431
789.513555	-47.900908
789.721531	-47.880578
789.929617	-47.976592
790.137812	-48.143610
790.346117	-48.321072
790.554531	-48.442509
790.763056	-48.442482
790.971691	-48.274818
791.180436	-47.949972
791.389291	-47.538794
791.598256	-47.129819
791.807332	-46.794805
792.016518	-46.569618
792.225815	-46.452901
792.435222	-46.421988
792.644740	-46.441974
792.854369	-46.470157
793.064109	-46.474898
793.273960	-46.446627
793.483922	-46.388017
793.693995	-46.296652
793.904180	-46.164598
794.114475	-45.998402
794.324882	-45.824136
794.535401	-45.663094
794.746031	-45.519862
794.956774	-45.389832
795.167627	-45.260761
795.378593	-45.116848
795.589671	-44.952953
795.800861	-44.789308
796.012162	-44.667262
796.223577	-44.617556
796.435103	-44.638277
796.646742	-44.701074
796.858493	-44.765276
797.070357	-44.784830
797.282334	-44.721331
797.494423	-44.561870
797.706626	-44.326420
797.918941	-44.048957
798.131369	-43.765473
798.343911	-43.518937
798.556566	-43.355015
798.769334	-43.306408
798.982215	-43.378879
799.195210	-43.543663
799.408319	-43.736469
799.621541	-43.871195
799.834877	-43.869874
800.048327	-43.704563
800.261890	-43.409208
800.475568	-43.054927
800.689360	-42.716873
800.903266	-42.454314
801.117287	-42.306760
801.331422	-42.292444
801.545671	-42.406410
801.760036	-42.613739
801.974514	-42.842627
802.189108	-42.997123
802.403816	-42.996773
802.618640	-42.826095
802.833578	-42.535638
803.048632	-42.201709
803.263800	-41.892393
803.479085	-41.659244
803.694484	-41.531939
803.909999	-41.519296
804.125630	-41.611426
804.341376	-41.774299
804.557239	-41.946311
804.773217	-42.051852
804.989311	-42.040564
805.205521	-41.913963
805.421847	-41.711571
805.638290	-41.486308
805.854849	-41.280715
806.071524	-41.116894
806.288316	-41.000082
806.505225	-40.930791
806.722250	-40.908573
806.939393	-40.927174
807.156652	-40.966768
807.374028	-41.000426
807.591521	-41.009897
807.809132	-40.993724
808.026859	-40.958390
808.244705	-40.910845
808.462667	-40.850456
808.680748	-40.764639
808.898946	-40.639113
809.117261	-40.479879
809.335695	-40.317739
809.554246	-40.190481
809.772916	-40.124845
809.991704	-40.131851
810.210610	-40.201208
810.429634	-40.303591
810.648777	-40.401523
810.868039	-40.460591
811.087419	-40.448771
811.306918	-40.343832
811.526535	-40.152576
811.746272	-39.918221
811.966127	-39.705139
812.186102	-39.570886
812.406196	-39.546631
812.626409	-39.626559
812.846742	-39.768756
813.067194	-39.907198
813.287766	-39.978534
813.508457	-39.947243
813.729269	-39.813183
813.950200	-39.606254
814.171251	-39.378548
814.392422	-39.192536
814.613714	-39.100223
814.835126	-39.127619
815.056658	-39.262316
815.278311	-39.448881
815.500084	-39.604095
815.721978	-39.651459
815.943993	-39.560366
816.166128	-39.360093
816.388385	-39.115011
816.610762	-38.891740
816.833261	-38.739716
817.055881	-38.691684
817.278623	-38.760315
817.501486	-38.924965
817.724471	-39.123751
817.947577	-39.272676
818.170805	-39.305633
818.394155	-39.207751
818.617627	-39.020696
818.841221	-38.812651
819.064937	-38.640829
819.288775	-38.535191
819.512736	-38.504946
819.736819	-38.547315
819.961025	-38.641743
820.185354	-38.743937
820.409805	-38.804801
820.634379	-38.798689
820.859076	-38.735787
821.083897	-38.650372
821.308840	-38.577241
821.533907	-38.532183
821.759097	-38.504676
821.984411	-38.474593
822.209848	-38.432535
822.435409	-38.384110
822.661093	-38.337794
822.886902	-38.301321
823.112834	-38.287433
823.338891	-38.309811
823.565072	-38.373623
823.791377	-38.464937
824.017807	-38.545506
824.244361	-38.559523
824.471039	-38.470168
824.697843	-38.297728
824.924771	-38.107983
825.151824	-37.968508
825.379002	-37.920144
825.606306	-37.972350
825.833734	-38.108101
826.061288	-38.290517
826.288967	-38.461621
826.516772	-38.552356
826.744703	-38.510246
826.972759	-38.337880
827.200941	-38.104906
827.429249	-37.906959
827.657683	-37.813082
827.886243	-37.841630
828.114930	-37.961786
828.343743	-38.119865
828.572682	-38.260042
828.801748	-38.337714
829.030941	-38.327255
829.260260	-38.234754
829.489706	-38.101230
829.719280	-37.981385
829.948980	-37.922836
830.178808	-37.939749
830.408763	-37.999844
830.638845	-38.046432
830.869055	-38.045898
831.099393	-38.009262
831.329858	-37.969014
831.560451	-37.952247
831.791173	-37.976674
832.022022	-38.046267
832.252999	-38.140987
832.484105	-38.221125
832.715339	-38.237119
832.946702	-38.148989
833.178193	-37.969817
833.409813	-37.776478
833.641561	-37.657468
833.873439	-37.661890
834.105445	-37.792198
834.337581	-38.013866
834.569846	-38.261674
834.802241	-38.444159
835.034764	-38.476091
835.267418	-38.328731
835.500201	-38.060594
835.733114	-37.788032
835.966157	-37.624968
836.199329	-37.628348
836.432632	-37.786063
836.666065	-38.033489
836.899629	-38.281410
837.133323	-38.444456
837.367147	-38.464716
837.601102	-38.340643
837.835188	-38.138377
838.069405	-37.955427
838.303752	-37.869737
838.538231	-37.911741
838.772841	-38.051338
839.007582	-38.211597
839.242455	-38.314137
839.477459	-38.331536
839.712595	-38.288316
839.947863	-38.225074
840.183263	-38.179070
840.418794	-38.178334
840.654458	-38.228344
840.890254	-38.302844
841.126182	-38.359215
841.362242	-38.361067
841.598435	-38.306427
841.834761	-38.236701
842.071220	-38.212443
842.307811	-38.264562
842.544536	-38.373264
842.781393	-38.486274
843.018384	-38.548593
843.255508	-38.527986
843.492765	-38.440743
843.730156	-38.345691
843.967681	-38.299287
844.205339	-38.336547
844.443132	-38.463664
844.681058	-38.638601
844.919118	-38.771050
845.157313	-38.777950
845.395642	-38.651051
845.634105	-38.469025
845.872703	-38.341076
846.111436	-38.344565
846.350303	-38.492007
846.589306	-38.730503
846.828443	-38.958744
847.067716	-39.058645
847.307124	-38.961971
847.546667	-38.715501
847.786345	-38.458552
848.026160	-38.332404
848.266110	-38.410036
848.506195	-38.672604
848.746417	-39.014055
848.986775	-39.274670
849.227269	-39.311358
849.467899	-39.103936
849.708666	-38.777657
849.949569	-38.506760
850.190609	-38.421103
850.431785	-38.571941
850.673099	-38.909747
850.914549	-39.281976
851.156137	-39.502260
851.397861	-39.471642
851.639723	-39.237283
851.881723	-38.949186
852.123860	-38.757585
852.366135	-38.748526
852.608547	-38.927230
852.851098	-39.218725
853.093786	-39.473334
853.336613	-39.556458
853.579578	-39.467247
853.822681	-39.313962
854.065923	-39.197779
854.309304	-39.173962
854.552823	-39.240348
854.796481	-39.348092
855.040278	-39.431933
855.284215	-39.451658
855.528290	-39.409227
855.772505	-39.367848
856.016859	-39.399414
856.261353	-39.508608
856.505987	-39.619892
856.750760	-39.640802
856.995673	-39.532456
857.240727	-39.351700
857.485920	-39.213096
857.731254	-39.208416
857.976729	-39.367244
858.222343	-39.645066
858.468099	-39.902509
858.713995	-39.959706
858.960032	-39.753055
859.206211	-39.399324
859.452530	-39.101563
859.698991	-39.022983
859.945593	-39.219367
860.192336	-39.623257
860.439222	-40.044834
860.686248	-40.217681
860.933417	-40.002188
861.180728	-39.551444
861.428181	-39.142697
861.675776	-38.967929
861.923514	-39.102243
862.171394	-39.495984
862.419417	-39.955482
862.667582	-40.209046
862.915890	-40.088465
863.164342	-39.695067
863.412936	-39.298089
863.661674	-39.102528
863.910555	-39.168434
864.159579	-39.435812
864.408747	-39.747304
864.658059	-39.899857
864.907515	-39.802600
865.157114	-39.562299
865.406858	-39.352521
865.656746	-39.278986
865.906778	-39.349171
866.156955	-39.473621
866.407277	-39.537811
866.657743	-39.475557
866.908354	-39.321825
867.159110	-39.191513
867.410011	-39.186655
867.661057	-39.304395
867.912249	-39.431153
868.163586	-39.422339
868.415069	-39.234294
868.666697	-38.972412
868.918472	-38.790193
869.170392	-38.784928
869.422458	-38.963756
869.674671	-39.222098
869.927030	-39.355112
870.179536	-39.198994
870.432188	-38.809389
870.684987	-38.421902
870.937933	-38.245975
871.191026	-38.352607
871.444266	-38.671702
871.697653	-39.002150
871.951188	-39.085142
872.204870	-38.814020
872.458700	-38.363311
872.712677	-37.995839
872.966803	-37.879706
873.221076	-38.034880
873.475498	-38.338456
873.730068	-38.564429
873.984787	-38.522948
874.239654	-38.224256
874.494669	-37.869897
874.749834	-37.665120
875.005147	-37.678807
875.260610	-37.836730
875.516222	-37.971720
875.771983	-37.934388
876.027894	-37.723735
876.283954	-37.474931
876.540164	-37.326971
876.796524	-37.339517
877.053033	-37.459484
877.309693	-37.537851
877.566503	-37.441243
877.823464	-37.181443
878.080575	-36.908748
878.337837	-36.781436
878.595249	-36.844555
878.852813	-37.011540
879.110528	-37.112050
879.368393	-37.007715
879.626410	-36.721845
879.884579	-36.420383
880.142899	-36.261364
880.401371	-36.306893
880.659994	-36.500211
880.918770	-36.660623
881.177698	-36.601563
881.436778	-36.313762
881.696010	-35.974891
881.955395	-35.780339
882.214933	-35.808413
882.474623	-35.994792
882.734467	-36.173366
882.994463	-36.171877
883.254613	-35.942722
883.514916	-35.622446
883.775372	-35.399339
884.035982	-35.375551
884.296746	-35.520866
884.557664	-35.686954
884.818735	-35.701380
885.079961	-35.525118
885.341341	-35.268653
885.602876	-35.081472
885.864565	-35.043546
886.126409	-35.121223
886.388407	-35.202979
886.650561	-35.182183
886.912870	-35.041404
887.175334	-34.867620
887.437953	-34.762740
887.700728	-34.759278
887.963658	-34.800633
888.226745	-34.782228
888.489987	-34.651104
888.753385	-34.470422
889.016940	-34.357136
889.280651	-34.373859
889.544518	-34.474986
889.808543	-34.536206
890.072723	-34.446252
890.337061	-34.207608
890.601556	-33.942339
890.866208	-33.803305
891.131017	-33.867847
891.395984	-34.072014
891.661109	-34.224408
891.926391	-34.145607
892.191831	-33.854200
892.457429	-33.536223
892.723186	-33.362991
892.989100	-33.403020
893.255173	-33.600259
893.521405	-33.779227
893.787796	-33.751844
894.054345	-33.498185
894.321053	-33.189559
894.587921	-33.008808
894.854948	-33.017764
895.122134	-33.150033
895.389480	-33.263401
895.656986	-33.233013
895.924651	-33.054492
896.192477	-32.838104
896.460463	-32.698436
896.728609	-32.672774
896.996915	-32.705959
897.265382	-32.709233
897.534010	-32.639758
897.802799	-32.528405
898.071749	-32.441311
898.340860	-32.402812
898.610132	-32.373689
898.879566	-32.300503
899.149162	-32.174535
899.418919	-32.048552
899.688838	-31.992661
899.958919	-32.025937
900.229162	-32.093020
900.499568	-32.087566
900.770136	-31.941246
901.040867	-31.711546
901.311761	-31.535350
901.582817	-31.510786
901.854037	-31.627638
902.125420	-31.764150
902.396966	-31.766592
902.668676	-31.585068
902.940550	-31.323300
903.212587	-31.144483
903.484788	-31.145065
903.757153	-31.293525
904.029683	-31.440598
904.302377	-31.421784
904.575236	-31.223987
904.848259	-30.988769
905.121447	-30.862930
905.394800	-30.896480
905.668319	-31.027295
905.942002	-31.117674
906.215852	-31.056120
906.489866	-30.870043
906.764047	-30.698646
907.038393	-30.641802
907.312906	-30.690608
907.587584	-30.758178
907.862429	-30.752367
908.137441	-30.651722
908.412619	-30.518799
908.687964	-30.438589
908.963476	-30.435883
909.239155	-30.453432
909.515002	-30.422381
909.791015	-30.335884
910.067197	-30.248055
910.343546	-30.212939
910.620063	-30.230073
910.896748	-30.239451
911.173601	-30.173159
911.450623	-30.036013
911.727813	-29.916349
912.005171	-29.896451
912.282699	-29.974021
912.560395	-30.055584
912.838261	-30.022411
913.116296	-29.851424
913.394500	-29.648951
913.672874	-29.552778
913.951418	-29.617758
914.230131	-29.762902
914.509015	-29.828257
914.788068	-29.715849
915.067292	-29.490044
915.346687	-29.313454
915.626252	-29.295975
915.905988	-29.418290
916.185895	-29.541240
916.465973	-29.517678
916.746223	-29.347012
917.026644	-29.164172
917.307236	-29.093937
917.588000	-29.156269
917.868937	-29.257664
918.150045	-29.270128
918.431325	-29.157213
918.712778	-29.013875
918.994404	-28.950476
919.276202	-28.983233
919.558173	-29.033852
919.840317	-29.010021
920.122634	-28.898359
920.405125	-28.782137
920.687789	-28.752741
920.970627	-28.806790
921.253639	-28.842552
921.536824	-28.767060
921.820184	-28.604698
922.103718	-28.468096
922.387427	-28.448436
922.671310	-28.532676
922.955368	-28.599329
923.239601	-28.525587
923.524009	-28.334294
923.808592	-28.168482
924.093351	-28.134527
924.378285	-28.217505
924.663396	-28.297406
924.948682	-28.249564
925.234144	-28.082723
925.519782	-27.931441
925.805597	-27.905103
926.091589	-27.985115
926.377757	-28.049258
926.664102	-27.994090
926.950624	-27.847376
927.237323	-27.735454
927.524200	-27.747318
927.811255	-27.841513
928.098487	-27.885436
928.385897	-27.796463
928.673485	-27.640873
928.961251	-27.557348
929.249196	-27.608892
929.537319	-27.721362
929.825621	-27.745698
930.114102	-27.620319
930.402762	-27.448382
930.691601	-27.378017
930.980620	-27.452309
931.269818	-27.568409
931.559196	-27.571344
931.848753	-27.424441
932.138491	-27.253139
932.428409	-27.200152
932.718508	-27.280649
933.008787	-27.373106
933.299246	-27.342512
933.589887	-27.193892
933.880709	-27.059470
934.171712	-27.043520
934.462896	-27.122161
934.754262	-27.167664
935.045810	-27.089653
935.337539	-26.948731
935.629451	-26.874811
935.921545	-26.915669
936.213822	-26.989261
936.506281	-26.973712
936.798922	-26.847475
937.091747	-26.723194
937.384755	-26.717406
937.677946	-26.813470
937.971321	-26.874448
938.264879	-26.794075
938.558621	-26.629446
938.852547	-26.533005
939.146657	-26.585044
939.440952	-26.711066
939.735431	-26.742531
940.030095	-26.612458
940.324943	-26.440821
940.619977	-26.383776
940.915196	-26.472110
941.210600	-26.582310
941.506189	-26.562461
941.801965	-26.412005
942.097926	-26.280133
942.394074	-26.279132
942.690407	-26.373067
942.986927	-26.423007
943.283634	-26.341359
943.580527	-26.204250
943.877608	-26.147663
944.174875	-26.204642
944.472330	-26.271678
944.769972	-26.233292
945.067802	-26.105364
945.365820	-26.012822
945.664026	-26.038921
945.962420	-26.123785
946.261002	-26.128131
946.559773	-26.006716
946.858733	-25.870007
947.157881	-25.844290
947.457219	-25.927618
947.756746	-25.990081
948.056462	-25.916033
948.356368	-25.756224
948.656464	-25.661626
948.956749	-25.702441
949.257225	-25.793826
949.557891	-25.788863
949.858748	-25.658802
950.159796	-25.526590
950.461034	-25.511482
950.762463	-25.593200
951.064084	-25.637259
951.365896	-25.554333
951.667900	-25.417053
951.970095	-25.361730
952.272483	-25.419930
952.575063	-25.490788
952.877835	-25.456965
953.180799	-25.332281
953.483956	-25.242287
953.787307	-25.264631
954.090850	-25.339869
954.394586	-25.347020
954.698516	-25.256471
955.002640	-25.160616
955.306957	-25.151509
955.611469	-25.208132
955.916174	-25.225597
956.221074	-25.155357
956.526169	-25.070987
956.831458	-25.063992
957.136942	-25.122366
957.442622	-25.143339
957.748496	-25.063202
958.054567	-24.955658
958.360833	-24.937365
958.667294	-25.016873
958.973952	-25.078418
959.280806	-25.014831
959.587857	-24.873316
959.895104	-24.798881
960.202548	-24.857778
960.510189	-24.957206
960.818027	-24.953954
961.126062	-24.830825
961.434295	-24.715918
961.742726	-24.718720
962.051355	-24.806548
962.360182	-24.846941
962.669207	-24.775465
962.978431	-24.671348
963.287854	-24.639726
963.597475	-24.686247
963.907296	-24.722184
964.217315	-24.682270
964.527535	-24.610722
964.837954	-24.585143
965.148573	-24.607191
965.459392	-24.612618
965.770411	-24.565793
966.081630	-24.513269
966.393051	-24.514004
966.704672	-24.547238
967.016494	-24.535232
967.328517	-24.462074
967.640742	-24.401818
967.953169	-24.422887
968.265797	-24.487302
968.578627	-24.486767
968.891660	-24.389988
969.204895	-24.299500
969.518332	-24.315497
969.831972	-24.407692
970.145816	-24.440569
970.459862	-24.343389
970.774112	-24.217159
971.088565	-24.199293
971.403223	-24.290876
971.718084	-24.357519
972.033149	-24.293656
972.348419	-24.163111
972.663893	-24.109951
972.979572	-24.168892
973.295456	-24.235119
973.611546	-24.204804
973.927840	-24.106452
974.244340	-24.049023
974.561046	-24.072037
974.877958	-24.102239
975.195076	-24.069774
975.512401	-24.003448
975.829932	-23.973209
976.147670	-23.984894
976.465615	-23.975746
976.783767	-23.915216
977.102126	-23.860220
977.420693	-23.864632
977.739468	-23.893545
978.058451	-23.867652
978.377642	-23.782051
978.697041	-23.725578
979.016649	-23.753747
979.336466	-23.804159
979.656492	-23.776121
979.976727	-23.677692
980.297171	-23.619163
980.617825	-23.660556
980.938689	-23.722141
981.259763	-23.691420
981.581048	-23.586767
981.902542	-23.532186
982.224248	-23.582277
982.546164	-23.648838
982.868291	-23.617269
983.190630	-23.517640
983.513180	-23.474886
983.835942	-23.530614
984.158916	-23.588809
984.482101	-23.552427
984.805500	-23.465820
985.129110	-23.444076
985.452934	-23.500603
985.776970	-23.535158
986.101220	-23.482086
986.425683	-23.409562
986.750359	-23.412728
987.075250	-23.470628
987.400354	-23.477789
987.725673	-23.408358
988.051206	-23.353342
988.376954	-23.380979
988.702916	-23.436660
989.029094	-23.421553
989.355487	-23.347439
989.682095	-23.313916
990.008919	-23.353014
990.335959	-23.387693
990.663216	-23.349749
990.990688	-23.287777
991.318377	-23.284366
991.646283	-23.321272
991.974406	-23.314402
992.302746	-23.252441
992.631304	-23.220863
992.960079	-23.261105
993.289072	-23.293882
993.618283	-23.239976
993.947713	-23.158313
994.277361	-23.160116
994.607227	-23.237407
994.937313	-23.258894
995.267618	-23.166966
995.598142	-23.076327
995.928886	-23.100952
996.259849	-23.185417
996.591033	-23.183491
996.922437	-23.078413
997.254061	-23.007527
997.585906	-23.047139
997.917972	-23.108938
998.250260	-23.077390
998.582768	-22.988360
998.915498	-22.958475
999.248450	-23.000628
999.581624	-23.015345
999.915020	-22.957609
1000.248639	-22.902300
1000.582480	-22.909764
1000.916545	-22.930129
1001.250832	-22.895035
1001.585343	-22.837652
1001.920077	-22.829169
1002.255035	-22.852147
1002.590218	-22.831813
1002.925624	-22.770783
1003.261255	-22.750301
1003.597111	-22.785524
1003.933192	-22.787665
1004.269497	-22.715890
1004.606029	-22.657461
1004.942785	-22.688737
1005.279768	-22.738496
1005.616977	-22.692328
1005.954412	-22.589582
1006.292074	-22.566898
1006.629962	-22.638767
1006.968077	-22.667213
1007.306420	-22.579505
1007.644990	-22.494986
1007.983787	-22.524321
1008.322813	-22.597293
1008.662067	-22.574588
1009.001549	-22.478004
1009.341259	-22.447122
1009.681199	-22.504184
1010.021367	-22.528763
1010.361765	-22.464282
1010.702392	-22.409269
1011.043250	-22.438315
1011.384337	-22.476560
1011.725654	-22.439709
1012.067202	-22.383891
1012.408980	-22.399536
1012.750989	-22.446094
1013.093230	-22.422113
1013.435702	-22.355320
1013.778405	-22.353816
1014.121341	-22.410810
1014.464508	-22.408689
1014.807908	-22.330029
1015.151540	-22.298379
1015.495405	-22.357972
1015.839503	-22.391400
1016.183835	-22.322133
1016.528400	-22.257356
1016.873198	-22.298569
1017.218231	-22.358539
1017.563498	-22.311972
1017.908999	-22.223334
1018.254735	-22.232941
1018.600707	-22.304093
1018.946913	-22.282622
1019.293354	-22.178715
1019.640032	-22.153437
1019.986945	-22.231354
1020.334094	-22.247917
1020.681480	-22.142590
1021.029102	-22.073849
1021.376961	-22.135013
1021.725058	-22.189403
1022.073391	-22.106267
1022.421962	-22.001881
1022.770772	-22.022659
1023.119819	-22.090074
1023.469104	-22.042333
1023.818628	-21.930555
1024.168391	-21.918617
1024.518393	-21.983371
1024.868634	-21.963597
1025.219115	-21.857624
1025.569836	-21.823161
1025.920796	-21.880044
1026.271997	-21.878175
1026.623438	-21.779608
1026.975121	-21.725876
1027.327044	-21.769491
1027.679208	-21.780007
1028.031614	-21.697248
1028.384262	-21.642837
1028.737152	-21.679961
1029.090284	-21.692384
1029.443659	-21.613322
1029.797276	-21.564228
1030.151137	-21.613383
1030.505240	-21.633977
1030.859587	-21.541624
1031.214178	-21.474381
1031.569013	-21.535575
1031.924093	-21.589476
1032.279417	-21.502693
1032.634985	-21.407242
1032.990799	-21.457321
1033.346858	-21.542846
1033.703162	-21.485645
1034.059712	-21.375769
1034.416509	-21.397567
1034.773551	-21.487434
1035.130841	-21.458602
1035.488377	-21.355186
1035.846160	-21.356854
1036.204190	-21.434451
1036.562468	-21.419373
1036.920994	-21.333954
1037.279768	-21.332957
1037.638790	-21.395064
1037.998061	-21.373846
1038.357581	-21.299917
1038.717350	-21.307649
1039.077368	-21.357310
1039.437636	-21.315185
1039.798154	-21.240447
1040.158922	-21.265263
1040.519940	-21.316302
1040.881209	-21.251340
1041.242729	-21.163680
1041.604501	-21.203922
1041.966524	-21.267055
1042.328798	-21.182043
1042.691325	-21.069461
1043.054103	-21.112806
1043.417135	-21.192141
1043.780419	-21.100187
1044.143956	-20.963946
1044.507746	-20.998765
1044.871791	-21.091315
1045.236088	-21.009063
1045.600641	-20.862940
1045.965447	-20.879652
1046.330508	-20.965290
1046.695824	-20.895299
1047.061395	-20.759445
1047.427222	-20.762715
1047.793304	-20.824695
1048.159642	-20.760932
1048.526237	-20.655498
1048.893088	-20.662921
1049.260196	-20.693534
1049.627561	-20.621769
1049.995183	-20.552146
1050.363063	-20.578100
1050.731201	-20.575959
1051.099597	-20.483172
1051.468251	-20.447143
1051.837164	-20.503985
1052.206336	-20.479893
1052.575767	-20.364670
1052.945458	-20.355634
1053.315409	-20.444242
1053.685619	-20.406913
1054.056090	-20.271827
1054.426821	-20.278075
1054.797814	-20.386913
1055.169067	-20.344551
1055.540582	-20.205883
1055.912359	-20.224001
1056.284398	-20.337299
1056.656698	-20.294173
1057.029262	-20.170772
1057.402088	-20.198288
1057.775177	-20.291860
1058.148530	-20.241292
1058.522146	-20.148895
1058.896027	-20.187644
1059.270171	-20.244748
1059.644580	-20.184893
1060.019254	-20.137806
1060.394193	-20.189780
1060.769397	-20.198690
1061.144867	-20.126218
1061.520602	-20.124911
1061.896604	-20.181905
1062.272872	-20.139023
1062.649407	-20.061374
1063.026210	-20.103372
1063.403279	-20.155882
1063.780616	-20.070588
1064.158221	-20.001931
1064.536094	-20.075133
1064.914235	-20.103556
1065.292645	-19.985883
1065.671325	-19.938760
1066.050273	-20.025275
1066.429491	-20.017031
1066.808979	-19.889691
1067.188738	-19.876096
1067.568766	-19.956032
1067.949066	-19.905924
1068.329636	-19.790575
1068.710478	-19.807984
1069.091592	-19.855934
1069.472977	-19.770878
1069.854635	-19.691271
1070.236565	-19.731692
1070.618768	-19.734415
1071.001243	-19.637356
1071.383993	-19.608898
1071.767016	-19.651345
1072.150313	-19.602099
1072.533884	-19.517132
1072.917730	-19.538022
1073.301850	-19.558879
1073.686246	-19.471295
1074.070917	-19.425623
1074.455864	-19.481463
1074.841087	-19.461803
1075.226586	-19.360108
1075.612362	-19.363091
1075.998415	-19.420563
1076.384745	-19.354068
1076.771353	-19.270335
1077.158238	-19.317289
1077.545401	-19.346244
1077.932843	-19.251439
1078.320564	-19.213500
1078.708564	-19.278503
1079.096842	-19.256180
1079.485401	-19.162051
1079.874240	-19.175939
1080.263358	-19.224141
1080.652757	-19.158197
1081.042438	-19.102099
1081.432399	-19.151670
1081.822641	-19.152758
1082.213166	-19.070089
1082.603972	-19.065813
1082.995061	-19.109372
1083.386433	-19.055701
1083.778087	-18.996035
1084.170025	-19.033465
1084.562246	-19.033926
1084.954751	-18.950588
1085.347541	-18.937585
1085.740615	-18.974158
1086.133973	-18.913927
1086.527617	-18.842162
1086.921546	-18.870159
1087.315761	-18.865937
1087.710262	-18.772868
1088.105050	-18.747589
1088.500124	-18.779778
1088.895485	-18.717336
1089.291134	-18.636722
1089.687070	-18.655444
1090.083294	-18.649601
1090.479806	-18.558182
1090.876607	-18.530152
1091.273696	-18.558185
1091.671075	-18.499825
1092.068744	-18.427622
1092.466702	-18.445733
1092.864950	-18.435633
1093.263489	-18.353333
1093.662319	-18.336936
1094.061440	-18.360408
1094.460852	-18.300091
1094.860555	-18.246054
1095.260551	-18.273356
1095.660840	-18.250990
1096.061421	-18.172338
1096.462295	-18.176829
1096.863462	-18.198857
1097.264923	-18.127213
1097.666678	-18.087876
1098.068727	-18.130781
1098.471071	-18.100393
1098.873710	-18.023265
1099.276644	-18.046027
1099.679874	-18.070236
1100.083400	-17.997102
1100.487222	-17.975446
1100.891340	-18.028472
1101.295756	-17.995662
1101.700468	-17.936156
1102.105478	-17.976772
1102.510787	-17.994387
1102.916393	-17.929518
1103.322298	-17.935489
1103.728502	-17.986074
1104.135005	-17.942818
1104.541807	-17.908491
1104.948909	-17.960102
1105.356312	-17.952127
1105.764015	-17.890665
1106.172019	-17.915773
1106.580324	-17.940938
1106.988931	-17.875763
1107.397840	-17.857083
1107.807051	-17.892078
1108.216564	-17.843280
1108.626380	-17.785212
1109.036500	-17.806911
1109.446923	-17.784152
1109.857649	-17.706573
1110.268680	-17.699720
1110.680016	-17.696633
1111.091657	-17.619579
1111.503602	-17.582316
1111.915854	-17.587533
1112.328411	-17.527459
1112.741275	-17.471753
1113.154445	-17.476263
1113.567922	-17.436514
1113.981706	-17.371726
1114.395798	-17.371055
1114.810198	-17.352032
1115.224906	-17.286221
1115.639923	-17.279357
1116.055249	-17.282346
1116.470884	-17.219954
1116.886829	-17.198259
1117.303084	-17.219479
1117.719650	-17.169730
1118.136526	-17.126894
1118.553713	-17.155792
1118.971212	-17.129945
1119.389022	-17.067833
1119.807145	-17.084102
1120.225580	-17.081467
1120.644328	-17.011828
1121.063389	-17.004504
1121.482763	-17.016323
1121.902452	-16.950841
1122.322454	-16.919669
1122.742771	-16.935017
1123.163404	-16.877914
1123.584351	-16.826321
1124.005614	-16.840720
1124.427193	-16.798801
1124.849089	-16.732888
1125.271301	-16.741651
1125.693830	-16.718857
1126.116677	-16.646303
1126.539842	-16.644247
1126.963324	-16.641482
1127.387126	-16.575053
1127.811246	-16.562670
1128.235685	-16.575134
1128.660444	-16.520807
1129.085522	-16.501231
1129.510922	-16.524232
1129.936641	-16.484018
1130.362682	-16.461073
1130.789044	-16.492906
1131.215728	-16.465214
1131.642734	-16.437519
1132.070063	-16.476417
1132.497714	-16.460533
1132.925689	-16.424285
1133.353987	-16.466386
1133.782610	-16.465280
1134.211556	-16.417482
1134.640827	-16.452653
1135.070424	-16.466015
1135.500345	-16.408327
1135.930593	-16.426149
1136.361166	-16.449977
1136.792067	-16.389569
1137.223294	-16.386219
1137.654848	-16.411801
1138.086730	-16.352311
1138.518940	-16.330139
1138.951479	-16.352317
1139.384346	-16.296268
1139.817543	-16.261298
1140.251069	-16.278399
1140.684925	-16.223736
1141.119111	-16.178268
1141.553628	-16.192566
1141.988475	-16.141506
1142.423655	-16.088761
1142.859166	-16.103466
1143.295009	-16.058503
1143.731185	-15.999075
1144.167694	-16.015505
1144.604536	-15.981760
1145.041711	-15.919326
1145.479221	-15.937959
1145.917065	-15.918033
1146.355245	-15.854342
1146.793759	-15.871406
1147.232609	-15.865347
1147.671795	-15.806254
1148.111317	-15.821537
1148.551177	-15.825533
1148.991373	-15.772376
1149.431907	-15.785179
1149.872779	-15.794892
1150.313989	-15.749155
1150.755538	-15.762546
1151.197426	-15.775264
1151.639653	-15.733004
1152.082220	-15.745442
1152.525128	-15.759267
1152.968376	-15.718067
1153.411966	-15.729571
1153.855897	-15.744954
1154.300169	-15.700396
1154.744784	-15.705475
1155.189742	-15.721616
1155.635042	-15.674550
1156.080687	-15.672630
1156.526674	-15.688893
1156.973007	-15.637847
1157.419683	-15.626558
1157.866705	-15.640789
1158.314072	-15.586883
1158.761786	-15.570184
1159.209845	-15.581522
1159.658251	-15.520783
1160.107004	-15.499208
1160.556104	-15.507435
1161.005553	-15.440596
1161.455349	-15.418617
1161.905494	-15.423337
1162.355989	-15.348901
1162.806832	-15.327887
1163.258026	-15.328890
1163.709570	-15.251413
1164.161464	-15.235313
1164.613710	-15.230256
1165.066307	-15.150715
1165.519256	-15.140167
1165.972558	-15.128857
1166.426212	-15.051490
1166.880219	-15.047491
1167.334580	-15.029489
1167.789295	-14.954290
1168.244364	-14.955344
1168.699788	-14.934235
1169.155567	-14.863829
1169.611702	-14.869726
1170.068193	-14.845865
1170.525041	-14.778301
1170.982245	-14.789661
1171.439807	-14.764022
1171.897726	-14.700266
1172.356004	-14.718473
1172.814640	-14.685478
1173.273635	-14.626305
1173.732989	-14.653187
1174.192703	-14.610131
1174.652778	-14.561903
1175.113213	-14.593307
1175.574009	-14.535451
1176.035167	-14.505907
1176.496687	-14.535312
1176.958569	-14.465929
1177.420814	-14.460187
1177.883422	-14.473751
1178.346394	-14.401581
1178.809730	-14.419632
1179.273430	-14.408005
1179.737496	-14.349485
1180.201927	-14.379467
1180.666723	-14.339865
1181.131886	-14.310193
1181.597416	-14.333238
1182.063312	-14.280330
1182.529576	-14.281831
1182.996209	-14.276317
1183.463209	-14.235241
1183.930579	-14.251501
1184.398317	-14.215690
1184.866426	-14.208893
1185.334904	-14.207563
1185.803754	-14.164153
1186.272974	-14.190131
1186.742566	-14.150724
1187.212529	-14.136365
1187.682865	-14.161360
1188.153574	-14.093943
1188.624656	-14.125764
1189.096112	-14.110568
1189.567942	-14.057307
1190.040147	-14.110891
1190.512726	-14.046191
1190.985681	-14.043839
1191.459012	-14.071341
1191.932720	-13.994596
1192.406804	-14.036887
1192.881265	-14.009175
1193.356104	-13.968947
1193.831322	-14.009731
1194.306918	-13.948272
1194.782893	-13.956826
1195.259248	-13.954837
1195.735982	-13.906826
1196.213097	-13.931536
1196.690593	-13.892650
1197.168471	-13.881063
1197.646730	-13.884011
1198.125371	-13.844236
1198.604395	-13.849270
1199.083803	-13.829297
1199.563594	-13.807453
1200.043769	-13.801548
1200.524329	-13.782806
1201.005273	-13.763201
1201.486604	-13.751361
1201.968320	-13.741121
1202.450422	-13.708471
1202.932912	-13.712431
1203.415789	-13.688146
1203.899054	-13.660827
1204.382707	-13.675165
1204.866748	-13.624191
1205.351179	-13.630028
1205.836000	-13.618303
1206.321211	-13.571423
1206.806812	-13.600487
1207.292805	-13.546280
1207.779189	-13.544107
1208.265965	-13.548334
1208.753134	-13.489453
1209.240696	-13.524123
1209.728651	-13.476930
1210.217000	-13.464087
1210.705744	-13.479908
1211.194883	-13.418297
1211.684417	-13.450366
1212.174347	-13.412419
1212.664673	-13.394670
1213.155396	-13.415742
1213.646516	-13.357602
1214.138034	-13.388884
1214.629951	-13.357585
1215.122266	-13.339232
1215.614980	-13.363887
1216.108095	-13.308198
1216.601609	-13.340101
1217.095524	-13.313340
1217.589841	-13.294588
1218.084559	-13.324653
1218.579679	-13.270418
1219.075202	-13.304129
1219.571128	-13.283553
1220.067458	-13.261935
1220.564191	-13.298587
1221.061330	-13.244560
1221.558874	-13.276114
1222.056823	-13.264294
1222.555178	-13.236707
1223.053940	-13.278753
1223.553109	-13.228971
1224.052686	-13.254108
1224.552671	-13.253444
1225.053065	-13.220779
1225.553867	-13.262365
1226.055079	-13.219985
1226.556702	-13.235062
1227.058735	-13.241870
1227.561179	-13.207539
1228.064035	-13.243987
1228.567303	-13.210424
1229.070983	-13.217204
1229.575077	-13.227439
1230.079585	-13.193793
1230.584506	-13.222245
1231.089842	-13.194535
1231.595594	-13.193793
1232.101761	-13.203197
1232.608345	-13.170433
1233.115345	-13.191544
1233.622762	-13.168521
1234.130597	-13.161596
1234.638851	-13.169411
1235.147523	-13.137493
1235.656615	-13.149829
1236.166126	-13.129890
1236.676058	-13.116618
1237.186411	-13.120789
1237.697185	-13.091176
1238.208381	-13.095557
1238.719999	-13.078184
1239.232040	-13.060920
1239.744505	-13.060569
1240.257394	-13.032650
1240.770708	-13.028960
1241.284446	-13.011592
1241.798610	-12.990993
1242.313201	-12.986278
1242.828218	-12.959615
1243.343662	-12.950528
1243.859534	-12.932833
1244.375834	-12.909932
1244.892563	-12.901660
1245.409721	-12.873512
1245.927309	-12.860509
1246.445327	-12.841677
1246.963777	-12.816486
1247.482657	-12.807210
1248.001970	-12.777613
1248.521716	-12.763988
1249.041894	-12.744084
1249.562506	-12.717063
1250.083553	-12.707483
1250.605034	-12.675136
1251.126950	-12.663113
1251.649302	-12.641506
1252.172091	-12.615339
1252.695316	-12.607730
1253.218979	-12.573803
1253.743079	-12.565787
1254.267619	-12.541379
1254.792597	-12.518248
1255.318015	-12.511009
1255.843874	-12.477153
1256.370173	-12.474662
1256.896913	-12.447769
1257.424095	-12.432545
1257.951720	-12.424160
1258.479787	-12.393789
1259.008298	-12.395520
1259.537254	-12.365832
1260.066654	-12.360582
1260.596499	-12.347849
1261.126790	-12.326128
1261.657527	-12.330419
1262.188711	-12.301481
1262.720342	-12.306186
1263.252422	-12.287349
1263.784950	-12.277696
1264.317928	-12.278314
1264.851355	-12.254784
1265.385232	-12.265951
1265.919560	-12.243770
1266.454340	-12.248282
1266.989572	-12.241211
1267.525256	-12.229634
1268.061394	-12.239306
1268.597985	-12.218509
1269.135031	-12.232831
1269.672531	-12.218111
1270.210487	-12.223158
1270.748899	-12.224585
1271.287768	-12.214677
1271.827094	-12.230278
1272.366877	-12.213281
1272.907119	-12.231068
1273.447820	-12.221574
1273.988981	-12.229065
1274.530601	-12.236256
1275.072683	-12.229328
1275.615226	-12.249968
1276.158230	-12.236539
1276.701697	-12.258220
1277.245627	-12.252273
1277.790021	-12.263589
1278.334879	-12.273769
1278.880202	-12.271169
1279.425991	-12.294986
1279.972245	-12.284856
1280.518966	-12.310729
1281.066155	-12.305620
1281.613811	-12.322456
1282.161936	-12.331749
1282.710529	-12.334589
1283.259593	-12.358532
1283.809126	-12.350997
1284.359131	-12.380126
1284.909607	-12.372873
1285.460555	-12.395707
1286.011976	-12.399703
1286.563870	-12.408903
1287.116237	-12.428093
1287.669080	-12.423725
1288.222397	-12.452204
1288.776191	-12.441888
1289.330460	-12.469101
1289.885207	-12.464044
1290.440431	-12.480766
1290.996133	-12.488912
1291.552314	-12.490730
1292.108975	-12.511528
1292.666115	-12.501060
1293.223737	-12.527591
1293.781839	-12.513572
1294.340424	-12.536759
1294.899491	-12.529606
1295.459041	-12.541175
1296.019075	-12.546168
1296.579593	-12.542584
1297.140597	-12.558818
1297.702086	-12.543197
1298.264061	-12.565570
1298.826524	-12.546497
1299.389474	-12.566415
1299.952912	-12.552224
1300.516839	-12.561361
1301.081255	-12.557132
1301.646162	-12.551715
1302.211559	-12.559234
1302.777448	-12.541517
1303.343829	-12.557274
1303.910702	-12.532858
1304.478069	-12.549074
1305.045930	-12.524630
1305.614285	-12.533878
1306.183136	-12.516549
1306.752483	-12.514335
1307.322326	-12.508220
1307.892666	-12.492955
1308.463504	-12.496480
1309.034841	-12.470101
1309.606677	-12.479052
1310.179012	-12.447404
1310.751849	-12.456778
1311.325186	-12.426916
1311.899025	-12.430311
1312.473366	-12.406871
1313.048211	-12.399656
1313.623559	-12.385275
1314.199412	-12.366909
1314.775770	-12.362680
1315.352634	-12.335181
1315.930004	-12.337979
1316.507881	-12.304608
1317.086266	-12.309335
1317.665159	-12.274927
1318.244562	-12.277840
1318.824474	-12.247833
1319.404897	-12.245147
1319.985831	-12.222476
1320.567276	-12.211044
1321.149234	-12.196513
1321.731706	-12.176303
1322.314691	-12.170324
1322.898190	-12.143529
1323.482205	-12.143844
1324.066736	-12.112596
1324.651783	-12.115342
1325.237347	-12.082581
1325.823430	-12.085170
1326.410031	-12.054939
1326.997151	-12.054942
1327.584791	-12.029424
1328.172952	-12.024034
1328.761634	-12.004193
1329.350839	-11.992608
1329.940566	-11.979799
1330.530817	-11.962815
1331.121592	-11.956602
1331.712891	-11.934491
1332.304716	-11.932847
1332.897068	-11.906957
1333.489946	-11.908934
1334.083352	-11.881885
1334.677287	-11.886034
1335.271750	-11.859235
1335.866744	-11.862887
1336.462268	-11.837594
1337.058323	-11.839636
1337.654910	-11.817991
1338.252029	-11.817958
1338.849682	-11.800508
1339.447869	-11.796882
1340.046591	-11.783423
1340.645848	-11.776114
1341.245641	-11.767470
1341.845972	-11.757471
1342.446840	-11.753203
1343.048246	-11.740092
1343.650191	-11.738976
1344.252677	-11.723281
1344.855702	-11.725421
1345.459269	-11.708655
1346.063379	-11.713338
1346.668030	-11.695487
1347.273226	-11.701179
1347.878965	-11.682765
1348.485250	-11.689575
1349.092080	-11.672003
1349.699456	-11.679422
1350.307380	-11.662423
1350.915851	-11.669143
1351.524871	-11.652970
1352.134441	-11.659440
1352.744560	-11.645178
1353.355231	-11.651172
1353.966453	-11.638162
1354.578227	-11.642703
1355.190555	-11.630964
1355.803436	-11.634775
1356.416872	-11.625145
1357.030863	-11.628177
1357.645411	-11.619685
1358.260515	-11.621223
1358.876177	-11.613919
1359.492397	-11.614959
1360.109176	-11.609504
1360.726516	-11.609853
1361.344416	-11.605075
1361.962877	-11.604241
1362.581901	-11.600403
1363.201487	-11.599537
1363.821637	-11.597004
1364.442352	-11.595572
1365.063632	-11.593098
1365.685478	-11.590865
1366.307891	-11.589022
1366.930871	-11.587151
1367.554420	-11.586008
1368.178538	-11.583618
1368.803226	-11.582122
1369.428485	-11.579401
1370.054315	-11.578476
1370.680717	-11.576393
1371.307693	-11.575627
1371.935242	-11.573203
1372.563366	-11.571947
1373.192065	-11.569871
1373.821341	-11.569130
1374.451193	-11.567866
1375.081623	-11.566681
1375.712632	-11.565217
1376.344221	-11.563500
1376.976389	-11.562879
1377.609139	-11.561420
1378.242470	-11.561302
1378.876384	-11.558793
1379.510881	-11.558646
1380.145963	-11.555648
1380.781629	-11.556620
1381.417881	-11.553333
1382.054720	-11.554440
1382.692147	-11.549803
1383.330161	-11.551250
1383.968765	-11.546387
1384.607959	-11.548894
1385.247743	-11.543191
1385.888119	-11.545524
1386.529087	-11.538824
1387.170648	-11.542013
1387.812804	-11.535510
1388.455554	-11.539231
1389.098899	-11.531862
1389.742842	-11.535356
1390.387381	-11.528052
1391.032519	-11.532431
1391.678256	-11.525504
1392.324592	-11.529415
1392.971529	-11.522107
1393.619068	-11.525869
1394.267208	-11.519760
1394.915952	-11.523584
1395.565300	-11.517917
1396.215253	-11.520439
1396.865812	-11.515677
1397.516977	-11.517983
1398.168749	-11.514898
1398.821130	-11.515861
1399.474120	-11.513286
1400.127719	-11.512847
1400.781930	-11.512079
1401.436752	-11.511013
1402.092186	-11.511266
1402.748234	-11.508382
1403.404897	-11.509572
1404.062174	-11.506372
1404.720067	-11.509091
1405.378577	-11.505087
1406.037705	-11.507715
1406.697451	-11.503209
1407.357817	-11.506694
1408.018803	-11.502911
1408.680410	-11.506106
1409.342639	-11.502263
1410.005492	-11.504963
1410.668968	-11.502890
1411.333068	-11.505606
1411.997795	-11.504725
1412.663147	-11.506061
1413.329127	-11.506758
1413.995736	-11.507965
1414.662973	-11.510737
1415.330840	-11.510762
1415.999339	-11.514262
1416.668469	-11.513871
1417.338232	-11.519148
1418.008628	-11.519068
1418.679659	-11.524561
1419.351325	-11.524594
1420.023628	-11.530665
1420.696568	-11.532676
1421.370145	-11.538765
1422.044362	-11.541832
1422.719219	-11.546972
1423.394717	-11.552257
1424.070856	-11.557162
1424.747638	-11.563924
1425.425064	-11.567446
1426.103134	-11.575255
1426.781850	-11.579151
1427.461212	-11.588194
1428.141221	-11.592329
1428.821878	-11.601133
1429.503185	-11.606882
1430.185141	-11.616285
1430.867749	-11.624197
1431.551008	-11.632512
1432.234920	-11.641922
1432.919486	-11.649910
1433.604707	-11.661069
1434.290583	-11.668058
1434.977116	-11.678694
1435.664307	-11.685222
1436.352156	-11.695781
1437.040664	-11.702962
1437.729833	-11.711871
1438.419663	-11.719750
1439.110156	-11.728107
1439.801312	-11.738428
1440.493132	-11.746360
1441.185617	-11.757617
1441.878768	-11.765791
1442.572586	-11.778350
1443.267072	-11.787458
1443.962228	-11.798487
1444.658053	-11.807271
1445.354549	-11.816153
1446.051717	-11.824967
1446.749558	-11.830242
1447.448073	-11.836707
1448.147263	-11.838957
1448.847128	-11.844055
1449.547671	-11.845158
1450.248891	-11.847773
1450.950789	-11.849209
1451.653368	-11.851630
1452.356627	-11.855948
1453.060568	-11.858475
1453.765192	-11.864596
1454.470500	-11.868683
1455.176492	-11.876426
1455.883170	-11.881295
1456.590534	-11.886493
1457.298586	-11.890534
1458.007327	-11.892107
1458.716758	-11.893225
1459.426880	-11.888581
1460.137693	-11.884464
1460.849199	-11.875807
1461.561398	-11.867127
1462.274293	-11.855882
1462.987883	-11.843886
1463.702170	-11.834385
1464.417155	-11.824116
1465.132838	-11.818376
1465.849222	-11.812901
1466.566306	-11.813406
1467.284093	-11.816809
1468.002582	-11.823322
1468.721775	-11.834168
1469.441674	-11.845993
1470.162278	-11.862476
1470.883590	-11.876864
1471.605609	-11.892358
1472.328338	-11.905951
1473.051777	-11.917021
1473.775928	-11.925942
1474.500790	-11.928591
1475.226367	-11.930249
1475.952657	-11.926809
1476.679663	-11.921626
1477.407386	-11.914325
1478.135826	-11.906227
1478.864985	-11.901876
1479.594863	-11.898032
1480.325463	-11.900557
1481.056784	-11.908132
1481.788828	-11.923886
1482.521597	-11.948262
1483.255090	-11.979170
1483.989309	-12.021304
1484.724256	-12.070117
1485.459931	-12.127127
1486.196336	-12.189201
1486.933471	-12.254405
1487.671337	-12.322660
1488.409937	-12.385766
1489.149270	-12.443802
1489.889337	-12.490829
1490.630141	-12.523197
1491.371682	-12.537791
1492.113961	-12.528680
1492.856979	-12.498923
1493.600738	-12.445161
1494.345238	-12.369242
1495.090481	-12.275417
1495.836467	-12.166218
1496.583198	-12.049471
1497.330675	-11.926933
1498.078899	-11.806092
1498.827872	-11.693261
1499.577593	-11.590420
1500.328065	-11.503781
1501.079289	-11.434924
1501.831265	-11.387965
1502.583995	-11.363384
1503.337480	-11.359137
1504.091721	-11.376961
1504.846719	-11.411168
1505.602475	-11.456675
1506.358991	-11.506567
1507.116268	-11.551437
1507.874306	-11.583289
1508.633108	-11.589245
1509.392673	-11.562449
1510.153004	-11.498409
1510.914101	-11.392574
1511.675965	-11.248605
1512.438599	-11.071571
1513.202002	-10.870754
1513.966176	-10.655733
1514.731122	-10.434277
1515.496842	-10.218029
1516.263336	-10.013037
1517.030607	-9.823831
1517.798654	-9.656375
1518.567479	-9.512632
1519.337083	-9.395399
1520.107468	-9.305375
1520.878634	-9.244356
1521.650584	-9.215490
1522.423317	-9.217983
1523.196836	-9.255361
1523.971141	-9.330657
1524.746233	-9.444144
1525.522115	-9.598615
1526.298786	-9.794080
1527.076249	-10.029661
1527.854504	-10.300352
1528.633553	-10.596743
1529.413397	-10.906845
1530.194037	-11.206539
1530.975474	-11.468364
1531.757709	-11.661651
1532.540745	-11.752439
1533.324581	-11.721546
1534.109220	-11.565281
1534.894662	-11.299183
1535.680909	-10.953710
1536.467961	-10.565663
1537.255821	-10.171422
1538.044489	-9.798602
1538.833967	-9.471606
1539.624256	-9.207293
1540.415357	-9.015388
1541.207271	-8.906191
1542.000000	-8.885246
1542.793545	-8.956288
1543.587907	-9.124406
1544.383087	-9.393076
1545.179088	-9.766113
1545.975909	-10.247615
1546.773552	-10.842887
1547.572019	-11.557005
1548.371311	-12.392656
1549.171428	-13.353427
1549.972373	-14.432044
1550.774147	-15.600873
1551.576751	-16.798377
1552.380185	-17.885870
1553.184453	-18.648080
1553.989554	-18.879144
1554.795490	-18.538709
1555.602263	-17.799995
1556.409873	-16.885268
1557.218322	-15.949217
1558.027612	-15.069831
1558.837743	-14.277665
1559.648717	-13.579544
1560.460536	-12.971056
1561.273200	-12.447077
1562.086710	-11.999919
1562.901069	-11.621127
1563.716278	-11.306875
1564.532337	-11.051079
1565.349249	-10.848241
1566.167014	-10.697033
1566.985634	-10.593170
1567.805111	-10.533138
1568.625444	-10.516701
1569.446637	-10.540298
1570.268690	-10.601370
1571.091605	-10.699782
1571.915382	-10.832173
1572.740024	-10.996285
1573.565532	-11.191458
1574.391907	-11.414095
1575.219150	-11.661604
1576.047262	-11.932150
1576.876246	-12.221583
1577.706103	-12.526236
1578.536833	-12.842980
1579.368439	-13.166735
1580.200922	-13.492851
1581.034282	-13.816736
1581.868522	-14.132579
1582.703643	-14.434991
1583.539646	-14.718588
1584.376532	-14.978071
1585.214304	-15.208419
1586.052962	-15.405505
1586.892508	-15.565853
1587.732943	-15.687384
1588.574269	-15.768794
1589.416487	-15.810917
1590.259599	-15.815461
1591.103605	-15.784866
1591.948508	-15.723183
1592.794309	-15.634551
1593.641009	-15.522721
1594.488609	-15.392380
1595.337112	-15.247493
1596.186518	-15.090974
1597.036829	-14.926139
1597.888047	-14.755582
1598.740172	-14.580696
1599.593207	-14.403513
1600.447153	-14.225700
1601.302010	-14.047869
1602.157782	-13.871821
1603.014469	-13.698982
1603.872072	-13.530181
1604.730593	-13.367087
1605.590034	-13.211293
1606.450397	-13.063646
1607.311681	-12.925227
1608.173890	-12.797406
1609.037024	-12.680349
1609.901085	-12.574393
1610.766075	-12.480031
1611.631995	-12.396756
1612.498846	-12.324132
1613.366630	-12.261559
1614.235349	-12.208251
1615.105004	-12.163127
1615.975596	-12.124850
1616.847128	-12.092695
1617.719600	-12.065368
1618.593014	-12.041198
1619.467372	-12.019746
1620.342675	-11.999844
1621.218924	-11.979781
1622.096122	-11.959801
1622.974270	-11.939129
1623.853369	-11.916609
1624.733420	-11.893303
1625.614427	-11.868895
1626.496389	-11.843070
1627.379308	-11.817288
1628.263187	-11.791474
1629.148026	-11.765999
1630.033828	-11.741945
1630.920593	-11.719309
1631.808324	-11.698704
1632.697022	-11.680489
1633.586688	-11.664579
1634.477324	-11.651626
1635.368932	-11.641104
1636.261514	-11.632853
1637.155070	-11.627293
1638.049602	-11.623150
1638.945113	-11.620381
1639.841603	-11.618919
1640.739075	-11.617410
1641.637529	-11.616110
1642.536968	-11.614519
1643.437393	-11.611902
1644.338806	-11.608862
1645.241209	-11.604694
1646.144602	-11.599433
1647.048988	-11.593743
1647.954368	-11.586949
1648.860744	-11.579818
1649.768118	-11.572600
1650.676491	-11.565085
1651.585865	-11.558396
1652.496241	-11.552130
1653.407621	-11.546563
1654.320008	-11.542569
1655.233401	-11.539089
1656.147804	-11.536635
1657.063218	-11.535172
1657.979645	-11.533890
1658.897085	-11.533190
1659.815542	-11.532368
1660.735016	-11.531695
1661.655509	-11.530981
1662.577023	-11.529571
1663.499560	-11.528547
1664.423121	-11.527184
1665.347709	-11.525633
1666.273324	-11.524793
1667.199969	-11.523944
1668.127645	-11.523967
1669.056353	-11.524579
1669.986097	-11.525837
1670.916877	-11.528326
1671.848695	-11.531099
1672.781553	-11.535061
1673.715452	-11.539745
1674.650395	-11.544901
1675.586383	-11.551200
1676.523418	-11.557614
1677.461501	-11.564999
1678.400635	-11.572801
1679.340821	-11.580739
1680.282061	-11.589706
1681.224357	-11.598702
1682.167710	-11.608670
1683.112122	-11.619143
1684.057595	-11.630159
1685.004132	-11.642375
1685.951732	-11.654689
1686.900400	-11.668060
1687.850135	-11.681753
1688.800940	-11.695983
1689.752818	-11.710899
1690.705768	-11.725709
1691.659795	-11.741680
1692.614898	-11.757741
1693.571081	-11.774515
1694.528345	-11.791950
1695.486691	-11.809640
1696.446122	-11.828245
1697.406640	-11.846607
1698.368245	-11.865789
1699.330941	-11.885148
1700.294729	-11.904676
1701.259611	-11.924776
1702.225588	-11.944777
1703.192664	-11.965572
1704.160838	-11.986217
1705.130114	-12.007352
1706.100493	-12.028781
1707.071977	-12.050269
1708.044568	-12.072261
1709.018268	-12.093980
1709.993079	-12.116468
1710.969003	-12.138903
1711.946041	-12.161684
1712.924196	-12.184741
1713.903469	-12.207993
1714.883862	-12.231941
1715.865378	-12.255869
1716.848017	-12.280574
1717.831783	-12.305555
1718.816677	-12.331318
1719.802701	-12.357676
1720.789857	-12.384403
1721.778147	-12.411895
1722.767573	-12.439722
1723.758136	-12.468236
1724.749840	-12.496955
1725.742685	-12.526180
1726.736673	-12.555837
1727.731808	-12.586174
1728.728090	-12.617172
1729.725521	-12.648428
1730.724105	-12.680245
1731.723842	-12.712279
1732.724735	-12.744664
1733.726785	-12.777011
1734.729995	-12.809276
1735.734366	-12.841802
1736.739902	-12.874589
1737.746603	-12.907721
1738.754472	-12.940786
1739.763510	-12.974023
1740.773721	-13.007477
1741.785105	-13.041219
1742.797665	-13.075283
1743.811403	-13.109417
1744.826321	-13.143792
1745.842422	-13.178377
1746.859706	-13.213553
1747.878177	-13.248815
1748.897835	-13.284245
1749.918685	-13.319692
1750.940726	-13.355532
1751.963963	-13.391751
1752.988395	-13.428401
1754.014027	-13.465424
1755.040860	-13.502558
1756.068895	-13.539708
1757.098135	-13.576646
1758.128583	-13.613449
1759.160240	-13.649781
1760.193109	-13.685747
1761.227191	-13.721346
1762.262488	-13.756713
1763.299004	-13.791951
1764.336740	-13.827072
1765.375697	-13.862259
1766.415880	-13.896867
1767.457288	-13.930777
1768.499926	-13.963856
1769.543794	-13.996797
1770.588895	-14.029585
1771.635231	-14.062505
1772.682805	-14.095245
1773.731619	-14.127948
1774.781674	-14.160583
1775.832973	-14.193374
1776.885519	-14.226340
1777.939312	-14.259377
1778.994357	-14.292522
1780.050654	-14.325514
1781.108207	-14.359047
1782.167017	-14.392570
1783.227087	-14.426410
1784.288418	-14.459927
1785.351013	-14.494272
1786.414875	-14.528897
1787.480006	-14.564277
1788.546407	-14.598891
1789.614082	-14.633376
1790.683032	-14.667121
1791.753259	-14.700997
1792.824767	-14.734185
1793.897557	-14.767691
1794.971632	-14.800683
1796.046994	-14.833889
1797.123645	-14.866026
1798.201588	-14.897915
1799.280824	-14.928856
1800.361357	-14.959664
1801.443188	-14.989364
1802.526320	-15.018458
1803.610756	-15.046737
1804.696497	-15.075185
1805.783546	-15.103126
1806.871906	-15.130546
1807.961578	-15.156483
1809.052565	-15.181854
1810.144870	-15.206489
1811.238494	-15.231096
1812.333441	-15.254629
1813.429713	-15.276955
1814.527311	-15.297540
1815.626239	-15.317286
1816.726499	-15.336411
1817.828094	-15.355529
1818.931025	-15.374010
1820.035295	-15.391841
1821.140906	-15.408293
1822.247862	-15.423668
1823.356165	-15.437709
1824.465816	-15.451216
1825.576819	-15.464068
1826.689175	-15.476988
1827.802888	-15.489590
1828.917960	-15.501918
1830.034394	-15.513242
1831.152191	-15.523507
1832.271354	-15.532790
1833.391887	-15.542016
1834.513790	-15.551346
1835.637068	-15.560695
1836.761722	-15.569164
1837.887755	-15.576321
1839.015169	-15.581808
1840.143968	-15.585987
1841.274153	-15.589356
1842.405727	-15.592121
1843.538693	-15.594128
1844.673053	-15.594694
1845.808810	-15.593313
1846.945966	-15.589728
1848.084525	-15.584786
1849.224488	-15.579120
1850.365858	-15.573402
1851.508638	-15.567386
1852.652831	-15.560667
1853.798438	-15.552609
1854.945463	-15.543456
1856.093909	-15.533169
1857.243777	-15.522965
1858.395071	-15.513005
1859.547794	-15.503552
1860.701947	-15.494180
1861.857533	-15.484345
1863.014556	-15.473730
1864.173018	-15.462292
1865.332922	-15.450295
1866.494270	-15.438100
1867.657065	-15.425909
1868.821309	-15.413327
1869.987006	-15.400149
1871.154158	-15.386107
1872.322768	-15.371300
1873.492839	-15.355743
1874.664373	-15.339417
1875.837373	-15.322352
1877.011841	-15.304724
1878.187782	-15.286889
1879.365197	-15.269027
1880.544089	-15.250798
1881.724460	-15.232161
1882.906315	-15.212467
1884.089655	-15.191792
1885.274483	-15.169791
1886.460803	-15.146882
1887.648616	-15.123276
1888.837927	-15.098939
1890.028736	-15.074119
1891.221049	-15.048137
1892.414866	-15.021536
1893.610192	-14.994019
1894.807028	-14.966379
1896.005379	-14.938666
1897.205246	-14.911546
1898.406633	-14.884865
1899.609542	-14.858479
1900.813977	-14.831774
1902.019940	-14.804447
1903.227434	-14.776619
1904.436462	-14.748322
1905.647028	-14.720060
1906.859133	-14.692179
1908.072781	-14.664959
1909.287976	-14.638023
1910.504719	-14.610838
1911.723013	-14.582824
1912.942863	-14.554124
1914.164270	-14.525549
1915.387238	-14.497809
1916.611770	-14.471365
1917.837868	-14.445835
1919.065536	-14.420481
1920.294777	-14.394729
1921.525594	-14.368466
1922.757989	-14.342007
1923.991967	-14.316171
1925.227529	-14.290970
1926.464679	-14.266411
1927.703420	-14.241819
1928.943755	-14.216773
1930.185688	-14.191145
1931.429221	-14.165440
1932.674356	-14.140374
1933.921099	-14.116029
1935.169451	-14.092393
1936.419415	-14.068740
1937.670996	-14.044669
1938.924195	-14.020267
1940.179017	-13.995397
1941.435463	-13.970652
1942.693538	-13.946063
1943.953245	-13.921473
1945.214586	-13.896695
1946.477566	-13.871288
1947.742186	-13.845041
1949.008451	-13.818013
1950.276363	-13.790356
1951.545926	-13.762621
1952.817143	-13.735434
1954.090017	-13.708766
1955.364551	-13.682257
1956.640749	-13.655577
1957.918615	-13.628751
1959.198150	-13.602355
1960.479359	-13.576947
1961.762244	-13.552680
1963.046810	-13.529397
1964.333059	-13.506700
1965.620995	-13.484300
1966.910621	-13.462302
1968.201940	-13.441019
1969.494956	-13.420498
1970.789672	-13.400647
1972.086091	-13.381156
1973.384217	-13.361828
1974.684053	-13.342745
1975.985602	-13.323949
1977.288869	-13.305351
1978.593855	-13.287007
1979.900566	-13.268935
1981.209003	-13.251334
1982.519171	-13.233997
1983.831073	-13.216397
1985.144712	-13.198315
1986.460093	-13.179744
1987.777217	-13.161096
1989.096089	-13.142749
1990.416713	-13.124795
1991.739092	-13.107007
1993.063228	-13.088870
1994.389127	-13.070411
1995.716791	-13.052202
1997.046223	-13.034882
1998.377428	-13.018821
1999.710409	-13.003489
2001.045169	-12.988114
2002.381713	-12.972427
2003.720043	-12.957055
2005.060163	-12.942585
2006.402077	-12.928706
2007.745788	-12.914616
2009.091301	-12.900186
2010.438618	-12.886011
2011.787743	-12.872490
2013.138680	-12.859203
2014.491433	-12.845673
2015.846005	-12.831984
2017.202399	-12.818387
2018.560621	-12.805069
2019.920673	-12.792134
2021.282558	-12.779373
2022.646281	-12.766694
2024.011846	-12.754617
2025.379256	-12.743672
2026.748515	-12.733572
2028.119626	-12.723264
2029.492594	-12.712720
2030.867422	-12.703289
2032.244114	-12.695654
2033.622673	-12.689001
2035.003104	-12.682251
2036.385411	-12.675136
2037.769597	-12.668365
2039.155665	-12.662805
2040.543621	-12.658591
2041.933467	-12.655019
2043.325208	-12.651311
2044.718847	-12.647329
2046.114389	-12.643503
2047.511837	-12.640153
2048.911195	-12.637220
2050.312467	-12.634541
2051.715657	-12.631885
2053.120769	-12.629356
2054.527807	-12.627166
2055.936775	-12.625079
2057.347677	-12.622995
2058.760516	-12.621362
2060.175297	-12.619799
2061.592025	-12.617407
2063.010701	-12.614247
2064.431332	-12.611292
2065.853921	-12.609459
2067.278472	-12.608368
2068.704988	-12.606311
2070.133475	-12.602677
2071.563936	-12.598943
2072.996375	-12.596362
2074.430796	-12.595197
2075.867204	-12.594991
2077.305603	-12.594607
2078.745996	-12.593852
2080.188389	-12.593626
2081.632784	-12.594258
2083.079187	-12.595534
2084.527601	-12.597071
2085.978030	-12.598802
2087.430480	-12.601540
2088.884954	-12.605918
2090.341455	-12.612080
2091.799990	-12.620013
2093.260561	-12.629273
2094.723173	-12.639394
2096.187831	-12.650337
2097.654538	-12.662408
2099.123300	-12.675772
2100.594119	-12.689728
2102.067001	-12.703249
2103.541950	-12.715846
2105.018971	-12.727907
2106.498067	-12.740025
2107.979243	-12.751673
2109.462503	-12.761848
2110.947853	-12.770084
2112.435295	-12.777205
2113.924836	-12.785075
2115.416478	-12.794836
2116.910227	-12.806807
2118.406087	-12.821660
2119.904063	-12.840613
2121.404158	-12.863932
2122.906378	-12.890471
2124.410727	-12.918006
2125.917210	-12.943807
2127.425831	-12.965717
2128.936594	-12.982247
2130.449505	-12.993165
2131.964567	-12.999092
2133.481786	-13.001023
2135.001166	-13.000534
2136.522711	-13.000492
2138.046427	-13.004579
2139.572317	-13.014658
2141.100388	-13.030620
2142.630642	-13.051294
2144.163085	-13.076462
2145.697722	-13.106184
2147.234558	-13.139166
2148.773596	-13.172636
2150.314842	-13.204447
2151.858301	-13.234275
2153.403977	-13.262473
2154.951875	-13.288895
2156.502000	-13.313175
2158.054357	-13.335719
2159.608950	-13.357481
2161.165785	-13.380139
2162.724866	-13.405203
2164.286198	-13.433232
2165.849786	-13.464180
2167.415635	-13.498133
2168.983749	-13.535310
2170.554134	-13.576138
2172.126795	-13.619562
2173.701737	-13.664094
2175.278964	-13.709162
2176.858481	-13.755140
2178.440294	-13.800786
2180.024408	-13.843412
2181.610827	-13.881600
2183.199557	-13.916673
2184.790602	-13.949921
2186.383968	-13.980678
2187.979660	-14.008368
2189.577683	-14.035190
2191.178041	-14.064132
2192.780741	-14.096247
2194.385787	-14.131285
2195.993185	-14.169063
2197.602939	-14.210061
2199.215054	-14.255072
2200.829537	-14.303985
2202.446392	-14.354369
2204.065624	-14.402821
2205.687239	-14.448303
2207.311242	-14.492307
2208.937638	-14.535525
2210.566433	-14.575419
2212.197631	-14.610326
2213.831239	-14.643451
2215.467261	-14.679747
2217.105703	-14.720351
2218.746570	-14.764495
2220.389867	-14.814081
2222.035601	-14.872892
2223.683776	-14.942512
2225.334398	-15.019814
2226.987472	-15.099050
2228.643004	-15.176668
2230.300999	-15.252476
2231.961463	-15.326668
2233.624402	-15.396592
2235.289820	-15.458729
2236.957723	-15.514461
2238.628118	-15.569672
2240.301009	-15.627029
2241.976402	-15.683862
2243.654303	-15.739239
2245.334717	-15.797016
2247.017650	-15.859179
2248.703108	-15.922025
2250.391096	-15.982069
2252.081620	-16.040336
2253.774686	-16.100105
2255.470300	-16.162928
2257.168467	-16.227556
2258.869193	-16.292486
2260.572484	-16.358956
2262.278345	-16.430652
2263.986783	-16.508050
2265.697804	-16.586457
2267.411412	-16.664751
2269.127615	-16.747121
2270.846417	-16.833100
2272.567826	-16.918312
2274.291846	-17.003229
2276.018484	-17.091138
2277.747745	-17.182301
2279.479637	-17.274526
2281.214164	-17.365533
2282.951333	-17.456178
2284.691149	-17.549740
2286.433619	-17.645793
2288.178750	-17.739787
2289.926546	-17.830612
2291.677014	-17.922419
2293.430161	-18.017730
2295.185992	-18.113014
2296.944513	-18.206151
2298.705732	-18.299450
2300.469653	-18.391921
2302.236283	-18.482031
2304.005629	-18.571985
2305.777696	-18.661703
2307.552492	-18.749787
2309.330022	-18.838362
2311.110292	-18.928080
2312.893310	-19.016276
2314.679080	-19.104412
2316.467611	-19.195961
2318.258907	-19.289513
2320.052976	-19.383967
2321.849824	-19.482438
2323.649457	-19.584733
2325.451883	-19.690863
2327.257106	-19.803778
2329.065135	-19.919572
2330.875975	-20.035022
2332.689633	-20.154928
2334.506116	-20.277937
2336.325430	-20.399754
2338.147581	-20.525927
2339.972578	-20.656674
2341.800425	-20.783992
2343.631130	-20.910965
2345.464700	-21.042301
2347.301141	-21.172401
2349.140461	-21.301305
2350.982665	-21.433292
2352.827760	-21.564925
2354.675754	-21.695008
2356.526653	-21.825157
2358.380464	-21.953727
2360.237195	-22.081113
2362.096851	-22.207575
2363.959440	-22.328895
2365.824968	-22.448934
2367.693444	-22.573457
2369.564873	-22.694492
2371.439263	-22.808077
2373.316620	-22.921870
2375.196953	-23.036864
2377.080267	-23.151435
2378.966570	-23.266837
2380.855869	-23.379746
2382.748171	-23.495165
2384.643484	-23.620889
2386.541815	-23.743410
2388.443170	-23.864400
2390.347557	-24.005574
2392.254984	-24.155155
2394.165457	-24.297707
2396.078984	-24.451433
2397.995572	-24.621057
2399.915229	-24.786354
2401.837961	-24.947199
2403.763777	-25.116507
2405.692684	-25.294992
2407.624689	-25.467033
2409.559800	-25.624517
2411.498023	-25.793172
2413.439368	-25.974705
2415.383840	-26.139729
2417.331449	-26.297780
2419.282201	-26.467833
2421.236104	-26.631273
2423.193165	-26.782460
2425.153393	-26.937697
2427.116795	-27.098274
2429.083378	-27.249269
2431.053151	-27.386357
2433.026121	-27.527330
2435.002297	-27.673557
2436.981685	-27.797407
2438.964293	-27.911226
2440.950131	-28.048503
2442.939204	-28.175356
2444.931522	-28.278756
2446.927092	-28.403067
2448.925923	-28.540155
2450.928022	-28.665668
2452.933397	-28.802686
2454.942056	-28.960521
2456.954008	-29.123974
2458.969260	-29.297841
2460.987821	-29.492113
2463.009699	-29.700308
2465.034902	-29.905697
2467.063437	-30.114394
2469.095315	-30.344402
2471.130542	-30.569119
2473.169127	-30.781353
2475.211078	-31.002356
2477.256404	-31.221750
2479.305112	-31.427907
2481.357212	-31.635366
2483.412713	-31.844787
2485.471621	-32.040591
2487.533946	-32.227065
2489.599696	-32.417422
2491.668880	-32.596749
2493.741507	-32.757724
2495.817585	-32.922383
2497.897122	-33.069537
2499.980127	-33.198390
2502.066609	-33.341527
2504.156578	-33.467820
2506.250040	-33.566414
2508.347006	-33.665284
2510.447483	-33.766153
2512.551482	-33.867079
2514.659010	-33.949208
2516.770076	-34.056514
2518.884690	-34.185241
2521.002861	-34.297391
2523.124597	-34.463160
2525.249907	-34.670572
2527.378801	-34.862937
2529.511287	-35.093249
2531.647375	-35.361607
2533.787074	-35.641779
2535.930393	-35.938077
2538.077340	-36.242868
2540.227927	-36.543769
2542.382160	-36.832378
2544.540051	-37.144600
2546.701608	-37.424109
2548.866840	-37.688415
2551.035757	-37.992805
2553.208369	-38.255647
2555.384684	-38.517032
2557.564713	-38.774328
2559.748465	-38.995803
2561.935948	-39.203201
2564.127174	-39.382082
2566.322152	-39.551944
2568.520890	-39.671385
2570.723399	-39.771160
2572.929689	-39.830220
2575.139769	-39.844908
2577.353649	-39.912491
2579.571340	-39.912339
2581.792849	-39.888880
2584.018189	-39.885474
2586.247368	-39.878528
2588.480396	-39.908233
2590.717284	-39.976093
2592.958041	-40.077669
2595.202678	-40.174184
2597.451204	-40.406216
2599.703630	-40.677795
2601.959966	-40.885047
2604.220222	-41.258068
2606.484408	-41.626147
2608.752535	-41.984818
2611.024612	-42.408241
2613.300651	-42.812172
2615.580661	-43.203440
2617.864653	-43.632119
2620.152638	-44.106359
2622.444625	-44.516267
2624.740626	-45.018389
2627.040651	-45.531614
2629.344710	-46.042499
2631.652814	-46.580045
2633.964974	-46.952875
2636.281200	-47.349085
2638.601504	-47.636848
2640.925896	-47.844412
2643.254386	-47.852157
2645.586987	-47.822422
2647.923707	-47.688825
2650.264559	-47.520476
2652.609554	-47.230856
2654.958702	-46.878225
2657.312015	-46.686716
2659.669503	-46.422753
2662.031178	-46.184709
2664.397051	-45.981169
2666.767132	-45.947015
2669.141434	-46.014909
2671.519968	-46.030555
2673.902745	-46.159014
2676.289776	-46.404399
2678.681072	-46.686420
2681.076646	-47.025507
2683.476508	-47.295657
2685.880671	-47.585266
2688.289145	-48.104345
2690.701942	-48.376730
2693.119075	-48.725133
2695.540554	-49.283966
2697.966391	-49.882266
2700.396599	-50.505814
2702.831189	-51.207959
2705.270172	-52.183253
2707.713561	-53.383356
2710.161368	-54.338808
2712.613605	-55.313963
2715.070283	-56.983294
2717.531416	-58.415061
2719.997014	-59.398461
2722.467090	-59.734844
2724.941657	-60.434584
2727.420726	-58.966783
2729.904310	-57.268588
2732.392421	-56.680856
2734.885072	-55.514227
2737.382275	-54.540489
2739.884042	-53.815347
2742.390387	-53.266223
2744.901321	-53.427252
2747.416857	-52.837286
2749.937008	-52.611836
2752.461787	-53.209948
2754.991206	-52.906797
2757.525279	-52.849216
2760.064017	-53.278764
2762.607434	-53.002194
2765.155544	-53.410020
2767.708358	-52.946387
2770.265890	-52.959518
2772.828153	-53.665695
2775.395160	-53.188063
2777.966924	-53.742497
2780.543459	-54.533073
2783.124778	-54.671824
2785.710894	-55.611693
2788.301821	-56.120619
2790.897572	-57.261081
2793.498160	-58.505442
2796.103599	-58.993012
2798.713903	-61.359093
2801.329085	-63.430026
2803.949159	-66.097995
2806.574139	-72.321780
2809.204038	-79.784973
2811.838871	-80.481163
2814.478650	-72.364105
2817.123391	-68.016004
2819.773107	-66.834751
2822.427812	-65.620587
2825.087521	-64.609415
2827.752247	-64.274930
2830.422005	-65.027697
2833.096808	-63.841869
2835.776672	-63.506903
2838.461611	-63.538764
2841.151638	-62.765664
2843.846769	-61.253725
2846.547019	-60.925804
2849.252401	-59.971644
2851.962930	-59.438452
2854.678621	-59.044922
2857.399489	-59.161122
2860.125549	-58.561457
2862.856815	-59.271355
2865.593302	-59.001931
2868.335026	-59.263803
2871.082002	-59.480537
2873.834244	-60.124239
2876.591767	-60.299678
2879.354588	-61.349252
2882.122721	-62.445467
2884.896181	-64.435272
2887.674984	-65.250290
2890.459146	-68.969549
2893.248681	-70.584132
2896.043606	-74.745775
2898.843937	-76.881488
2901.649687	-74.615942
2904.460875	-76.961136
2907.277515	-73.375569
2910.099623	-73.694844
2912.927215	-73.726113
2915.760308	-75.291785
2918.598916	-76.694322
2921.443057	-78.732360
2924.292747	-80.186350
2927.148002	-81.791212
2930.008837	-73.754794
2932.875270	-71.924016
2935.747318	-70.704067
2938.624995	-69.080907
2941.508320	-68.789880
2944.397308	-67.919479
2947.291977	-66.077631
2950.192343	-65.861620
2953.098423	-65.564203
2956.010234	-64.624445
2958.927792	-64.778306
2961.851116	-65.018419
2964.780221	-65.350108
2967.715126	-66.163193
2970.655847	-67.886611
2973.602402	-68.836902
2976.554808	-71.353425
2979.513083	-73.417219
2982.477243	-76.787970
2985.447308	-84.403427
2988.423293	-77.909503
2991.405218	-80.952205
2994.393099	-74.497108
2997.386955	-73.139708
