# 2022-03-22_00.17.13
# shape = sech2
# FWHM_ps = 0.1
# carrier_nm = 1542
# frep_MHz = 12126
# pow_mW = 8000
# GDD = 0.0
# propa_len = 0.13933333333333334
# untap_len = 0.01
# taper_len = 0.07933333333333334
# waist_len = 0.02
# uptap_len = 0.02
# untap_scale = 1.0
# waist_scale = 0.13157894736842107
# workingDir = NL_20110305_12 (Spirou)
# axis = slow
# window_ps = 10.0
# steps = 200
# points = 21700
# 
# wavelength [nm]	 power spectral density [dB]
600.043425	-90.444256
600.163550	-92.182636
600.283723	-88.980687
600.403943	-89.782639
600.524212	-85.990108
600.644529	-85.271634
600.764895	-84.503450
600.885308	-84.270540
601.005770	-85.498614
601.126280	-84.899701
601.246839	-85.711064
601.367446	-86.214117
601.488101	-88.906807
601.608804	-91.907784
601.729557	-94.630247
601.850357	-93.687202
601.971206	-97.568385
602.092104	-97.667509
602.213050	-95.616816
602.334045	-96.295737
602.455089	-96.539204
602.576181	-92.912744
602.697322	-98.395379
602.818511	-95.142299
602.939749	-93.181491
603.061036	-101.239425
603.182372	-95.674738
603.303757	-95.137888
603.425191	-94.761946
603.546673	-91.841869
603.668204	-90.498652
603.789785	-86.763962
603.911414	-88.674975
604.033092	-86.013460
604.154820	-87.709907
604.276596	-88.646775
604.398422	-87.924089
604.520297	-96.723553
604.642220	-90.067405
604.764193	-101.086018
604.886216	-94.676081
605.008287	-88.557337
605.130408	-93.023330
605.252578	-86.485207
605.374798	-89.843240
605.497066	-86.722013
605.619385	-88.999342
605.741752	-86.356709
605.864169	-91.450288
605.986636	-89.303219
606.109152	-99.720411
606.231718	-91.065166
606.354333	-91.655532
606.476998	-87.199617
606.599712	-103.591970
606.722476	-91.210332
606.845290	-96.142971
606.968154	-102.616687
607.091067	-91.051331
607.214030	-102.481382
607.337043	-93.514623
607.460106	-105.787562
607.583219	-98.463831
607.706381	-95.413018
607.829594	-104.029137
607.952856	-95.367567
608.076169	-95.518616
608.199531	-97.600386
608.322944	-96.569408
608.446407	-91.644584
608.569920	-92.120768
608.693483	-85.276579
608.817096	-86.552195
608.940759	-83.918517
609.064473	-85.631548
609.188237	-89.130955
609.312051	-90.339696
609.435916	-87.409379
609.559831	-85.066210
609.683796	-85.859776
609.807812	-88.046760
609.931878	-87.585338
610.055995	-90.546952
610.180162	-87.518710
610.304380	-87.777919
610.428648	-89.273282
610.552967	-86.227725
610.677337	-90.499433
610.801757	-86.908920
610.926228	-91.742259
611.050750	-85.844202
611.175323	-87.597186
611.299946	-86.889313
611.424620	-91.604250
611.549345	-92.441199
611.674121	-100.930522
611.798948	-101.919857
611.923826	-94.169465
612.048755	-98.327079
612.173734	-90.445435
612.298765	-91.568970
612.423847	-96.338565
612.548980	-91.156874
612.674165	-88.571964
612.799400	-90.820181
612.924687	-86.997761
613.050025	-93.158329
613.175414	-88.800352
613.300854	-93.016882
613.426346	-89.112965
613.551889	-93.580787
613.677484	-97.273235
613.803130	-89.504175
613.928827	-93.720194
614.054576	-87.288626
614.180377	-93.763279
614.306229	-89.028294
614.432132	-98.239938
614.558087	-87.832199
614.684094	-92.749247
614.810153	-90.571728
614.936263	-92.442731
615.062425	-89.959801
615.188639	-107.374717
615.314904	-83.503980
615.441222	-97.099494
615.567591	-81.481912
615.694012	-89.735187
615.820486	-79.302039
615.947011	-85.626905
616.073588	-79.091892
616.200217	-88.098797
616.326898	-82.651019
616.453632	-97.740997
616.580417	-89.974763
616.707255	-87.139953
616.834144	-104.129484
616.961086	-83.197817
617.088081	-90.383578
617.215127	-81.849295
617.342226	-87.927774
617.469378	-87.485989
617.596581	-92.357732
617.723837	-100.110241
617.851146	-95.744785
617.978507	-98.382312
618.105920	-90.532752
618.233386	-91.103590
618.360905	-87.324463
618.488476	-86.178032
618.616100	-87.748604
618.743777	-83.074446
618.871506	-85.056087
618.999288	-81.669682
619.127123	-82.833577
619.255011	-82.100555
619.382951	-82.958479
619.510945	-84.681906
619.638991	-85.704670
619.767090	-96.484749
619.895243	-87.670221
620.023448	-92.931168
620.151706	-84.598560
620.280017	-86.812961
620.408382	-85.723161
620.536799	-84.310638
620.665270	-105.459701
620.793794	-83.022423
620.922371	-85.880453
621.051002	-82.558989
621.179686	-85.670339
621.308423	-84.489744
621.437213	-87.519536
621.566057	-86.817016
621.694954	-86.391870
621.823905	-91.918144
621.952909	-85.333165
622.081967	-89.414280
622.211079	-81.614582
622.340244	-85.551986
622.469462	-81.171727
622.598735	-87.101779
622.728061	-82.103846
622.857441	-91.256282
622.986874	-84.835187
623.116361	-88.007705
623.245903	-88.653034
623.375498	-91.669069
623.505147	-84.764550
623.634850	-84.224025
623.764606	-83.679024
623.894417	-87.005891
624.024282	-93.521752
624.154201	-86.296053
624.284174	-82.067595
624.414202	-85.082250
624.544283	-82.771862
624.674419	-90.858633
624.804609	-88.036190
624.934853	-91.492434
625.065151	-92.473161
625.195504	-86.582596
625.325911	-89.844804
625.456373	-84.933287
625.586889	-83.996966
625.717460	-84.379843
625.848085	-81.038910
625.978764	-84.806815
626.109498	-82.751219
626.240287	-85.709131
626.371131	-87.375420
626.502029	-86.147295
626.632982	-93.846227
626.763989	-85.869327
626.895052	-86.150075
627.026169	-81.709892
627.157341	-84.851548
627.288568	-82.035322
627.419850	-90.845353
627.551187	-84.306695
627.682579	-91.327355
627.814026	-86.289785
627.945528	-92.592494
628.077085	-84.141165
628.208697	-88.288437
628.340364	-85.955758
628.472087	-90.250187
628.603865	-85.388852
628.735698	-88.227822
628.867586	-88.313047
628.999530	-98.454956
629.131529	-95.698586
629.263584	-85.898994
629.395694	-89.158765
629.527859	-84.474745
629.660080	-84.828393
629.792357	-84.554284
629.924689	-88.795168
630.057077	-89.238372
630.189520	-88.592554
630.322019	-83.833726
630.454574	-86.089964
630.587184	-83.629474
630.719851	-88.504297
630.852573	-87.819039
630.985351	-85.059577
631.118185	-89.939797
631.251075	-80.893560
631.384021	-83.688944
631.517023	-80.716981
631.650081	-82.106234
631.783195	-85.760633
631.916365	-79.349425
632.049592	-85.387732
632.182874	-79.791075
632.316213	-90.021145
632.449608	-84.427842
632.583059	-93.076581
632.716567	-89.324752
632.850131	-105.401925
632.983751	-86.490441
633.117428	-91.230108
633.251161	-89.309608
633.384951	-104.534517
633.518797	-92.104018
633.652700	-95.116411
633.786660	-94.901416
633.920676	-85.038712
634.054749	-83.415795
634.188879	-80.649931
634.323065	-84.704855
634.457308	-83.726991
634.591608	-98.709595
634.725965	-93.305103
634.860379	-84.155523
634.994850	-88.913190
635.129377	-80.509114
635.263962	-81.324878
635.398604	-79.268734
635.533303	-80.570513
635.668058	-85.751232
635.802872	-84.280954
635.937742	-87.851483
636.072669	-83.770599
636.207654	-80.623148
636.342696	-85.546860
636.477796	-83.145960
636.612953	-91.405581
636.748167	-98.897793
636.883439	-82.582130
637.018768	-87.323463
637.154155	-83.859926
637.289599	-98.301140
637.425101	-100.761395
637.560660	-82.719711
637.696277	-81.224335
637.831952	-78.975124
637.967685	-79.781410
638.103475	-80.548270
638.239324	-84.391023
638.375230	-86.430700
638.511194	-96.668604
638.647215	-96.568595
638.783295	-95.638753
638.919433	-85.945909
639.055629	-85.716550
639.191883	-81.890846
639.328195	-86.650531
639.464565	-82.939061
639.600994	-77.981092
639.737481	-78.722118
639.874025	-78.121997
640.010629	-82.043395
640.147290	-83.343213
640.284010	-96.510538
640.420789	-86.022430
640.557625	-81.028692
640.694521	-78.710077
640.831474	-83.107330
640.968487	-86.932560
641.105558	-90.455015
641.242687	-93.007989
641.379876	-82.815967
641.517123	-84.702741
641.654429	-86.260059
641.791793	-85.882521
641.929216	-89.880804
642.066699	-82.750472
642.204240	-80.894654
642.341840	-83.244399
642.479499	-78.756682
642.617217	-88.171728
642.754994	-86.100605
642.892830	-81.984240
643.030726	-85.494631
643.168680	-79.365073
643.306694	-85.478791
643.444767	-81.222729
643.582899	-82.715073
643.721091	-87.410093
643.859342	-81.546917
643.997652	-89.428114
644.136022	-84.510713
644.274451	-87.587488
644.412940	-89.905319
644.551488	-82.712188
644.690096	-79.260252
644.828763	-83.365989
644.967490	-84.137774
645.106277	-86.678678
645.245124	-84.332337
645.384030	-82.856925
645.522997	-90.900351
645.662023	-80.989270
645.801109	-81.562108
645.940255	-86.285686
646.079460	-78.484031
646.218726	-81.811141
646.358052	-80.753019
646.497438	-85.699702
646.636884	-88.312458
646.776391	-98.106972
646.915957	-85.592726
647.055584	-86.245322
647.195271	-81.063331
647.335019	-81.954086
647.474826	-78.123943
647.614695	-76.850513
647.754623	-78.170296
647.894612	-79.570964
648.034662	-80.856976
648.174772	-80.046994
648.314943	-82.148253
648.455174	-86.386294
648.595466	-81.122675
648.735819	-80.886000
648.876233	-86.664319
649.016707	-86.785375
649.157242	-83.717530
649.297838	-89.754314
649.438495	-87.255332
649.579213	-84.115774
649.719992	-89.894346
649.860832	-82.007825
650.001733	-80.032381
650.142695	-78.033547
650.283718	-75.003745
650.424803	-84.098202
650.565949	-81.539827
650.707156	-88.249184
650.848424	-90.849849
650.989754	-81.636896
651.131145	-80.136601
651.272597	-85.666376
651.414111	-82.586068
651.555687	-79.264113
651.697324	-77.572329
651.839022	-78.162124
651.980782	-77.591339
652.122604	-75.935019
652.264488	-80.619259
652.406433	-83.632056
652.548441	-84.765314
652.690510	-84.540803
652.832640	-79.438880
652.974833	-90.584789
653.117088	-84.374000
653.259405	-83.560884
653.401784	-88.637639
653.544224	-88.680646
653.686727	-80.883868
653.829293	-86.266401
653.971920	-84.745223
654.114609	-76.716163
654.257361	-80.857500
654.400175	-77.971411
654.543052	-77.528948
654.685991	-84.734380
654.828992	-78.350733
654.972056	-79.110393
655.115183	-85.218196
655.258372	-81.159678
655.401623	-86.676508
655.544937	-118.650004
655.688314	-81.897351
655.831754	-83.629125
655.975256	-86.009846
656.118822	-75.858827
656.262450	-79.868002
656.406141	-79.418470
656.549894	-87.255320
656.693711	-97.431530
656.837591	-85.818896
656.981534	-78.267145
657.125540	-78.174348
657.269610	-76.976451
657.413742	-84.774645
657.557938	-91.040249
657.702196	-81.002207
657.846519	-86.870392
657.990904	-82.625464
658.135353	-83.941766
658.279866	-91.147022
658.424441	-83.586098
658.569081	-79.987779
658.713784	-88.664003
658.858550	-82.532733
659.003381	-78.986540
659.148274	-81.265930
659.293232	-77.213364
659.438253	-75.520036
659.583339	-78.576700
659.728488	-79.345147
659.873701	-90.449275
660.018978	-84.864444
660.164318	-82.377262
660.309723	-78.854427
660.455192	-85.774101
660.600725	-77.848674
660.746323	-75.971159
660.891984	-80.320249
661.037710	-77.699431
661.183500	-82.862530
661.329354	-81.483774
661.475272	-83.783698
661.621255	-87.951503
661.767303	-91.175845
661.913415	-91.430740
662.059591	-88.042356
662.205833	-79.919343
662.352138	-77.356043
662.498509	-80.627327
662.644944	-82.273551
662.791443	-81.634088
662.938008	-85.955345
663.084638	-78.610484
663.231332	-85.202484
663.378091	-84.884974
663.524915	-92.809950
663.671804	-80.770346
663.818759	-86.057796
663.965778	-82.567660
664.112863	-80.077758
664.260012	-94.063659
664.407227	-83.439242
664.554507	-89.222748
664.701853	-86.485973
664.849264	-88.184118
664.996740	-83.683648
665.144282	-82.606452
665.291889	-79.543215
665.439561	-79.708534
665.587300	-81.183891
665.735103	-85.466717
665.882973	-80.104282
666.030908	-78.863976
666.178909	-84.150465
666.326976	-87.997994
666.475109	-90.735970
666.623307	-91.011860
666.771571	-86.383776
666.919902	-85.313307
667.068298	-81.960358
667.216761	-93.818386
667.365289	-87.015705
667.513884	-91.044189
667.662545	-84.444370
667.811272	-88.365320
667.960065	-83.066419
668.108925	-83.042154
668.257851	-87.141623
668.406843	-79.367534
668.555902	-85.721576
668.705027	-107.732004
668.854219	-87.191335
669.003478	-91.056291
669.152803	-89.559547
669.302195	-84.404919
669.451653	-83.418281
669.601179	-85.705482
669.750771	-89.554083
669.900430	-97.590700
670.050156	-86.578440
670.199949	-100.434937
670.349808	-84.102361
670.499735	-92.721940
670.649729	-85.862162
670.799790	-85.155011
670.949918	-94.542240
671.100114	-86.620971
671.250377	-85.507973
671.400707	-83.263659
671.551104	-82.801308
671.701569	-81.242083
671.852101	-87.031754
672.002700	-87.547736
672.153368	-81.479892
672.304102	-84.129573
672.454905	-81.374371
672.605775	-76.671622
672.756713	-78.623238
672.907718	-79.138901
673.058791	-93.319835
673.209933	-90.582034
673.361142	-79.739271
673.512419	-76.358880
673.663764	-80.072423
673.815177	-79.845732
673.966658	-78.773010
674.118207	-84.926004
674.269825	-84.785489
674.421510	-85.235847
674.573264	-90.391267
674.725086	-82.535807
674.876977	-90.055159
675.028936	-81.438852
675.180963	-82.671933
675.333059	-82.342673
675.485224	-84.527303
675.637457	-85.280135
675.789758	-83.975453
675.942129	-76.375010
676.094568	-79.011721
676.247075	-80.885083
676.399652	-86.310765
676.552298	-78.219096
676.705012	-90.573858
676.857795	-88.663143
677.010648	-77.959470
677.163569	-80.316385
677.316560	-90.854827
677.469619	-91.003599
677.622748	-80.160707
677.775946	-83.693128
677.929214	-110.716916
678.082551	-85.393549
678.235957	-89.227006
678.389432	-82.418607
678.542977	-81.088492
678.696592	-79.043360
678.850276	-77.809435
679.004030	-81.214291
679.157853	-86.961313
679.311746	-81.899989
679.465709	-76.076169
679.619742	-84.414238
679.773844	-92.571290
679.928017	-81.130589
680.082259	-77.548434
680.236571	-83.503189
680.390954	-88.963031
680.545406	-76.009043
680.699929	-76.987741
680.854522	-76.532237
681.009185	-76.174922
681.163918	-83.588018
681.318722	-76.729255
681.473596	-80.270650
681.628540	-76.871715
681.783555	-78.891018
681.938641	-80.781005
682.093797	-77.166947
682.249023	-73.375487
682.404321	-73.214873
682.559689	-73.977181
682.715128	-74.560912
682.870637	-84.013937
683.026218	-87.594437
683.181869	-80.508066
683.337591	-79.687044
683.493385	-77.213624
683.649249	-75.983958
683.805185	-85.459955
683.961191	-81.285785
684.117269	-79.433009
684.273418	-80.876998
684.429639	-84.207624
684.585930	-78.466227
684.742294	-79.892814
684.898728	-81.528112
685.055234	-83.067744
685.211812	-76.953402
685.368461	-78.167252
685.525182	-81.232815
685.681975	-75.831792
685.838839	-71.540718
685.995775	-77.448693
686.152783	-78.631896
686.309863	-89.928651
686.467014	-80.734230
686.624238	-76.713538
686.781534	-78.969119
686.938902	-78.019382
687.096342	-75.737822
687.253854	-79.233520
687.411438	-76.985175
687.569095	-75.547229
687.726824	-73.978617
687.884626	-76.965125
688.042499	-81.075375
688.200446	-78.056420
688.358465	-82.326992
688.516556	-82.609370
688.674720	-81.505777
688.832957	-77.637503
688.991266	-78.499426
689.149649	-77.331244
689.308104	-77.339992
689.466632	-72.952583
689.625233	-73.533525
689.783906	-86.211061
689.942653	-94.149607
690.101473	-76.404827
690.260367	-77.423628
690.419333	-90.123944
690.578372	-87.710688
690.737485	-77.929945
690.896672	-87.501264
691.055931	-77.740063
691.215264	-74.127738
691.374671	-72.696379
691.534151	-72.583077
691.693704	-77.700010
691.853332	-80.116651
692.013033	-78.749062
692.172807	-85.040849
692.332656	-79.355540
692.492578	-71.751948
692.652575	-69.824268
692.812645	-69.663865
692.972789	-76.108363
693.133007	-79.853268
693.293300	-82.114120
693.453666	-78.298338
693.614107	-79.486745
693.774622	-80.556229
693.935211	-86.329284
694.095875	-78.922735
694.256613	-75.927216
694.417426	-74.002118
694.578313	-73.058262
694.739274	-71.405048
694.900311	-76.215744
695.061421	-88.975819
695.222607	-90.781340
695.383868	-78.434222
695.545203	-71.182637
695.706613	-72.669209
695.868098	-72.499174
696.029658	-82.808612
696.191293	-75.408096
696.353003	-74.585429
696.514789	-72.253571
696.676649	-71.021859
696.838585	-72.787430
697.000596	-73.630670
697.162682	-75.128975
697.324844	-83.719457
697.487081	-77.403018
697.649394	-78.490061
697.811782	-74.829046
697.974246	-71.519909
698.136786	-76.764029
698.299401	-78.451396
698.462092	-72.871411
698.624859	-74.683996
698.787702	-91.571197
698.950621	-88.482632
699.113616	-75.678077
699.276686	-74.176683
699.439833	-83.170640
699.603056	-88.789546
699.766355	-95.428273
699.929731	-78.227057
700.093183	-75.347652
700.256711	-73.649773
700.420315	-72.501030
700.583996	-71.466029
700.747754	-73.921601
700.911588	-85.198485
701.075499	-86.569592
701.239486	-86.882401
701.403550	-96.835843
701.567691	-74.915459
701.731909	-71.952967
701.896203	-74.126521
702.060575	-76.236944
702.225024	-82.013506
702.389549	-79.078679
702.554152	-83.955310
702.718832	-79.202380
702.883589	-71.800139
703.048424	-69.535905
703.213335	-72.322764
703.378324	-77.336491
703.543391	-79.854463
703.708535	-70.434028
703.873757	-70.246483
704.039056	-71.131789
704.204433	-78.921399
704.369887	-76.754979
704.535420	-75.356599
704.701030	-74.982294
704.866718	-76.965522
705.032484	-73.526523
705.198328	-75.197586
705.364250	-77.422427
705.530250	-77.979277
705.696328	-68.872465
705.862485	-70.149133
706.028720	-71.110689
706.195033	-69.836369
706.361424	-69.549839
706.527894	-74.458528
706.694442	-74.119592
706.861069	-74.810049
707.027775	-73.090976
707.194559	-75.856956
707.361422	-83.075828
707.528363	-72.855032
707.695384	-67.373763
707.862483	-68.425261
708.029661	-78.405238
708.196918	-80.697370
708.364254	-69.698679
708.531670	-69.627392
708.699164	-75.336788
708.866738	-76.174441
709.034391	-71.417035
709.202123	-71.906236
709.369935	-71.832596
709.537826	-72.376963
709.705796	-71.605206
709.873847	-71.448936
710.041976	-70.634453
710.210186	-68.273551
710.378475	-71.541904
710.546844	-71.687339
710.715292	-71.313119
710.883821	-68.226010
711.052429	-71.448591
711.221118	-70.771987
711.389887	-70.801720
711.558735	-68.337760
711.727664	-67.251736
711.896673	-71.608674
712.065763	-72.347320
712.234932	-69.027642
712.404183	-68.270745
712.573513	-74.528040
712.742924	-69.526696
712.912416	-67.914516
713.081988	-66.113567
713.251641	-66.461061
713.421375	-68.064788
713.591190	-68.564153
713.761085	-69.531221
713.931061	-72.248779
714.101119	-68.297190
714.271257	-67.922231
714.441476	-67.889397
714.611777	-69.206811
714.782159	-67.002101
714.952622	-66.716502
715.123166	-67.202244
715.293792	-69.428591
715.464499	-67.544409
715.635288	-63.652268
715.806158	-64.117205
715.977110	-65.288618
716.148143	-67.273956
716.319259	-65.007648
716.490456	-64.997052
716.661735	-66.529279
716.833096	-72.375126
717.004538	-66.906920
717.176063	-65.255821
717.347670	-66.419922
717.519359	-68.556015
717.691130	-65.349263
717.862984	-65.929928
718.034920	-69.612524
718.206938	-67.334793
718.379039	-63.681004
718.551222	-64.321728
718.723488	-68.523731
718.895836	-68.112487
719.068267	-63.554912
719.240781	-63.918464
719.413377	-67.271864
719.586057	-70.096227
719.758819	-64.551539
719.931664	-63.937371
720.104593	-63.052711
720.277604	-64.606370
720.450699	-64.958870
720.623876	-64.015873
720.797137	-64.031316
720.970482	-64.079242
721.143910	-69.803508
721.317421	-67.112324
721.491016	-63.503824
721.664694	-61.318592
721.838456	-64.422888
722.012302	-65.225142
722.186231	-62.302481
722.360244	-61.287473
722.534342	-63.680632
722.708523	-67.252362
722.882788	-64.320126
723.057137	-63.556823
723.231570	-62.661412
723.406088	-65.926240
723.580689	-64.915198
723.755375	-62.531720
723.930146	-61.190034
724.105000	-64.002727
724.279940	-66.448386
724.454963	-65.368780
724.630072	-63.340419
724.805265	-61.950156
724.980543	-61.828756
725.155905	-63.330878
725.331353	-64.593159
725.506885	-62.475504
725.682503	-62.074157
725.858205	-62.550492
726.033993	-63.962074
726.209865	-62.278235
726.385823	-62.838643
726.561866	-63.208179
726.737995	-63.541754
726.914209	-62.703626
727.090508	-61.751907
727.266893	-62.306178
727.443364	-61.890238
727.619920	-63.970491
727.796562	-63.772397
727.973290	-62.001694
728.150103	-59.083914
728.327003	-60.820724
728.503988	-61.809259
728.681060	-61.842978
728.858218	-61.357221
729.035461	-63.355361
729.212791	-64.444475
729.390208	-62.063590
729.567710	-61.387061
729.745299	-60.907656
729.922975	-62.840692
730.100737	-62.442252
730.278586	-63.053097
730.456521	-60.779393
730.634543	-59.916504
730.812652	-61.676961
730.990848	-63.958457
731.169130	-62.625618
731.347500	-59.895678
731.525957	-58.772499
731.704500	-61.115195
731.883131	-63.830054
732.061850	-61.382033
732.240655	-60.478337
732.419548	-62.003639
732.598528	-61.439898
732.777596	-60.900434
732.956751	-62.166147
733.135994	-62.044270
733.315325	-59.173926
733.494744	-58.731562
733.674250	-62.882458
733.853844	-63.075451
734.033526	-61.248317
734.213296	-62.005086
734.393154	-62.876784
734.573101	-59.569937
734.753135	-61.055985
734.933258	-62.042228
735.113469	-60.275560
735.293769	-59.755523
735.474157	-61.318097
735.654633	-61.661508
735.835198	-60.872475
736.015852	-61.296067
736.196594	-61.266387
736.377426	-58.249085
736.558346	-58.277548
736.739355	-61.872588
736.920453	-64.022332
737.101640	-61.600989
737.282916	-60.889285
737.464282	-60.820848
737.645736	-61.824533
737.827280	-62.950448
738.008914	-60.826142
738.190637	-58.599475
738.372449	-59.019801
738.554351	-61.690654
738.736342	-62.578203
738.918424	-61.385025
739.100595	-60.443386
739.282855	-60.805305
739.465206	-61.245830
739.647647	-62.129513
739.830178	-62.514408
740.012799	-62.527827
740.195510	-59.866329
740.378311	-58.834309
740.561203	-60.450575
740.744185	-63.132081
740.927258	-61.863638
741.110421	-59.168666
741.293674	-60.142418
741.477018	-61.786813
741.660453	-62.301497
741.843979	-61.428280
742.027596	-60.772671
742.211303	-60.324580
742.395102	-62.503563
742.578991	-61.660614
742.762972	-60.140685
742.947044	-59.959900
743.131207	-61.610720
743.315461	-62.315151
743.499807	-60.115729
743.684244	-60.755396
743.868773	-62.478487
744.053394	-64.931479
744.238106	-62.731784
744.422910	-61.229120
744.607805	-60.636605
744.792793	-60.292057
744.977872	-60.320938
745.163044	-60.254086
745.348307	-60.999459
745.533663	-60.803398
745.719111	-62.690519
745.904651	-64.740814
746.090283	-63.543912
746.276008	-61.925482
746.461826	-62.685857
746.647735	-61.341429
746.833738	-60.861723
747.019833	-62.660815
747.206021	-62.869104
747.392302	-61.377991
747.578676	-61.783916
747.765143	-64.601591
747.951703	-64.848407
748.138356	-65.932953
748.325102	-62.336640
748.511941	-60.146950
748.698874	-59.568203
748.885900	-62.039046
749.073019	-62.485887
749.260232	-65.077991
749.447539	-65.808955
749.634939	-64.249757
749.822433	-64.024262
750.010021	-62.919442
750.197703	-64.061759
750.385479	-63.353762
750.573348	-64.272250
750.761312	-64.204221
750.949370	-64.732654
751.137523	-62.279779
751.325769	-62.786692
751.514110	-66.916130
751.702545	-68.782868
751.891075	-65.690784
752.079700	-66.285940
752.268419	-63.793748
752.457233	-61.240809
752.646142	-65.676843
752.835145	-68.714130
753.024244	-68.706620
753.213437	-67.658538
753.402726	-67.892796
753.592110	-61.726277
753.781589	-62.871187
753.971163	-66.757717
754.160833	-69.310123
754.350598	-69.838570
754.540459	-67.596690
754.730415	-64.226933
754.920467	-64.117318
755.110615	-79.271555
755.300858	-66.822445
755.491198	-67.057377
755.681633	-70.776519
755.872164	-67.329757
756.062792	-63.448581
756.253515	-69.271630
756.444335	-71.509378
756.635252	-71.325914
756.826264	-71.093552
757.017373	-69.758743
757.208579	-69.146184
757.399881	-67.855266
757.591280	-67.168751
757.782776	-68.824698
757.974368	-70.051321
758.166058	-74.514466
758.357844	-77.426249
758.549728	-78.789818
758.741708	-71.488772
758.933786	-64.947566
759.125961	-64.132131
759.318233	-67.446272
759.510603	-81.945028
759.703071	-69.907395
759.895635	-68.861633
760.088298	-72.019600
760.281058	-68.657374
760.473916	-66.143849
760.666872	-72.464296
760.859926	-75.929072
761.053078	-71.882890
761.246328	-69.271191
761.439676	-68.389650
761.633122	-68.338278
761.826667	-67.871058
762.020310	-64.696794
762.214052	-67.718311
762.407892	-77.053160
762.601831	-65.789185
762.795868	-62.692783
762.990004	-62.694695
763.184239	-68.447627
763.378573	-69.798203
763.573006	-64.634589
763.767538	-63.193713
763.962169	-65.199851
764.156900	-64.402610
764.351729	-67.254094
764.546658	-65.786584
764.741687	-65.598175
764.936815	-67.062149
765.132042	-64.007607
765.327370	-62.733911
765.522797	-65.784694
765.718324	-64.461660
765.913950	-61.178787
766.109677	-63.444307
766.305504	-64.326737
766.501431	-61.365304
766.697458	-61.603601
766.893586	-61.221280
767.089814	-61.644801
767.286142	-65.457523
767.482571	-63.297643
767.679100	-59.806339
767.875730	-61.186725
768.072461	-63.474743
768.269293	-59.351473
768.466225	-59.400968
768.663259	-60.237933
768.860393	-61.620875
769.057629	-61.513038
769.254966	-60.472269
769.452404	-58.230137
769.649944	-58.974627
769.847585	-59.995157
770.045328	-59.406395
770.243172	-58.696389
770.441118	-58.793529
770.639166	-59.715487
770.837315	-57.800874
771.035567	-59.122002
771.233920	-59.527566
771.432376	-58.279806
771.630934	-56.794647
771.829594	-57.998320
772.028356	-57.216117
772.227220	-58.210667
772.426188	-58.254630
772.625257	-56.110060
772.824430	-57.733208
773.023705	-58.954273
773.223083	-54.862044
773.422563	-55.549607
773.622147	-56.921184
773.821834	-56.434604
774.021624	-57.119040
774.221517	-55.823622
774.421513	-55.930140
774.621613	-57.644277
774.821816	-55.123792
775.022122	-55.464202
775.222532	-57.314906
775.423046	-54.634916
775.623664	-55.810316
775.824385	-56.597041
776.025211	-54.271396
776.226140	-54.007656
776.427173	-53.803473
776.628311	-53.304270
776.829553	-56.740812
777.030899	-55.622990
777.232350	-52.971340
777.433905	-53.718008
777.635564	-55.592697
777.837328	-54.989706
778.039197	-53.982995
778.241171	-54.805219
778.443250	-54.708735
778.645433	-52.687042
778.847722	-53.646927
779.050116	-53.690384
779.252615	-52.639288
779.455219	-52.894310
779.657929	-53.649893
779.860744	-52.528515
780.063665	-54.709022
780.266691	-52.643687
780.469823	-51.786497
780.673061	-53.614645
780.876405	-52.851058
781.079855	-52.438123
781.283410	-53.389427
781.487072	-52.983484
781.690840	-52.706536
781.894715	-52.061768
782.098695	-51.227853
782.302783	-52.258872
782.506976	-51.417385
782.711277	-51.885318
782.915684	-53.070579
783.120198	-52.216323
783.324818	-51.297280
783.529546	-51.355569
783.734381	-51.483464
783.939322	-51.490362
784.144372	-51.705642
784.349528	-52.591917
784.554792	-51.120777
784.760163	-50.194752
784.965642	-51.294733
785.171228	-51.696811
785.376922	-50.335067
785.582724	-52.041701
785.788634	-50.649539
785.994651	-51.175768
786.200777	-51.543793
786.407011	-50.295981
786.613353	-49.752665
786.819804	-50.665787
787.026363	-50.532084
787.233030	-50.689391
787.439806	-49.813495
787.646691	-49.875504
787.853684	-51.889646
788.060786	-50.488388
788.267997	-49.431730
788.475317	-50.637062
788.682746	-50.197403
788.890285	-50.340222
789.097932	-50.515965
789.305689	-48.818367
789.513555	-49.539723
789.721531	-50.437599
789.929617	-49.391650
790.137812	-49.300792
790.346117	-49.438086
790.554531	-50.216428
790.763056	-49.978401
790.971691	-49.952485
791.180436	-49.026853
791.389291	-49.611406
791.598256	-48.744769
791.807332	-48.984360
792.016518	-49.439003
792.225815	-48.959755
792.435222	-48.636048
792.644740	-49.364165
792.854369	-49.429557
793.064109	-48.709031
793.273960	-49.413836
793.483922	-49.538693
793.693995	-49.179424
793.904180	-48.943832
794.114475	-48.753524
794.324882	-48.711865
794.535401	-48.339987
794.746031	-48.141259
794.956774	-48.724022
795.167627	-48.947435
795.378593	-48.504321
795.589671	-48.874408
795.800861	-48.864567
796.012162	-48.235954
796.223577	-48.570141
796.435103	-47.949427
796.646742	-47.288465
796.858493	-49.251803
797.070357	-49.097883
797.282334	-48.038920
797.494423	-49.159948
797.706626	-48.055710
797.918941	-47.336158
798.131369	-48.003823
798.343911	-47.523732
798.556566	-47.996830
798.769334	-48.165639
798.982215	-47.966213
799.195210	-49.350121
799.408319	-47.577267
799.621541	-47.072902
799.834877	-49.359932
800.048327	-47.561115
800.261890	-47.524488
800.475568	-48.246665
800.689360	-47.545388
800.903266	-47.854105
801.117287	-48.154024
801.331422	-47.237119
801.545671	-47.971223
801.760036	-47.227460
801.974514	-47.562631
802.189108	-48.141181
802.403816	-47.567589
802.618640	-47.659088
802.833578	-48.197360
803.048632	-47.262495
803.263800	-47.545334
803.479085	-47.900328
803.694484	-46.933311
803.909999	-47.803261
804.125630	-47.604940
804.341376	-46.975365
804.557239	-48.049778
804.773217	-46.462486
804.989311	-47.224173
805.205521	-47.670434
805.421847	-46.492239
805.638290	-47.989380
805.854849	-47.580363
806.071524	-46.882918
806.288316	-48.132431
806.505225	-47.088889
806.722250	-47.315791
806.939393	-47.909168
807.156652	-47.350300
807.374028	-48.202257
807.591521	-46.845382
807.809132	-46.131104
808.026859	-48.760543
808.244705	-46.291971
808.462667	-47.173645
808.680748	-46.869483
808.898946	-46.931164
809.117261	-47.268475
809.335695	-47.205996
809.554246	-46.402741
809.772916	-47.484511
809.991704	-47.086749
810.210610	-46.937188
810.429634	-48.298847
810.648777	-46.396763
810.868039	-47.225358
811.087419	-47.887615
811.306918	-46.765920
811.526535	-47.792832
811.746272	-47.266041
811.966127	-46.775749
812.186102	-48.242978
812.406196	-45.986906
812.626409	-47.558508
812.846742	-47.659355
813.067194	-46.384163
813.287766	-47.440864
813.508457	-46.695102
813.729269	-46.880324
813.950200	-47.817604
814.171251	-45.789638
814.392422	-47.350085
814.613714	-47.084536
814.835126	-46.668927
815.056658	-47.842246
815.278311	-46.954402
815.500084	-46.567215
815.721978	-47.446804
815.943993	-46.826620
816.166128	-47.847538
816.388385	-47.490048
816.610762	-46.875323
816.833261	-46.907200
817.055881	-46.739695
817.278623	-47.926374
817.501486	-47.848147
817.724471	-46.675998
817.947577	-47.475025
818.170805	-46.525920
818.394155	-47.520062
818.617627	-48.150413
818.841221	-45.954801
819.064937	-47.515701
819.288775	-46.684853
819.512736	-46.998176
819.736819	-47.987930
819.961025	-46.569867
820.185354	-46.533105
820.409805	-48.109061
820.634379	-46.402184
820.859076	-47.985000
821.083897	-46.512351
821.308840	-47.113378
821.533907	-47.649547
821.759097	-46.527680
821.984411	-47.118979
822.209848	-46.591909
822.435409	-47.865874
822.661093	-47.602844
822.886902	-47.361699
823.112834	-46.730939
823.338891	-46.903283
823.565072	-46.765976
823.791377	-48.305439
824.017807	-46.770894
824.244361	-47.660514
824.471039	-47.055473
824.697843	-47.229404
824.924771	-48.000075
825.151824	-46.849165
825.379002	-47.492154
825.606306	-47.963373
825.833734	-46.385810
826.061288	-48.699844
826.288967	-46.785760
826.516772	-47.861728
826.744703	-47.861917
826.972759	-46.952442
827.200941	-47.950731
827.429249	-46.960058
827.657683	-47.530623
827.886243	-48.342896
828.114930	-47.277543
828.343743	-47.924903
828.572682	-47.356106
828.801748	-47.199128
829.030941	-48.672890
829.260260	-47.004368
829.489706	-47.889704
829.719280	-47.606452
829.948980	-47.566277
830.178808	-47.877279
830.408763	-46.692426
830.638845	-48.535598
830.869055	-47.157021
831.099393	-47.173815
831.329858	-48.043200
831.560451	-47.479763
831.791173	-47.361579
832.022022	-47.045832
832.252999	-48.048269
832.484105	-48.059050
832.715339	-46.909275
832.946702	-47.327842
833.178193	-47.586236
833.409813	-47.071704
833.641561	-47.670575
833.873439	-47.306342
834.105445	-47.947026
834.337581	-46.261028
834.569846	-47.634629
834.802241	-47.180099
835.034764	-46.955669
835.267418	-47.846754
835.500201	-47.332796
835.733114	-46.703644
835.966157	-47.047532
836.199329	-47.162296
836.432632	-48.224441
836.666065	-46.130551
836.899629	-47.489643
837.133323	-47.326903
837.367147	-46.905508
837.601102	-46.577910
837.835188	-46.894926
838.069405	-47.989827
838.303752	-46.718747
838.538231	-46.445923
838.772841	-47.451806
839.007582	-46.565681
839.242455	-46.868174
839.477459	-46.459632
839.712595	-47.289992
839.947863	-46.632190
840.183263	-45.625321
840.418794	-46.959057
840.654458	-46.540586
840.890254	-46.775511
841.126182	-46.403998
841.362242	-46.325791
841.598435	-46.498239
841.834761	-45.648896
842.071220	-46.787694
842.307811	-46.541398
842.544536	-45.590047
842.781393	-45.927556
843.018384	-45.918466
843.255508	-46.218448
843.492765	-45.158615
843.730156	-46.115068
843.967681	-45.942746
844.205339	-45.510360
844.443132	-45.787860
844.681058	-45.315712
844.919118	-46.035913
845.157313	-44.786989
845.395642	-45.597671
845.634105	-45.492482
845.872703	-44.910924
846.111436	-45.180480
846.350303	-44.352309
846.589306	-45.469395
846.828443	-44.716005
847.067716	-44.737161
847.307124	-45.355996
847.546667	-44.186632
847.786345	-45.066820
848.026160	-43.732996
848.266110	-44.616392
848.506195	-45.029625
848.746417	-43.638611
848.986775	-44.847134
849.227269	-43.678088
849.467899	-44.211724
849.708666	-43.991144
849.949569	-43.874216
850.190609	-44.889514
850.431785	-43.144436
850.673099	-44.279605
850.914549	-43.120857
851.156137	-43.612098
851.397861	-43.607254
851.639723	-43.160819
851.881723	-44.014238
852.123860	-43.281374
852.366135	-43.680190
852.608547	-42.893138
852.851098	-42.958629
853.093786	-43.032442
853.336613	-42.804602
853.579578	-43.165524
853.822681	-42.828313
854.065923	-42.770144
854.309304	-42.944078
854.552823	-42.658376
854.796481	-42.005758
855.040278	-42.596328
855.284215	-42.353920
855.528290	-42.444972
855.772505	-42.050132
856.016859	-41.879874
856.261353	-42.963031
856.505987	-41.190469
856.750760	-42.178273
856.995673	-41.900060
857.240727	-41.443337
857.485920	-42.127994
857.731254	-40.914103
857.976729	-42.206003
858.222343	-41.153160
858.468099	-41.144842
858.713995	-41.866685
858.960032	-40.624397
859.206211	-41.822195
859.452530	-40.612648
859.698991	-41.182738
859.945593	-41.163490
860.192336	-40.412220
860.439222	-41.275459
860.686248	-40.349048
860.933417	-40.937863
861.180728	-40.894280
861.428181	-40.011396
861.675776	-40.890784
861.923514	-40.248392
862.171394	-40.217339
862.419417	-40.628972
862.667582	-40.084169
862.915890	-40.127671
863.164342	-40.251891
863.412936	-39.722564
863.661674	-40.521525
863.910555	-39.586029
864.159579	-39.751232
864.408747	-40.149233
864.658059	-39.163262
864.907515	-40.299169
865.157114	-39.138841
865.406858	-39.755698
865.656746	-39.560217
865.906778	-39.112950
866.156955	-39.622843
866.407277	-39.225064
866.657743	-39.127016
866.908354	-39.515415
867.159110	-38.783826
867.410011	-38.978220
867.661057	-39.356012
867.912249	-38.383989
868.163586	-39.381209
868.415069	-38.542360
868.666697	-38.626824
868.918472	-38.979106
869.170392	-38.133684
869.422458	-38.939306
869.674671	-38.349634
869.927030	-38.469710
870.179536	-38.247352
870.432188	-38.407416
870.684987	-38.089440
870.937933	-38.565795
871.191026	-37.760283
871.444266	-38.077698
871.697653	-38.366012
871.951188	-37.423238
872.204870	-38.501510
872.458700	-37.406079
872.712677	-37.857688
872.966803	-37.964175
873.221076	-37.584299
873.475498	-37.355690
873.730068	-37.916103
873.984787	-37.148281
874.239654	-37.749915
874.494669	-37.513074
874.749834	-36.848581
875.005147	-37.649796
875.260610	-37.209452
875.516222	-37.115075
875.771983	-37.301837
876.027894	-36.986734
876.283954	-36.910970
876.540164	-37.213939
876.796524	-36.891609
877.053033	-36.650886
877.309693	-37.039963
877.566503	-36.781125
877.823464	-36.529997
878.080575	-37.057703
878.337837	-36.048568
878.595249	-37.053745
878.852813	-36.321862
879.110528	-36.633107
879.368393	-36.288324
879.626410	-36.508229
879.884579	-36.150284
880.142899	-36.415339
880.401371	-36.132779
880.659994	-36.254720
880.918770	-35.950722
881.177698	-36.228731
881.436778	-35.863379
881.696010	-36.099026
881.955395	-35.740524
882.214933	-35.901960
882.474623	-36.019460
882.734467	-35.635694
882.994463	-35.818556
883.254613	-35.574077
883.514916	-35.782689
883.775372	-35.408945
884.035982	-35.718412
884.296746	-35.573236
884.557664	-35.298214
884.818735	-35.607939
885.079961	-35.195217
885.341341	-35.629067
885.602876	-35.061390
885.864565	-35.353451
886.126409	-35.087917
886.388407	-35.344411
886.650561	-35.175295
886.912870	-35.082425
887.175334	-35.066741
887.437953	-35.025930
887.700728	-34.943231
887.963658	-35.082877
888.226745	-34.891422
888.489987	-34.667135
888.753385	-34.909130
889.016940	-34.855673
889.280651	-34.723303
889.544518	-34.663859
889.808543	-34.755709
890.072723	-34.461406
890.337061	-34.810657
890.601556	-34.501976
890.866208	-34.474128
891.131017	-34.558395
891.395984	-34.378500
891.661109	-34.298390
891.926391	-34.509831
892.191831	-34.246925
892.457429	-34.250065
892.723186	-34.279419
892.989100	-34.100012
893.255173	-34.317414
893.521405	-34.078952
893.787796	-34.105638
894.054345	-34.001798
894.321053	-34.078971
894.587921	-33.998065
894.854948	-33.903429
895.122134	-33.969162
895.389480	-33.874794
895.656986	-33.726512
895.924651	-33.888205
896.192477	-33.755034
896.460463	-33.778309
896.728609	-33.691833
896.996915	-33.544130
897.265382	-33.839093
897.534010	-33.408439
897.802799	-33.635304
898.071749	-33.539407
898.340860	-33.415910
898.610132	-33.471038
898.879566	-33.327654
899.149162	-33.468614
899.418919	-33.377323
899.688838	-33.274723
899.958919	-33.289187
900.229162	-33.250612
900.499568	-33.221289
900.770136	-33.212098
901.040867	-33.169692
901.311761	-33.133272
901.582817	-33.017539
901.854037	-33.083475
902.125420	-33.018118
902.396966	-33.074743
902.668676	-32.917744
902.940550	-32.870113
903.212587	-32.900572
903.484788	-32.908770
903.757153	-32.673478
904.029683	-32.980387
904.302377	-32.478459
904.575236	-32.918022
904.848259	-32.410471
905.121447	-32.761091
905.394800	-32.546300
905.668319	-32.639527
905.942002	-32.340236
906.215852	-32.615870
906.489866	-32.263958
906.764047	-32.610095
907.038393	-32.159543
907.312906	-32.533495
907.587584	-32.234854
907.862429	-32.216162
908.137441	-32.250945
908.412619	-32.291827
908.687964	-32.028611
908.963476	-32.327433
909.239155	-31.918056
909.515002	-32.156764
909.791015	-31.989080
910.067197	-31.920538
910.343546	-32.011269
910.620063	-31.924150
910.896748	-31.784892
911.173601	-31.897553
911.450623	-31.757791
911.727813	-31.648681
912.005171	-31.928689
912.282699	-31.517832
912.560395	-31.733142
912.838261	-31.540343
913.116296	-31.726673
913.394500	-31.333644
913.672874	-31.762190
913.951418	-31.338517
914.230131	-31.655604
914.509015	-31.270172
914.788068	-31.580115
915.067292	-31.148734
915.346687	-31.565146
915.626252	-31.121912
915.905988	-31.481729
916.185895	-31.069178
916.465973	-31.326275
916.746223	-31.023094
917.026644	-31.250666
917.307236	-30.894666
917.588000	-31.251408
917.868937	-30.845337
918.150045	-31.112938
918.431325	-30.865270
918.712778	-30.976583
918.994404	-30.774702
919.276202	-31.042527
919.558173	-30.644589
919.840317	-31.036307
920.122634	-30.675388
920.405125	-30.841123
920.687789	-30.697773
920.970627	-30.820182
921.253639	-30.642007
921.536824	-30.845452
921.820184	-30.599770
922.103718	-30.733241
922.387427	-30.658458
922.671310	-30.600533
922.955368	-30.614934
923.239601	-30.582225
923.524009	-30.525088
923.808592	-30.573114
924.093351	-30.522993
924.378285	-30.475546
924.663396	-30.463309
924.948682	-30.386164
925.234144	-30.457570
925.519782	-30.310022
925.805597	-30.392856
926.091589	-30.245609
926.377757	-30.325853
926.664102	-30.275505
926.950624	-30.247727
927.237323	-30.167216
927.524200	-30.242544
927.811255	-30.116671
928.098487	-30.124689
928.385897	-30.176392
928.673485	-29.962934
928.961251	-30.157733
929.249196	-29.988032
929.537319	-29.914902
929.825621	-30.051754
930.114102	-29.893212
930.402762	-29.783050
930.691601	-30.003653
930.980620	-29.669233
931.269818	-29.819273
931.559196	-29.726196
931.848753	-29.672858
932.138491	-29.547453
932.428409	-29.755269
932.718508	-29.357204
933.008787	-29.717467
933.299246	-29.384431
933.589887	-29.480533
933.880709	-29.418890
934.171712	-29.436137
934.462896	-29.282014
934.754262	-29.474124
935.045810	-29.206498
935.337539	-29.370393
935.629451	-29.254703
935.921545	-29.296558
936.213822	-29.203116
936.506281	-29.275029
936.798922	-29.119488
937.091747	-29.315820
937.384755	-29.012671
937.677946	-29.226151
937.971321	-29.097798
938.264879	-29.057598
938.558621	-29.043200
938.852547	-29.090208
939.146657	-28.858727
939.440952	-29.099306
939.735431	-28.922686
940.030095	-28.780202
940.324943	-28.970538
940.619977	-28.871128
940.915196	-28.676832
941.210600	-28.910517
941.506189	-28.701696
941.801965	-28.682569
942.097926	-28.749778
942.394074	-28.678542
942.690407	-28.518010
942.986927	-28.770233
943.283634	-28.505256
943.580527	-28.581530
943.877608	-28.540015
944.174875	-28.555166
944.472330	-28.477454
944.769972	-28.575546
945.067802	-28.360854
945.365820	-28.550204
945.664026	-28.424056
945.962420	-28.411932
946.261002	-28.463801
946.559773	-28.396272
946.858733	-28.345702
947.157881	-28.447509
947.457219	-28.357151
947.756746	-28.269728
948.056462	-28.452180
948.356368	-28.291656
948.656464	-28.228751
948.956749	-28.429400
949.257225	-28.198223
949.557891	-28.212836
949.858748	-28.383034
950.159796	-28.174890
950.461034	-28.136543
950.762463	-28.297905
951.064084	-28.175060
951.365896	-28.065696
951.667900	-28.251958
951.970095	-28.138704
952.272483	-27.943466
952.575063	-28.265390
952.877835	-27.995456
953.180799	-28.007623
953.483956	-28.033788
953.787307	-28.021168
954.090850	-27.918542
954.394586	-28.001211
954.698516	-27.883697
955.002640	-27.864404
955.306957	-27.922849
955.611469	-27.854606
955.916174	-27.717501
956.221074	-27.956109
956.526169	-27.617083
956.831458	-27.824783
957.136942	-27.742990
957.442622	-27.648610
957.748496	-27.680160
958.054567	-27.730868
958.360833	-27.591530
958.667294	-27.555645
958.973952	-27.753254
959.280806	-27.470179
959.587857	-27.528620
959.895104	-27.664260
960.202548	-27.506754
960.510189	-27.394756
960.818027	-27.633356
961.126062	-27.422287
961.434295	-27.423146
961.742726	-27.465793
962.051355	-27.493199
962.360182	-27.255591
962.669207	-27.497390
962.978431	-27.326015
963.287854	-27.349705
963.597475	-27.275036
963.907296	-27.401689
964.217315	-27.138410
964.527535	-27.421967
964.837954	-27.130194
965.148573	-27.241344
965.459392	-27.205742
965.770411	-27.183333
966.081630	-27.128278
966.393051	-27.144936
966.704672	-27.201702
967.016494	-26.965995
967.328517	-27.167533
967.640742	-27.086524
967.953169	-27.026067
968.265797	-26.996301
968.578627	-27.132561
968.891660	-26.908331
969.204895	-27.071477
969.518332	-26.938391
969.831972	-27.061235
970.145816	-26.856640
970.459862	-27.034145
970.774112	-26.937047
971.088565	-26.897982
971.403223	-27.000445
971.718084	-26.837729
972.033149	-26.933044
972.348419	-26.930055
972.663893	-26.858973
972.979572	-26.834901
973.295456	-26.928208
973.611546	-26.838736
973.927840	-26.774272
974.244340	-26.863143
974.561046	-26.904886
974.877958	-26.657178
975.195076	-26.814465
975.512401	-26.864238
975.829932	-26.688792
976.147670	-26.734883
976.465615	-26.727440
976.783767	-26.845927
977.102126	-26.523452
977.420693	-26.803380
977.739468	-26.699319
978.058451	-26.642401
978.377642	-26.642925
978.697041	-26.664377
979.016649	-26.699242
979.336466	-26.547868
979.656492	-26.658408
979.976727	-26.652558
980.297171	-26.526100
980.617825	-26.663925
980.938689	-26.539332
981.259763	-26.587079
981.581048	-26.568808
981.902542	-26.543194
982.224248	-26.545486
982.546164	-26.445041
982.868291	-26.667274
983.190630	-26.361641
983.513180	-26.480961
983.835942	-26.507250
984.158916	-26.456803
984.482101	-26.337243
984.805500	-26.407471
985.129110	-26.476710
985.452934	-26.253619
985.776970	-26.333585
986.101220	-26.309221
986.425683	-26.385375
986.750359	-26.081485
987.075250	-26.365792
987.400354	-26.186122
987.725673	-26.126278
988.051206	-26.226408
988.376954	-26.114536
988.702916	-26.137992
989.029094	-26.042732
989.355487	-26.150194
989.682095	-26.024389
990.008919	-26.022307
990.335959	-26.034958
990.663216	-26.055824
990.990688	-25.940180
991.318377	-25.962489
991.646283	-26.008590
991.974406	-25.952974
992.302746	-25.915761
992.631304	-25.884512
992.960079	-26.025649
993.289072	-25.802357
993.618283	-25.921235
993.947713	-25.850824
994.277361	-25.941331
994.607227	-25.763749
994.937313	-25.831145
995.267618	-25.923635
995.598142	-25.684767
995.928886	-25.818825
996.259849	-25.842851
996.591033	-25.713196
996.922437	-25.674231
997.254061	-25.785410
997.585906	-25.759860
997.917972	-25.618255
998.250260	-25.566102
998.582768	-25.884401
998.915498	-25.523245
999.248450	-25.547933
999.581624	-25.689981
999.915020	-25.548639
1000.248639	-25.692595
1000.582480	-25.356214
1000.916545	-25.663447
1001.250832	-25.561827
1001.585343	-25.463930
1001.920077	-25.512635
1002.255035	-25.460643
1002.590218	-25.581122
1002.925624	-25.394219
1003.261255	-25.445821
1003.597111	-25.487897
1003.933192	-25.439799
1004.269497	-25.347052
1004.606029	-25.467117
1004.942785	-25.424202
1005.279768	-25.256134
1005.616977	-25.430169
1005.954412	-25.369280
1006.292074	-25.302107
1006.629962	-25.246866
1006.968077	-25.296863
1007.306420	-25.363248
1007.644990	-25.158238
1007.983787	-25.162323
1008.322813	-25.265476
1008.662067	-25.197617
1009.001549	-25.096379
1009.341259	-25.082800
1009.681199	-25.141108
1010.021367	-25.111448
1010.361765	-24.958807
1010.702392	-25.009638
1011.043250	-25.104099
1011.384337	-24.874113
1011.725654	-24.886492
1012.067202	-25.037304
1012.408980	-24.872600
1012.750989	-24.753530
1013.093230	-24.863741
1013.435702	-24.890994
1013.778405	-24.756638
1014.121341	-24.632185
1014.464508	-24.792172
1014.807908	-24.729107
1015.151540	-24.615520
1015.495405	-24.623701
1015.839503	-24.553624
1016.183835	-24.583620
1016.528400	-24.618155
1016.873198	-24.388880
1017.218231	-24.409021
1017.563498	-24.584741
1017.908999	-24.343045
1018.254735	-24.280647
1018.600707	-24.399897
1018.946913	-24.375043
1019.293354	-24.186002
1019.640032	-24.215645
1019.986945	-24.335229
1020.334094	-24.172460
1020.681480	-24.138686
1021.029102	-24.131650
1021.376961	-24.145381
1021.725058	-24.171875
1022.073391	-24.100084
1022.421962	-23.903728
1022.770772	-24.108648
1023.119819	-24.226277
1023.469104	-23.849895
1023.818628	-23.925660
1024.168391	-24.123650
1024.518393	-23.934678
1024.868634	-23.930926
1025.219115	-23.993851
1025.569836	-23.812540
1025.920796	-23.953560
1026.271997	-24.019654
1026.623438	-23.715541
1026.975121	-23.863872
1027.327044	-23.971523
1027.679208	-23.749194
1028.031614	-23.741770
1028.384262	-23.899435
1028.737152	-23.755221
1029.090284	-23.702238
1029.443659	-23.724122
1029.797276	-23.715770
1030.151137	-23.741167
1030.505240	-23.624824
1030.859587	-23.587783
1031.214178	-23.649896
1031.569013	-23.611669
1031.924093	-23.546881
1032.279417	-23.540953
1032.634985	-23.476808
1032.990799	-23.476144
1033.346858	-23.535009
1033.703162	-23.366682
1034.059712	-23.330024
1034.416509	-23.463891
1034.773551	-23.333771
1035.130841	-23.181188
1035.488377	-23.274703
1035.846160	-23.348106
1036.204190	-23.145411
1036.562468	-23.049772
1036.920994	-23.109837
1037.279768	-23.196915
1037.638790	-23.032180
1037.998061	-22.880207
1038.357581	-22.973163
1038.717350	-22.977878
1039.077368	-22.899430
1039.437636	-22.824601
1039.798154	-22.785820
1040.158922	-22.750590
1040.519940	-22.808272
1040.881209	-22.721732
1041.242729	-22.610148
1041.604501	-22.633967
1041.966524	-22.658544
1042.328798	-22.604631
1042.691325	-22.487277
1043.054103	-22.486715
1043.417135	-22.550665
1043.780419	-22.496552
1044.143956	-22.374434
1044.507746	-22.346445
1044.871791	-22.427696
1045.236088	-22.389561
1045.600641	-22.325709
1045.965447	-22.233958
1046.330508	-22.263912
1046.695824	-22.320889
1047.061395	-22.230397
1047.427222	-22.179777
1047.793304	-22.195951
1048.159642	-22.199081
1048.526237	-22.108175
1048.893088	-22.128640
1049.260196	-22.171924
1049.627561	-22.119747
1049.995183	-22.002934
1050.363063	-22.016763
1050.731201	-22.137564
1051.099597	-22.049944
1051.468251	-21.935409
1051.837164	-21.966467
1052.206336	-22.024194
1052.575767	-21.945661
1052.945458	-21.878265
1053.315409	-21.936267
1053.685619	-21.930119
1054.056090	-21.852959
1054.426821	-21.778498
1054.797814	-21.842106
1055.169067	-21.860174
1055.540582	-21.775342
1055.912359	-21.715768
1056.284398	-21.691982
1056.656698	-21.731126
1057.029262	-21.702358
1057.402088	-21.633390
1057.775177	-21.559856
1058.148530	-21.595179
1058.522146	-21.600824
1058.896027	-21.508388
1059.270171	-21.421862
1059.644580	-21.439533
1060.019254	-21.499222
1060.394193	-21.411399
1060.769397	-21.279861
1061.144867	-21.263910
1061.520602	-21.325710
1061.896604	-21.321607
1062.272872	-21.204415
1062.649407	-21.141803
1063.026210	-21.112726
1063.403279	-21.132770
1063.780616	-21.125801
1064.158221	-21.059108
1064.536094	-20.996910
1064.914235	-20.932397
1065.292645	-20.945166
1065.671325	-20.956082
1066.050273	-20.907529
1066.429491	-20.804762
1066.808979	-20.790589
1067.188738	-20.811595
1067.568766	-20.788771
1067.949066	-20.717938
1068.329636	-20.667204
1068.710478	-20.696145
1069.091592	-20.682511
1069.472977	-20.629339
1069.854635	-20.584766
1070.236565	-20.594417
1070.618768	-20.587973
1071.001243	-20.537656
1071.383993	-20.525847
1071.767016	-20.508385
1072.150313	-20.505573
1072.533884	-20.464284
1072.917730	-20.433040
1073.301850	-20.422246
1073.686246	-20.399320
1074.070917	-20.410280
1074.455864	-20.392751
1074.841087	-20.337604
1075.226586	-20.266645
1075.612362	-20.287438
1075.998415	-20.336757
1076.384745	-20.325610
1076.771353	-20.223754
1077.158238	-20.153499
1077.545401	-20.180036
1077.932843	-20.230660
1078.320564	-20.214728
1078.708564	-20.126165
1079.096842	-20.058727
1079.485401	-20.066722
1079.874240	-20.073622
1080.263358	-20.059095
1080.652757	-19.990112
1081.042438	-19.942268
1081.432399	-19.911927
1081.822641	-19.896203
1082.213166	-19.872067
1082.603972	-19.835005
1082.995061	-19.768048
1083.386433	-19.718119
1083.778087	-19.714954
1084.170025	-19.717880
1084.562246	-19.681415
1084.954751	-19.599865
1085.347541	-19.535006
1085.740615	-19.545179
1086.133973	-19.557738
1086.527617	-19.561835
1086.921546	-19.489002
1087.315761	-19.413965
1087.710262	-19.363616
1088.105050	-19.393668
1088.500124	-19.419426
1088.895485	-19.397947
1089.291134	-19.299841
1089.687070	-19.240666
1090.083294	-19.228692
1090.479806	-19.243113
1090.876607	-19.232962
1091.273696	-19.190910
1091.671075	-19.147956
1092.068744	-19.112927
1092.466702	-19.102218
1092.864950	-19.084696
1093.263489	-19.060424
1093.662319	-19.041750
1094.061440	-19.055754
1094.460852	-19.065216
1094.860555	-19.026194
1095.260551	-18.969458
1095.660840	-18.940667
1096.061421	-18.994379
1096.462295	-19.031583
1096.863462	-19.040146
1097.264923	-18.937586
1097.666678	-18.887453
1098.068727	-18.856001
1098.471071	-18.937398
1098.873710	-18.950091
1099.276644	-18.921270
1099.679874	-18.798686
1100.083400	-18.740517
1100.487222	-18.733365
1100.891340	-18.778410
1101.295756	-18.770392
1101.700468	-18.693392
1102.105478	-18.610152
1102.510787	-18.561922
1102.916393	-18.592333
1103.322298	-18.587426
1103.728502	-18.568740
1104.135005	-18.488139
1104.541807	-18.460570
1104.948909	-18.464224
1105.356312	-18.496175
1105.764015	-18.481332
1106.172019	-18.441792
1106.580324	-18.407753
1106.988931	-18.407755
1107.397840	-18.446731
1107.807051	-18.476631
1108.216564	-18.439748
1108.626380	-18.404754
1109.036500	-18.377730
1109.446923	-18.395238
1109.857649	-18.435519
1110.268680	-18.437383
1110.680016	-18.373038
1111.091657	-18.333781
1111.503602	-18.301416
1111.915854	-18.325144
1112.328411	-18.328638
1112.741275	-18.287621
1113.154445	-18.221599
1113.567922	-18.174445
1113.981706	-18.160513
1114.395798	-18.169817
1114.810198	-18.139378
1115.224906	-18.085339
1115.639923	-18.018757
1116.055249	-17.998943
1116.470884	-18.005868
1116.886829	-18.008515
1117.303084	-17.976902
1117.719650	-17.907318
1118.136526	-17.872375
1118.553713	-17.861774
1118.971212	-17.888080
1119.389022	-17.878175
1119.807145	-17.849094
1120.225580	-17.781558
1120.644328	-17.749105
1121.063389	-17.745805
1121.482763	-17.749253
1121.902452	-17.727206
1122.322454	-17.669536
1122.742771	-17.609832
1123.163404	-17.558959
1123.584351	-17.544473
1124.005614	-17.516076
1124.427193	-17.470331
1124.849089	-17.388218
1125.271301	-17.316229
1125.693830	-17.267050
1126.116677	-17.251112
1126.539842	-17.210717
1126.963324	-17.148395
1127.387126	-17.063784
1127.811246	-17.002126
1128.235685	-16.978034
1128.660444	-16.977254
1129.085522	-16.954661
1129.510922	-16.897828
1129.936641	-16.841273
1130.362682	-16.803907
1130.789044	-16.820274
1131.215728	-16.832327
1131.642734	-16.837160
1132.070063	-16.809031
1132.497714	-16.788123
1132.925689	-16.782738
1133.353987	-16.798242
1133.782610	-16.828281
1134.211556	-16.837916
1134.640827	-16.834008
1135.070424	-16.809940
1135.500345	-16.816812
1135.930593	-16.832387
1136.361166	-16.859924
1136.792067	-16.856155
1137.223294	-16.826262
1137.654848	-16.803380
1138.086730	-16.785209
1138.518940	-16.796101
1138.951479	-16.773483
1139.384346	-16.741232
1139.817543	-16.687317
1140.251069	-16.668464
1140.684925	-16.662742
1141.119111	-16.646419
1141.553628	-16.602960
1141.988475	-16.527772
1142.423655	-16.473485
1142.859166	-16.424149
1143.295009	-16.412555
1143.731185	-16.401112
1144.167694	-16.394659
1144.604536	-16.364150
1145.041711	-16.309348
1145.479221	-16.257255
1145.917065	-16.208784
1146.355245	-16.195461
1146.793759	-16.181105
1147.232609	-16.185770
1147.671795	-16.178901
1148.111317	-16.174688
1148.551177	-16.160039
1148.991373	-16.126136
1149.431907	-16.096901
1149.872779	-16.058245
1150.313989	-16.058610
1150.755538	-16.064225
1151.197426	-16.087720
1151.639653	-16.085753
1152.082220	-16.060162
1152.525128	-16.021952
1152.968376	-15.976487
1153.411966	-15.963176
1153.855897	-15.954479
1154.300169	-15.963060
1154.744784	-15.955449
1155.189742	-15.930840
1155.635042	-15.897348
1156.080687	-15.850791
1156.526674	-15.827609
1156.973007	-15.799439
1157.419683	-15.794052
1157.866705	-15.775486
1158.314072	-15.754564
1158.761786	-15.727529
1159.209845	-15.686506
1159.658251	-15.657779
1160.107004	-15.626021
1160.556104	-15.613181
1161.005553	-15.600333
1161.455349	-15.578896
1161.905494	-15.556389
1162.355989	-15.517458
1162.806832	-15.495210
1163.258026	-15.471602
1163.709570	-15.460826
1164.161464	-15.449479
1164.613710	-15.430220
1165.066307	-15.406541
1165.519256	-15.374778
1165.972558	-15.348755
1166.426212	-15.333276
1166.880219	-15.321950
1167.334580	-15.321116
1167.789295	-15.303925
1168.244364	-15.279308
1168.699788	-15.241995
1169.155567	-15.207335
1169.611702	-15.193254
1170.068193	-15.186187
1170.525041	-15.198462
1170.982245	-15.186504
1171.439807	-15.162060
1171.897726	-15.111318
1172.356004	-15.063274
1172.814640	-15.047731
1173.273635	-15.052822
1173.732989	-15.081795
1174.192703	-15.079958
1174.652778	-15.047340
1175.113213	-14.987779
1175.574009	-14.930936
1176.035167	-14.923734
1176.496687	-14.944599
1176.958569	-14.983829
1177.420814	-14.985864
1177.883422	-14.937901
1178.346394	-14.877587
1178.809730	-14.831178
1179.273430	-14.839805
1179.737496	-14.881089
1180.201927	-14.904521
1180.666723	-14.897471
1181.131886	-14.835656
1181.597416	-14.789006
1182.063312	-14.773762
1182.529576	-14.796219
1182.996209	-14.835152
1183.463209	-14.830123
1183.930579	-14.798341
1184.398317	-14.748711
1184.866426	-14.720267
1185.334904	-14.737617
1185.803754	-14.754423
1186.272974	-14.766045
1186.742566	-14.737310
1187.212529	-14.691112
1187.682865	-14.667287
1188.153574	-14.659125
1188.624656	-14.674596
1189.096112	-14.676714
1189.567942	-14.648890
1190.040147	-14.617195
1190.512726	-14.579871
1190.985681	-14.569960
1191.459012	-14.567940
1191.932720	-14.557618
1192.406804	-14.538073
1192.881265	-14.501065
1193.356104	-14.471642
1193.831322	-14.454095
1194.306918	-14.434951
1194.782893	-14.420216
1195.259248	-14.389604
1195.735982	-14.361476
1196.213097	-14.337821
1196.690593	-14.313811
1197.168471	-14.292476
1197.646730	-14.264318
1198.125371	-14.228205
1198.604395	-14.210373
1199.083803	-14.183480
1199.563594	-14.169970
1200.043769	-14.143591
1200.524329	-14.104849
1201.005273	-14.081412
1201.486604	-14.052827
1201.968320	-14.039424
1202.450422	-14.027610
1202.932912	-13.997337
1203.415789	-13.970972
1203.899054	-13.939909
1204.382707	-13.916564
1204.866748	-13.911582
1205.351179	-13.893323
1205.836000	-13.873626
1206.321211	-13.849662
1206.806812	-13.820715
1207.292805	-13.806895
1207.779189	-13.795877
1208.265965	-13.780562
1208.753134	-13.770943
1209.240696	-13.745500
1209.728651	-13.724478
1210.217000	-13.714260
1210.705744	-13.697399
1211.194883	-13.694387
1211.684417	-13.679010
1212.174347	-13.659759
1212.664673	-13.649067
1213.155396	-13.630380
1213.646516	-13.624134
1214.138034	-13.617856
1214.629951	-13.604364
1215.122266	-13.592959
1215.614980	-13.578512
1216.108095	-13.565539
1216.601609	-13.561209
1217.095524	-13.553118
1217.589841	-13.541322
1218.084559	-13.534015
1218.579679	-13.515855
1219.075202	-13.507725
1219.571128	-13.504110
1220.067458	-13.490351
1220.564191	-13.487432
1221.061330	-13.469128
1221.558874	-13.455870
1222.056823	-13.451215
1222.555178	-13.437895
1223.053940	-13.430278
1223.553109	-13.419570
1224.052686	-13.399582
1224.552671	-13.388140
1225.053065	-13.380564
1225.553867	-13.361948
1226.055079	-13.354907
1226.556702	-13.337582
1227.058735	-13.314127
1227.561179	-13.307466
1228.064035	-13.288187
1228.567303	-13.272294
1229.070983	-13.263113
1229.575077	-13.233635
1230.079585	-13.216676
1230.584506	-13.206338
1231.089842	-13.180908
1231.595594	-13.170426
1232.101761	-13.150937
1232.608345	-13.119461
1233.115345	-13.110263
1233.622762	-13.090622
1234.130597	-13.069578
1234.638851	-13.059585
1235.147523	-13.029633
1235.656615	-13.009330
1236.166126	-12.999454
1236.676058	-12.975413
1237.186411	-12.962729
1237.697185	-12.947609
1238.208381	-12.920606
1238.719999	-12.906004
1239.232040	-12.894542
1239.744505	-12.875757
1240.257394	-12.864783
1240.770708	-12.850235
1241.284446	-12.826967
1241.798610	-12.816857
1242.313201	-12.808200
1242.828218	-12.792090
1243.343662	-12.783855
1243.859534	-12.772977
1244.375834	-12.750484
1244.892563	-12.745788
1245.409721	-12.742037
1245.927309	-12.726849
1246.445327	-12.722582
1246.963777	-12.709405
1247.482657	-12.695674
1248.001970	-12.694720
1248.521716	-12.688785
1249.041894	-12.682013
1249.562506	-12.675076
1250.083553	-12.663519
1250.605034	-12.656924
1251.126950	-12.656875
1251.649302	-12.653236
1252.172091	-12.647009
1252.695316	-12.641773
1253.218979	-12.631366
1253.743079	-12.629589
1254.267619	-12.632198
1254.792597	-12.626939
1255.318015	-12.622840
1255.843874	-12.617056
1256.370173	-12.609905
1256.896913	-12.611034
1257.424095	-12.615215
1257.951720	-12.607564
1258.479787	-12.601869
1259.008298	-12.600865
1259.537254	-12.593384
1260.066654	-12.595812
1260.596499	-12.600051
1261.126790	-12.588863
1261.657527	-12.581569
1262.188711	-12.583291
1262.720342	-12.578230
1263.252422	-12.575120
1263.784950	-12.578260
1264.317928	-12.565055
1264.851355	-12.554150
1265.385232	-12.557979
1265.919560	-12.552492
1266.454340	-12.543218
1266.989572	-12.540879
1267.525256	-12.528840
1268.061394	-12.513396
1268.597985	-12.515313
1269.135031	-12.510602
1269.672531	-12.492669
1270.210487	-12.483687
1270.748899	-12.473378
1271.287768	-12.457282
1271.827094	-12.452712
1272.366877	-12.446242
1272.907119	-12.423760
1273.447820	-12.406615
1273.988981	-12.399586
1274.530601	-12.386149
1275.072683	-12.373577
1275.615226	-12.360384
1276.158230	-12.337046
1276.701697	-12.322164
1277.245627	-12.315300
1277.790021	-12.299123
1278.334879	-12.280668
1278.880202	-12.265013
1279.425991	-12.248198
1279.972245	-12.231007
1280.518966	-12.221011
1281.066155	-12.209304
1281.613811	-12.184820
1282.161936	-12.167026
1282.710529	-12.158909
1283.259593	-12.142788
1283.809126	-12.127440
1284.359131	-12.115402
1284.909607	-12.093826
1285.460555	-12.076686
1286.011976	-12.073029
1286.563870	-12.059869
1287.116237	-12.036259
1287.669080	-12.024569
1288.222397	-12.014508
1288.776191	-11.998366
1289.330460	-11.989090
1289.885207	-11.979129
1290.440431	-11.958487
1290.996133	-11.944353
1291.552314	-11.942689
1292.108975	-11.931844
1292.666115	-11.913382
1293.223737	-11.903795
1293.781839	-11.895626
1294.340424	-11.883986
1294.899491	-11.877944
1295.459041	-11.871549
1296.019075	-11.854514
1296.579593	-11.845214
1297.140597	-11.847233
1297.702086	-11.838786
1298.264061	-11.826396
1298.826524	-11.821523
1299.389474	-11.816517
1299.952912	-11.809254
1300.516839	-11.808885
1301.081255	-11.806682
1301.646162	-11.793251
1302.211559	-11.788947
1302.777448	-11.796466
1303.343829	-11.792732
1303.910702	-11.782145
1304.478069	-11.782374
1305.045930	-11.785186
1305.614285	-11.779550
1306.183136	-11.781171
1306.752483	-11.784763
1307.322326	-11.776943
1307.892666	-11.773077
1308.463504	-11.783264
1309.034841	-11.786863
1309.606677	-11.776497
1310.179012	-11.774235
1310.751849	-11.785093
1311.325186	-11.785721
1311.899025	-11.780211
1312.473366	-11.783542
1313.048211	-11.785407
1313.623559	-11.782707
1314.199412	-11.786508
1314.775770	-11.792552
1315.352634	-11.787239
1315.930004	-11.782001
1316.507881	-11.791481
1317.086266	-11.797468
1317.665159	-11.789860
1318.244562	-11.786185
1318.824474	-11.794068
1319.404897	-11.797679
1319.985831	-11.792598
1320.567276	-11.793354
1321.149234	-11.797077
1321.731706	-11.793627
1322.314691	-11.795234
1322.898190	-11.800952
1323.482205	-11.797571
1324.066736	-11.790563
1324.651783	-11.796209
1325.237347	-11.803380
1325.823430	-11.796037
1326.410031	-11.787955
1326.997151	-11.794561
1327.584791	-11.797954
1328.172952	-11.790208
1328.761634	-11.785233
1329.350839	-11.787968
1329.940566	-11.786095
1330.530817	-11.779218
1331.121592	-11.777882
1331.712891	-11.777796
1332.304716	-11.768573
1332.897068	-11.762317
1333.489946	-11.766266
1334.083352	-11.762521
1334.677287	-11.748190
1335.271750	-11.743000
1335.866744	-11.748813
1336.462268	-11.743238
1337.058323	-11.726654
1337.654910	-11.721369
1338.252029	-11.726847
1338.849682	-11.720207
1339.447869	-11.703886
1340.046591	-11.699268
1340.645848	-11.701931
1341.245641	-11.693191
1341.845972	-11.680586
1342.446840	-11.676238
1343.048246	-11.674244
1343.650191	-11.664655
1344.252677	-11.654823
1344.855702	-11.652322
1345.459269	-11.646304
1346.063379	-11.634187
1346.668030	-11.628704
1347.273226	-11.627331
1347.878965	-11.617679
1348.485250	-11.604369
1349.092080	-11.601768
1349.699456	-11.601522
1350.307380	-11.589514
1350.915851	-11.575834
1351.524871	-11.573921
1352.134441	-11.574903
1352.744560	-11.562059
1353.355231	-11.547148
1353.966453	-11.547174
1354.578227	-11.547714
1355.190555	-11.534635
1355.803436	-11.520953
1356.416872	-11.519648
1357.030863	-11.520307
1357.645411	-11.508454
1358.260515	-11.494400
1358.876177	-11.493409
1359.492397	-11.494269
1360.109176	-11.482756
1360.726516	-11.468896
1361.344416	-11.469769
1361.962877	-11.467875
1362.581901	-11.457891
1363.201487	-11.445831
1363.821637	-11.446146
1364.442352	-11.444334
1365.063632	-11.434583
1365.685478	-11.425087
1366.307891	-11.423364
1366.930871	-11.423925
1367.554420	-11.412243
1368.178538	-11.404334
1368.803226	-11.404647
1369.428485	-11.402800
1370.054315	-11.392696
1370.680717	-11.384998
1371.307693	-11.385785
1371.935242	-11.383546
1372.563366	-11.374465
1373.192065	-11.366761
1373.821341	-11.367455
1374.451193	-11.366526
1375.081623	-11.357424
1375.712632	-11.349780
1376.344221	-11.350784
1376.976389	-11.351174
1377.609139	-11.342228
1378.242470	-11.334194
1378.876384	-11.335961
1379.510881	-11.335295
1380.145963	-11.327723
1380.781629	-11.320610
1381.417881	-11.319657
1382.054720	-11.319983
1382.692147	-11.313994
1383.330161	-11.306007
1383.968765	-11.302596
1384.607959	-11.304129
1385.247743	-11.301377
1385.888119	-11.290307
1386.529087	-11.286772
1387.170648	-11.290335
1387.812804	-11.286792
1388.455554	-11.276920
1389.098899	-11.272386
1389.742842	-11.276483
1390.387381	-11.274601
1391.032519	-11.264733
1391.678256	-11.261107
1392.324592	-11.262612
1392.971529	-11.261974
1393.619068	-11.255346
1394.267208	-11.248760
1394.915952	-11.249256
1395.565300	-11.248784
1396.215253	-11.243621
1396.865812	-11.237784
1397.516977	-11.234170
1398.168749	-11.235220
1398.821130	-11.233361
1399.474120	-11.225668
1400.127719	-11.221070
1400.781930	-11.222188
1401.436752	-11.221393
1402.092186	-11.214761
1402.748234	-11.209216
1403.404897	-11.209735
1404.062174	-11.210485
1404.720067	-11.206386
1405.378577	-11.201241
1406.037705	-11.201697
1406.697451	-11.202700
1407.357817	-11.200143
1408.018803	-11.197840
1408.680410	-11.196255
1409.342639	-11.196449
1410.005492	-11.197309
1410.668968	-11.195495
1411.333068	-11.194568
1411.997795	-11.194830
1412.663147	-11.196648
1413.329127	-11.199581
1413.995736	-11.197178
1414.662973	-11.195902
1415.330840	-11.201777
1415.999339	-11.204265
1416.668469	-11.201094
1417.338232	-11.201592
1418.008628	-11.206202
1418.679659	-11.209778
1419.351325	-11.210659
1420.023628	-11.211125
1420.696568	-11.214936
1421.370145	-11.222573
1422.044362	-11.227224
1422.719219	-11.226345
1423.394717	-11.229299
1424.070856	-11.239217
1424.747638	-11.244838
1425.425064	-11.243638
1426.103134	-11.246018
1426.781850	-11.255240
1427.461212	-11.265375
1428.141221	-11.268835
1428.821878	-11.269040
1429.503185	-11.280350
1430.185141	-11.298108
1430.867749	-11.305185
1431.551008	-11.305400
1432.234920	-11.313374
1432.919486	-11.330849
1433.604707	-11.344254
1434.290583	-11.343682
1434.977116	-11.343007
1435.664307	-11.356778
1436.352156	-11.375884
1437.040664	-11.384821
1437.729833	-11.384753
1438.419663	-11.392204
1439.110156	-11.416238
1439.801312	-11.441592
1440.493132	-11.450174
1441.185617	-11.452011
1441.878768	-11.468828
1442.572586	-11.496384
1443.267072	-11.513309
1443.962228	-11.513464
1444.658053	-11.513947
1445.354549	-11.530742
1446.051717	-11.553208
1446.749558	-11.563648
1447.448073	-11.566024
1448.147263	-11.575888
1448.847128	-11.602642
1449.547671	-11.635956
1450.248891	-11.656536
1450.950789	-11.669079
1451.653368	-11.694704
1452.356627	-11.733550
1453.060568	-11.763885
1453.765192	-11.777941
1454.470500	-11.791603
1455.176492	-11.812932
1455.883170	-11.833404
1456.590534	-11.847032
1457.298586	-11.856427
1458.007327	-11.868620
1458.716758	-11.888186
1459.426880	-11.912852
1460.137693	-11.940010
1460.849199	-11.972088
1461.561398	-12.012012
1462.274293	-12.057994
1462.987883	-12.106096
1463.702170	-12.156371
1464.417155	-12.208895
1465.132838	-12.258717
1465.849222	-12.299837
1466.566306	-12.332755
1467.284093	-12.362498
1468.002582	-12.388630
1468.721775	-12.403698
1469.441674	-12.404908
1470.162278	-12.403112
1470.883590	-12.411278
1471.605609	-12.426180
1472.328338	-12.436331
1473.051777	-12.445295
1473.775928	-12.469445
1474.500790	-12.515290
1475.226367	-12.573215
1475.952657	-12.630541
1476.679663	-12.686204
1477.407386	-12.751787
1478.135826	-12.830350
1478.864985	-12.903347
1479.594863	-12.954246
1480.325463	-12.989079
1481.056784	-13.017350
1481.788828	-13.033614
1482.521597	-13.027716
1483.255090	-12.998150
1483.989309	-12.954786
1484.724256	-12.911981
1485.459931	-12.872767
1486.196336	-12.830899
1486.933471	-12.792241
1487.671337	-12.775031
1488.409937	-12.787969
1489.149270	-12.826334
1489.889337	-12.888475
1490.630141	-12.981035
1491.371682	-13.110420
1492.113961	-13.277201
1492.856979	-13.474832
1493.600738	-13.696904
1494.345238	-13.945117
1495.090481	-14.221062
1495.836467	-14.512564
1496.583198	-14.804302
1497.330675	-15.094235
1498.078899	-15.381182
1498.827872	-15.649967
1499.577593	-15.884521
1500.328065	-16.081056
1501.079289	-16.243525
1501.831265	-16.376047
1502.583995	-16.478170
1503.337480	-16.551769
1504.091721	-16.613520
1504.846719	-16.688711
1505.602475	-16.793068
1506.358991	-16.931291
1507.116268	-17.112004
1507.874306	-17.356543
1508.633108	-17.692761
1509.392673	-18.137466
1510.153004	-18.688639
1510.914101	-19.356664
1511.675965	-20.187357
1512.438599	-21.234522
1513.202002	-22.544702
1513.966176	-24.185188
1514.731122	-26.295346
1515.496842	-29.206953
1516.263336	-33.772177
1517.030607	-42.455432
1517.798654	-38.799033
1518.567479	-31.947128
1519.337083	-28.018739
1520.107468	-25.290346
1520.878634	-23.218292
1521.650584	-21.566721
1522.423317	-20.183945
1523.196836	-18.966727
1523.971141	-17.863995
1524.746233	-16.854883
1525.522115	-15.925898
1526.298786	-15.056965
1527.076249	-14.222843
1527.854504	-13.413977
1528.633553	-12.638838
1529.413397	-11.903275
1530.194037	-11.203047
1530.975474	-10.530446
1531.757709	-9.884041
1532.540745	-9.272210
1533.324581	-8.702831
1534.109220	-8.174089
1534.894662	-7.681542
1535.680909	-7.226275
1536.467961	-6.814871
1537.255821	-6.452871
1538.044489	-6.138739
1538.833967	-5.869185
1539.624256	-5.646924
1540.415357	-5.477199
1541.207271	-5.361539
1542.000000	-5.297680
1542.793545	-5.283694
1543.587907	-5.322506
1544.383087	-5.418218
1545.179088	-5.569302
1545.975909	-5.771521
1546.773552	-6.026020
1547.572019	-6.337872
1548.371311	-6.709156
1549.171428	-7.136443
1549.972373	-7.616990
1550.774147	-8.156851
1551.576751	-8.765449
1552.380185	-9.442621
1553.184453	-10.183190
1553.989554	-10.990502
1554.795490	-11.875973
1555.602263	-12.843700
1556.409873	-13.876696
1557.218322	-14.943605
1558.027612	-16.011529
1558.837743	-17.016112
1559.648717	-17.819652
1560.460536	-18.266445
1561.273200	-18.303625
1562.086710	-17.989256
1562.901069	-17.426926
1563.716278	-16.740599
1564.532337	-16.042203
1565.349249	-15.393409
1566.167014	-14.810280
1566.985634	-14.296692
1567.805111	-13.862512
1568.625444	-13.512659
1569.446637	-13.236464
1570.268690	-13.023616
1571.091605	-12.875482
1571.915382	-12.791949
1572.740024	-12.764956
1573.565532	-12.785612
1574.391907	-12.851909
1575.219150	-12.965804
1576.047262	-13.120730
1576.876246	-13.305156
1577.706103	-13.516883
1578.536833	-13.758196
1579.368439	-14.021675
1580.200922	-14.295571
1581.034282	-14.576126
1581.868522	-14.865349
1582.703643	-15.159824
1583.539646	-15.448825
1584.376532	-15.727145
1585.214304	-16.002617
1586.052962	-16.275556
1586.892508	-16.536060
1587.732943	-16.782502
1588.574269	-17.023425
1589.416487	-17.261957
1590.259599	-17.488138
1591.103605	-17.696728
1591.948508	-17.898711
1592.794309	-18.096011
1593.641009	-18.271918
1594.488609	-18.421429
1595.337112	-18.557146
1596.186518	-18.677360
1597.036829	-18.764241
1597.888047	-18.815975
1598.740172	-18.848984
1599.593207	-18.862367
1600.447153	-18.839416
1601.302010	-18.786119
1602.157782	-18.723100
1603.014469	-18.647127
1603.872072	-18.544692
1604.730593	-18.428995
1605.590034	-18.317447
1606.450397	-18.202511
1607.311681	-18.074349
1608.173890	-17.947083
1609.037024	-17.832281
1609.901085	-17.717411
1610.766075	-17.595023
1611.631995	-17.479463
1612.498846	-17.374702
1613.366630	-17.265279
1614.235349	-17.148677
1615.105004	-17.037394
1615.975596	-16.928647
1616.847128	-16.809002
1617.719600	-16.680367
1618.593014	-16.553771
1619.467372	-16.422064
1620.342675	-16.275795
1621.218924	-16.124895
1622.096122	-15.975951
1622.974270	-15.820347
1623.853369	-15.657679
1624.733420	-15.499599
1625.614427	-15.347599
1626.496389	-15.194425
1627.379308	-15.044106
1628.263187	-14.906362
1629.148026	-14.776613
1630.033828	-14.648511
1630.920593	-14.530515
1631.808324	-14.425753
1632.697022	-14.324989
1633.586688	-14.228006
1634.477324	-14.141570
1635.368932	-14.061581
1636.261514	-13.980245
1637.155070	-13.901702
1638.049602	-13.829362
1638.945113	-13.754634
1639.841603	-13.675714
1640.739075	-13.600335
1641.637529	-13.525411
1642.536968	-13.444678
1643.437393	-13.364751
1644.338806	-13.288920
1645.241209	-13.210983
1646.144602	-13.132521
1647.048988	-13.059867
1647.954368	-12.991388
1648.860744	-12.922862
1649.768118	-12.859593
1650.676491	-12.803450
1651.585865	-12.748785
1652.496241	-12.696995
1653.407621	-12.651635
1654.320008	-12.608251
1655.233401	-12.564542
1656.147804	-12.524522
1657.063218	-12.486407
1657.979645	-12.446947
1658.897085	-12.409388
1659.815542	-12.373795
1660.735016	-12.337220
1661.655509	-12.301948
1662.577023	-12.269579
1663.499560	-12.237733
1664.423121	-12.206499
1665.347709	-12.179466
1666.273324	-12.154367
1667.199969	-12.130145
1668.127645	-12.110246
1669.056353	-12.092649
1669.986097	-12.075464
1670.916877	-12.061304
1671.848695	-12.049250
1672.781553	-12.036501
1673.715452	-12.025053
1674.650395	-12.015494
1675.586383	-12.005014
1676.523418	-11.995301
1677.461501	-11.987646
1678.400635	-11.979524
1679.340821	-11.972124
1680.282061	-11.967457
1681.224357	-11.962722
1682.167710	-11.958349
1683.112122	-11.956900
1684.057595	-11.955305
1685.004132	-11.953725
1685.951732	-11.954620
1686.900400	-11.955246
1687.850135	-11.955464
1688.800940	-11.957762
1689.752818	-11.960002
1690.705768	-11.961730
1691.659795	-11.965384
1692.614898	-11.969536
1693.571081	-11.973451
1694.528345	-11.979528
1695.486691	-11.986358
1696.446122	-11.992865
1697.406640	-12.001403
1698.368245	-12.010100
1699.330941	-12.018326
1700.294729	-12.028289
1701.259611	-12.037790
1702.225588	-12.047137
1703.192664	-12.058123
1704.160838	-12.068684
1705.130114	-12.079688
1706.100493	-12.092286
1707.071977	-12.104377
1708.044568	-12.117139
1709.018268	-12.130825
1709.993079	-12.143799
1710.969003	-12.157441
1711.946041	-12.171689
1712.924196	-12.185395
1713.903469	-12.200103
1714.883862	-12.215115
1715.865378	-12.229635
1716.848017	-12.245501
1717.831783	-12.261135
1718.816677	-12.276713
1719.802701	-12.293828
1720.789857	-12.310002
1721.778147	-12.326772
1722.767573	-12.344520
1723.758136	-12.360850
1724.749840	-12.378233
1725.742685	-12.395607
1726.736673	-12.411778
1727.731808	-12.429497
1728.728090	-12.446550
1729.725521	-12.463418
1730.724105	-12.481883
1731.723842	-12.498900
1732.724735	-12.516342
1733.726785	-12.534159
1734.729995	-12.549997
1735.734366	-12.566902
1736.739902	-12.583393
1737.746603	-12.598907
1738.754472	-12.616083
1739.763510	-12.632062
1740.773721	-12.648170
1741.785105	-12.665114
1742.797665	-12.680392
1743.811403	-12.696796
1744.826321	-12.712948
1745.842422	-12.728340
1746.859706	-12.745191
1747.878177	-12.761037
1748.897835	-12.777398
1749.918685	-12.794553
1750.940726	-12.810804
1751.963963	-12.828412
1752.988395	-12.845667
1754.014027	-12.862931
1755.040860	-12.881249
1756.068895	-12.898666
1757.098135	-12.917011
1758.128583	-12.935203
1759.160240	-12.953187
1760.193109	-12.972044
1761.227191	-12.990393
1762.262488	-13.009545
1763.299004	-13.028807
1764.336740	-13.048021
1765.375697	-13.067763
1766.415880	-13.087008
1767.457288	-13.106566
1768.499926	-13.125810
1769.543794	-13.144960
1770.588895	-13.164325
1771.635231	-13.183294
1772.682805	-13.202723
1773.731619	-13.221694
1774.781674	-13.240674
1775.832973	-13.259385
1776.885519	-13.277309
1777.939312	-13.295435
1778.994357	-13.312759
1780.050654	-13.330156
1781.108207	-13.347477
1782.167017	-13.364339
1783.227087	-13.381551
1784.288418	-13.398193
1785.351013	-13.415187
1786.414875	-13.432214
1787.480006	-13.449209
1788.546407	-13.466457
1789.614082	-13.483117
1790.683032	-13.500054
1791.753259	-13.516466
1792.824767	-13.533025
1793.897557	-13.549827
1794.971632	-13.566503
1796.046994	-13.583957
1797.123645	-13.601146
1798.201588	-13.618814
1799.280824	-13.636190
1800.361357	-13.653309
1801.443188	-13.670461
1802.526320	-13.687260
1803.610756	-13.704543
1804.696497	-13.721457
1805.783546	-13.738588
1806.871906	-13.755213
1807.961578	-13.771159
1809.052565	-13.786858
1810.144870	-13.801697
1811.238494	-13.816596
1812.333441	-13.830867
1813.429713	-13.844828
1814.527311	-13.858291
1815.626239	-13.871183
1816.726499	-13.883844
1817.828094	-13.895988
1818.931025	-13.908225
1820.035295	-13.920157
1821.140906	-13.932114
1822.247862	-13.943891
1823.356165	-13.955416
1824.465816	-13.966764
1825.576819	-13.977931
1826.689175	-13.989203
1827.802888	-14.000648
1828.917960	-14.012331
1830.034394	-14.023987
1831.152191	-14.035630
1832.271354	-14.046963
1833.391887	-14.058009
1834.513790	-14.068606
1835.637068	-14.079102
1836.761722	-14.089227
1837.887755	-14.099157
1839.015169	-14.109030
1840.143968	-14.118929
1841.274153	-14.128878
1842.405727	-14.138768
1843.538693	-14.148380
1844.673053	-14.157559
1845.808810	-14.166349
1846.945966	-14.174694
1848.084525	-14.182681
1849.224488	-14.190709
1850.365858	-14.198575
1851.508638	-14.206202
1852.652831	-14.213124
1853.798438	-14.219403
1854.945463	-14.224667
1856.093909	-14.229426
1857.243777	-14.233698
1858.395071	-14.237766
1859.547794	-14.241265
1860.701947	-14.244453
1861.857533	-14.246806
1863.014556	-14.248714
1864.173018	-14.250043
1865.332922	-14.250997
1866.494270	-14.251368
1867.657065	-14.251351
1868.821309	-14.250797
1869.987006	-14.249589
1871.154158	-14.247887
1872.322768	-14.245561
1873.492839	-14.243071
1874.664373	-14.240227
1875.837373	-14.237531
1877.011841	-14.234244
1878.187782	-14.231051
1879.365197	-14.227324
1880.544089	-14.223607
1881.724460	-14.219492
1882.906315	-14.215567
1884.089655	-14.211477
1885.274483	-14.207613
1886.460803	-14.203784
1887.648616	-14.199780
1888.837927	-14.195293
1890.028736	-14.190314
1891.221049	-14.185293
1892.414866	-14.180489
1893.610192	-14.176304
1894.807028	-14.172238
1896.005379	-14.167913
1897.205246	-14.162810
1898.406633	-14.157143
1899.609542	-14.150949
1900.813977	-14.144782
1902.019940	-14.138936
1903.227434	-14.133378
1904.436462	-14.127614
1905.647028	-14.121344
1906.859133	-14.114292
1908.072781	-14.106590
1909.287976	-14.098679
1910.504719	-14.090907
1911.723013	-14.083210
1912.942863	-14.075410
1914.164270	-14.067126
1915.387238	-14.058111
1916.611770	-14.048312
1917.837868	-14.038008
1919.065536	-14.027325
1920.294777	-14.016248
1921.525594	-14.004683
1922.757989	-13.992478
1923.991967	-13.979745
1925.227529	-13.966770
1926.464679	-13.953791
1927.703420	-13.940507
1928.943755	-13.926586
1930.185688	-13.912008
1931.429221	-13.897117
1932.674356	-13.882373
1933.921099	-13.868265
1935.169451	-13.854904
1936.419415	-13.841865
1937.670996	-13.828710
1938.924195	-13.815225
1940.179017	-13.801563
1941.435463	-13.787931
1942.693538	-13.774632
1943.953245	-13.761544
1945.214586	-13.748331
1946.477566	-13.734665
1947.742186	-13.720638
1949.008451	-13.706679
1950.276363	-13.693232
1951.545926	-13.680559
1952.817143	-13.668510
1954.090017	-13.656816
1955.364551	-13.645398
1956.640749	-13.634384
1957.918615	-13.623752
1959.198150	-13.613259
1960.479359	-13.602718
1961.762244	-13.592390
1963.046810	-13.582575
1964.333059	-13.573199
1965.620995	-13.563684
1966.910621	-13.553534
1968.201940	-13.542594
1969.494956	-13.531182
1970.789672	-13.519586
1972.086091	-13.507899
1973.384217	-13.496083
1974.684053	-13.484101
1975.985602	-13.471825
1977.288869	-13.459177
1978.593855	-13.446190
1979.900566	-13.432957
1981.209003	-13.419603
1982.519171	-13.406340
1983.831073	-13.393238
1985.144712	-13.380325
1986.460093	-13.367542
1987.777217	-13.354612
1989.096089	-13.341359
1990.416713	-13.327866
1991.739092	-13.314363
1993.063228	-13.301017
1994.389127	-13.287828
1995.716791	-13.274701
1997.046223	-13.261588
1998.377428	-13.248501
1999.710409	-13.235615
2001.045169	-13.223313
2002.381713	-13.211654
2003.720043	-13.200187
2005.060163	-13.188745
2006.402077	-13.177703
2007.745788	-13.167601
2009.091301	-13.158622
2010.438618	-13.150688
2011.787743	-13.143322
2013.138680	-13.136259
2014.491433	-13.129771
2015.846005	-13.124307
2017.202399	-13.119637
2018.560621	-13.115242
2019.920673	-13.110876
2021.282558	-13.106700
2022.646281	-13.102734
2024.011846	-13.098749
2025.379256	-13.094497
2026.748515	-13.089937
2028.119626	-13.085174
2029.492594	-13.080569
2030.867422	-13.076209
2032.244114	-13.071408
2033.622673	-13.065582
2035.003104	-13.058942
2036.385411	-13.052178
2037.769597	-13.045832
2039.155665	-13.039957
2040.543621	-13.034138
2041.933467	-13.027811
2043.325208	-13.020869
2044.718847	-13.013790
2046.114389	-13.007082
2047.511837	-13.000862
2048.911195	-12.994853
2050.312467	-12.988990
2051.715657	-12.983507
2053.120769	-12.978426
2054.527807	-12.973459
2055.936775	-12.968459
2057.347677	-12.963932
2058.760516	-12.960506
2060.175297	-12.957987
2061.592025	-12.955620
2063.010701	-12.952957
2064.431332	-12.950347
2065.853921	-12.948764
2067.278472	-12.948869
2068.704988	-12.950405
2070.133475	-12.952504
2071.563936	-12.954804
2072.996375	-12.957650
2074.430796	-12.961577
2075.867204	-12.966577
2077.305603	-12.972228
2078.745996	-12.978076
2080.188389	-12.984002
2081.632784	-12.990268
2083.079187	-12.997207
2084.527601	-13.004497
2085.978030	-13.011454
2087.430480	-13.018002
2088.884954	-13.024630
2090.341455	-13.031534
2091.799990	-13.038209
2093.260561	-13.043959
2094.723173	-13.049170
2096.187831	-13.054638
2097.654538	-13.059957
2099.123300	-13.064136
2100.594119	-13.067266
2102.067001	-13.070359
2103.541950	-13.074040
2105.018971	-13.078117
2106.498067	-13.082296
2107.979243	-13.086338
2109.462503	-13.090150
2110.947853	-13.094360
2112.435295	-13.099571
2113.924836	-13.105489
2115.416478	-13.111842
2116.910227	-13.119118
2118.406087	-13.127820
2119.904063	-13.137510
2121.404158	-13.147334
2122.906378	-13.157422
2124.410727	-13.168720
2125.917210	-13.181747
2127.425831	-13.195944
2128.936594	-13.210610
2130.449505	-13.226028
2131.964567	-13.242984
2133.481786	-13.261539
2135.001166	-13.280731
2136.522711	-13.299730
2138.046427	-13.319057
2139.572317	-13.339760
2141.100388	-13.361704
2142.630642	-13.383660
2144.163085	-13.405376
2145.697722	-13.427609
2147.234558	-13.450246
2148.773596	-13.472397
2150.314842	-13.493938
2151.858301	-13.515306
2153.403977	-13.536118
2154.951875	-13.555612
2156.502000	-13.573875
2158.054357	-13.591457
2159.608950	-13.608628
2161.165785	-13.625042
2162.724866	-13.640275
2164.286198	-13.654977
2165.849786	-13.670453
2167.415635	-13.687219
2168.983749	-13.704592
2170.554134	-13.722057
2172.126795	-13.740668
2173.701737	-13.761587
2175.278964	-13.784522
2176.858481	-13.808774
2178.440294	-13.834533
2180.024408	-13.862129
2181.610827	-13.890759
2183.199557	-13.919344
2184.790602	-13.947753
2186.383968	-13.976391
2187.979660	-14.005160
2189.577683	-14.033285
2191.178041	-14.060745
2192.780741	-14.088407
2194.385787	-14.115950
2195.993185	-14.142109
2197.602939	-14.167188
2199.215054	-14.193061
2200.829537	-14.220151
2202.446392	-14.247633
2204.065624	-14.276093
2205.687239	-14.306831
2207.311242	-14.339437
2208.937638	-14.373404
2210.566433	-14.410172
2212.197631	-14.451066
2213.831239	-14.495134
2215.467261	-14.541122
2217.105703	-14.589528
2218.746570	-14.641269
2220.389867	-14.695732
2222.035601	-14.751268
2223.683776	-14.807498
2225.334398	-14.864691
2226.987472	-14.921615
2228.643004	-14.976931
2230.300999	-15.031384
2231.961463	-15.086075
2233.624402	-15.140332
2235.289820	-15.192466
2236.957723	-15.242068
2238.628118	-15.290008
2240.301009	-15.336403
2241.976402	-15.380611
2243.654303	-15.422521
2245.334717	-15.463110
2247.017650	-15.502641
2248.703108	-15.540090
2250.391096	-15.575943
2252.081620	-15.611997
2253.774686	-15.648128
2255.470300	-15.684049
2257.168467	-15.721345
2258.869193	-15.761001
2260.572484	-15.803403
2262.278345	-15.849514
2263.986783	-15.900360
2265.697804	-15.955384
2267.411412	-16.014342
2269.127615	-16.077321
2270.846417	-16.143202
2272.567826	-16.211036
2274.291846	-16.281176
2276.018484	-16.353664
2277.747745	-16.425688
2279.479637	-16.494872
2281.214164	-16.563494
2282.951333	-16.633015
2284.691149	-16.698751
2286.433619	-16.758783
2288.178750	-16.818113
2289.926546	-16.878084
2291.677014	-16.935181
2293.430161	-16.988753
2295.185992	-17.041679
2296.944513	-17.094994
2298.705732	-17.147788
2300.469653	-17.203562
2302.236283	-17.264254
2304.005629	-17.325916
2305.777696	-17.389440
2307.552492	-17.459791
2309.330022	-17.534147
2311.110292	-17.608769
2312.893310	-17.687589
2314.679080	-17.772802
2316.467611	-17.858573
2318.258907	-17.941278
2320.052976	-18.026626
2321.849824	-18.117710
2323.649457	-18.208315
2325.451883	-18.297197
2327.257106	-18.390275
2329.065135	-18.485141
2330.875975	-18.578387
2332.689633	-18.674571
2334.506116	-18.771532
2336.325430	-18.865323
2338.147581	-18.959971
2339.972578	-19.052775
2341.800425	-19.138180
2343.631130	-19.220693
2345.464700	-19.303585
2347.301141	-19.383616
2349.140461	-19.458572
2350.982665	-19.530889
2352.827760	-19.605284
2354.675754	-19.679414
2356.526653	-19.751977
2358.380464	-19.827915
2360.237195	-19.903940
2362.096851	-19.984432
2363.959440	-20.062112
2365.824968	-20.151481
2367.693444	-20.232434
2369.564873	-20.331843
2371.439263	-20.417156
2373.316620	-20.521056
2375.196953	-20.617875
2377.080267	-20.723050
2378.966570	-20.829532
2380.855869	-20.939726
2382.748171	-21.053960
2384.643484	-21.167091
2386.541815	-21.288633
2388.443170	-21.398660
2390.347557	-21.528567
2392.254984	-21.649791
2394.165457	-21.771816
2396.078984	-21.901615
2397.995572	-22.022463
2399.915229	-22.160931
2401.837961	-22.279775
2403.763777	-22.406116
2405.692684	-22.534516
2407.624689	-22.641624
2409.559800	-22.759708
2411.498023	-22.860978
2413.439368	-22.964151
2415.383840	-23.061942
2417.331449	-23.140112
2419.282201	-23.235949
2421.236104	-23.319252
2423.193165	-23.404327
2425.153393	-23.504621
2427.116795	-23.585626
2429.083378	-23.686818
2431.053151	-23.794750
2433.026121	-23.891997
2435.002297	-24.005804
2436.981685	-24.119045
2438.964293	-24.234787
2440.950131	-24.357671
2442.939204	-24.479547
2444.931522	-24.619475
2446.927092	-24.754654
2448.925923	-24.880337
2450.928022	-25.029920
2452.933397	-25.182243
2454.942056	-25.318243
2456.954008	-25.461464
2458.969260	-25.637273
2460.987821	-25.793439
2463.009699	-25.933891
2465.034902	-26.106560
2467.063437	-26.296306
2469.095315	-26.427967
2471.130542	-26.582178
2473.169127	-26.777529
2475.211078	-26.907248
2477.256404	-27.023234
2479.305112	-27.204989
2481.357212	-27.310688
2483.412713	-27.383380
2485.471621	-27.520543
2487.533946	-27.614082
2489.599696	-27.664249
2491.668880	-27.783059
2493.741507	-27.884774
2495.817585	-27.930492
2497.897122	-28.070634
2499.980127	-28.186890
2502.066609	-28.251165
2504.156578	-28.408396
2506.250040	-28.532051
2508.347006	-28.627031
2510.447483	-28.800240
2512.551482	-28.939592
2514.659010	-29.061303
2516.770076	-29.247307
2518.884690	-29.403993
2521.002861	-29.558293
2523.124597	-29.746679
2525.249907	-29.917145
2527.378801	-30.104346
2529.511287	-30.299565
2531.647375	-30.495344
2533.787074	-30.705063
2535.930393	-30.929634
2538.077340	-31.153533
2540.227927	-31.369240
2542.382160	-31.583237
2544.540051	-31.812088
2546.701608	-31.995942
2548.866840	-32.196065
2551.035757	-32.373929
2553.208369	-32.486127
2555.384684	-32.601651
2557.564713	-32.700376
2559.748465	-32.757188
2561.935948	-32.851523
2564.127174	-32.901593
2566.322152	-32.971028
2568.520890	-33.062984
2570.723399	-33.152706
2572.929689	-33.244074
2575.139769	-33.336247
2577.353649	-33.431487
2579.571340	-33.567382
2581.792849	-33.672252
2584.018189	-33.774769
2586.247368	-33.927466
2588.480396	-34.095712
2590.717284	-34.225126
2592.958041	-34.380001
2595.202678	-34.588183
2597.451204	-34.761844
2599.703630	-34.948419
2601.959966	-35.174460
2604.220222	-35.436466
2606.484408	-35.679562
2608.752535	-35.979570
2611.024612	-36.254223
2613.300651	-36.582857
2615.580661	-36.981893
2617.864653	-37.253454
2620.152638	-37.591193
2622.444625	-37.946072
2624.740626	-38.183402
2627.040651	-38.462207
2629.344710	-38.624557
2631.652814	-38.720479
2633.964974	-38.873409
2636.281200	-38.951968
2638.601504	-38.925843
2640.925896	-39.016742
2643.254386	-39.140695
2645.586987	-39.168391
2647.923707	-39.177358
2650.264559	-39.250905
2652.609554	-39.277366
2654.958702	-39.288153
2657.312015	-39.328902
2659.669503	-39.358453
2662.031178	-39.440355
2664.397051	-39.478168
2666.767132	-39.491525
2669.141434	-39.699317
2671.519968	-39.734268
2673.902745	-39.804412
2676.289776	-40.042281
2678.681072	-40.118679
2681.076646	-40.324504
2683.476508	-40.587570
2685.880671	-40.881796
2688.289145	-41.247429
2690.701942	-41.533635
2693.119075	-42.095023
2695.540554	-42.560651
2697.966391	-42.990919
2700.396599	-43.638424
2702.831189	-44.050383
2705.270172	-44.600251
2707.713561	-44.931207
2710.161368	-45.371859
2712.613605	-45.635952
2715.070283	-45.741424
2717.531416	-46.259813
2719.997014	-46.322560
2722.467090	-46.580492
2724.941657	-46.817293
2727.420726	-46.863709
2729.904310	-46.880795
2732.392421	-46.887923
2734.885072	-46.968332
2737.382275	-46.617572
2739.884042	-46.837169
2742.390387	-46.504096
2744.901321	-46.440096
2747.416857	-46.326712
2749.937008	-46.099283
2752.461787	-46.068194
2754.991206	-45.719158
2757.525279	-45.863555
2760.064017	-45.571496
2762.607434	-45.746917
2765.155544	-45.757533
2767.708358	-45.893104
2770.265890	-46.264745
2772.828153	-46.425261
2775.395160	-46.935818
2777.966924	-47.282747
2780.543459	-47.991088
2783.124778	-48.261321
2785.710894	-49.042820
2788.301821	-49.305495
2790.897572	-49.788963
2793.498160	-50.151462
2796.103599	-50.486569
2798.713903	-51.217645
2801.329085	-51.571248
2803.949159	-52.291064
2806.574139	-52.963570
2809.204038	-53.813482
2811.838871	-54.163934
2814.478650	-55.342223
2817.123391	-55.473717
2819.773107	-56.920494
2822.427812	-56.768757
2825.087521	-57.807161
2827.752247	-57.778405
2830.422005	-57.260754
2833.096808	-56.720684
2835.776672	-56.144196
2838.461611	-54.784786
2841.151638	-54.570259
2843.846769	-53.382260
2846.547019	-53.484297
2849.252401	-52.763607
2851.962930	-52.915528
2854.678621	-52.668869
2857.399489	-53.073002
2860.125549	-52.755954
2862.856815	-53.804102
2865.593302	-53.593550
2868.335026	-54.479711
2871.082002	-54.166547
2873.834244	-54.782026
2876.591767	-54.519269
2879.354588	-55.064736
2882.122721	-54.573422
2884.896181	-55.505556
2887.674984	-55.178782
2890.459146	-56.051325
2893.248681	-55.869300
2896.043606	-56.352404
2898.843937	-56.478488
2901.649687	-56.853004
2904.460875	-57.499367
2907.277515	-58.272364
2910.099623	-58.870931
2912.927215	-60.610777
2915.760308	-61.961287
2918.598916	-64.124000
2921.443057	-67.502129
2924.292747	-69.752920
2927.148002	-76.341883
2930.008837	-71.629128
2932.875270	-68.262261
2935.747318	-66.681575
2938.624995	-64.367510
2941.508320	-64.027815
2944.397308	-62.267941
2947.291977	-63.153103
2950.192343	-62.258917
2953.098423	-63.857206
2956.010234	-62.987474
2958.927792	-64.235802
2961.851116	-63.474309
2964.780221	-63.696775
2967.715126	-63.720189
2970.655847	-63.411627
2973.602402	-64.315359
2976.554808	-63.820099
2979.513083	-63.875726
2982.477243	-63.905216
2985.447308	-62.396262
2988.423293	-63.132680
2991.405218	-61.264763
2994.393099	-61.757972
2997.386955	-60.935736
