# 2022-03-22_01.31.35
# shape = sech2
# FWHM_ps = 0.1
# carrier_nm = 1542
# frep_MHz = 12126
# pow_mW = 8000
# GDD = 0.0
# propa_len = 0.15311111111111111
# untap_len = 0.01
# taper_len = 0.09311111111111112
# waist_len = 0.02
# uptap_len = 0.02
# untap_scale = 1.0
# waist_scale = 0.17894736842105266
# workingDir = NL_20110305_12 (Spirou)
# axis = slow
# window_ps = 10.0
# steps = 200
# points = 21700
# 
# wavelength [nm]	 power spectral density [dB]
600.043425	-87.221214
600.163550	-89.178103
600.283723	-89.527967
600.403943	-87.457209
600.524212	-85.477634
600.644529	-84.820678
600.764895	-85.362532
600.885308	-87.179909
601.005770	-91.016341
601.126280	-94.720438
601.246839	-91.348186
601.367446	-87.827336
601.488101	-85.908322
601.608804	-85.416473
601.729557	-86.103997
601.850357	-88.053811
601.971206	-92.364196
602.092104	-100.873250
602.213050	-93.361113
602.334045	-88.500605
602.455089	-86.228761
602.576181	-85.753996
602.697322	-87.196415
602.818511	-91.606268
602.939749	-104.550188
603.061036	-93.031133
603.182372	-87.244727
603.303757	-85.213732
603.425191	-85.196157
603.546673	-87.181479
603.668204	-91.997174
603.789785	-95.680149
603.911414	-88.881546
604.033092	-85.237415
604.154820	-83.917069
604.276596	-84.467204
604.398422	-86.892922
604.520297	-92.758357
604.642220	-101.962718
604.764193	-91.891758
604.886216	-88.302455
605.008287	-87.306104
605.130408	-88.156749
605.252578	-91.006721
605.374798	-96.582881
605.497066	-100.423447
605.619385	-94.753290
605.741752	-91.122346
605.864169	-88.888168
605.986636	-87.452193
606.109152	-86.918178
606.231718	-87.492503
606.354333	-90.064368
606.476998	-95.226652
606.599712	-94.882188
606.722476	-88.594909
606.845290	-85.672889
606.968154	-84.629006
607.091067	-84.778999
607.214030	-86.371482
607.337043	-90.325798
607.460106	-91.117289
607.583219	-86.792663
607.706381	-84.150717
607.829594	-83.180212
607.952856	-83.465193
608.076169	-84.932931
608.199531	-86.518135
608.322944	-86.282178
608.446407	-84.861024
608.569920	-83.671794
608.693483	-82.919207
608.817096	-83.061863
608.940759	-84.152360
609.064473	-85.627422
609.188237	-86.175278
609.312051	-85.117329
609.435916	-84.012626
609.559831	-83.998752
609.683796	-85.240038
609.807812	-87.984750
609.931878	-92.398100
610.055995	-93.649217
610.180162	-89.378439
610.304380	-86.250741
610.428648	-85.125109
610.552967	-85.435525
610.677337	-87.313988
610.801757	-92.437694
610.926228	-100.745691
611.050750	-90.914309
611.175323	-86.983142
611.299946	-85.563528
611.424620	-86.012218
611.549345	-87.953575
611.674121	-91.493535
611.798948	-95.364005
611.923826	-92.429386
612.048755	-88.782573
612.173734	-86.902210
612.298765	-86.171545
612.423847	-86.752018
612.548980	-89.311904
612.674165	-97.341370
612.799400	-97.753625
612.924687	-88.444155
613.050025	-84.882485
613.175414	-83.703488
613.300854	-84.270147
613.426346	-87.805505
613.551889	-96.851655
613.677484	-88.085390
613.803130	-82.512327
613.928827	-80.166546
614.054576	-79.852596
614.180377	-81.621784
614.306229	-85.738792
614.432132	-87.405271
614.558087	-82.627649
614.684094	-79.859068
614.810153	-79.149260
614.936263	-80.636630
615.062425	-84.671899
615.188639	-89.529813
615.314904	-85.242650
615.441222	-81.543448
615.567591	-80.690698
615.694012	-82.436408
615.820486	-88.155103
615.947011	-94.455913
616.073588	-84.423602
616.200217	-80.863350
616.326898	-80.097029
616.453632	-81.367871
616.580417	-85.477927
616.707255	-90.782191
616.834144	-86.042665
616.961086	-82.436816
617.088081	-81.057882
617.215127	-81.666171
617.342226	-84.515903
617.469378	-88.646705
617.596581	-87.429590
617.723837	-83.720084
617.851146	-81.846297
617.978507	-81.398699
618.105920	-82.401204
618.233386	-84.759588
618.360905	-87.436860
618.488476	-88.501216
618.616100	-86.564464
618.743777	-84.539757
618.871506	-83.671694
618.999288	-83.966727
619.127123	-85.363361
619.255011	-87.343956
619.382951	-89.621433
619.510945	-88.348391
619.638991	-85.497771
619.767090	-83.952663
619.895243	-83.067367
620.023448	-83.139625
620.151706	-84.428094
620.280017	-86.805502
620.408382	-90.020343
620.536799	-89.594837
620.665270	-85.931734
620.793794	-83.017725
620.922371	-81.666795
621.051002	-81.745511
621.179686	-83.258684
621.308423	-85.984438
621.437213	-86.730707
621.566057	-84.117481
621.694954	-81.739388
621.823905	-81.058644
621.952909	-81.915165
622.081967	-84.314304
622.211079	-90.791496
622.340244	-93.000030
622.469462	-86.832741
622.598735	-83.730156
622.728061	-82.416886
622.857441	-83.152911
622.986874	-85.535880
623.116361	-90.630399
623.245903	-106.826821
623.375498	-92.112681
623.505147	-87.733977
623.634850	-85.804686
623.764606	-86.102382
623.894417	-88.146707
624.024282	-90.375419
624.154201	-92.241254
624.284174	-94.112806
624.414202	-94.466155
624.544283	-90.496461
624.674419	-86.260628
624.804609	-84.271209
624.934853	-84.167059
625.065151	-85.919835
625.195504	-93.083100
625.325911	-93.683826
625.456373	-85.831561
625.586889	-82.228346
625.717460	-81.067364
625.848085	-82.211226
625.978764	-84.935873
626.109498	-91.179861
626.240287	-95.620688
626.371131	-88.306779
626.502029	-85.896907
626.632982	-84.769778
626.763989	-84.356197
626.895052	-84.558884
627.026169	-85.721024
627.157341	-88.675680
627.288568	-90.476892
627.419850	-87.065323
627.551187	-83.595838
627.682579	-81.235404
627.814026	-80.362978
627.945528	-80.773754
628.077085	-82.292768
628.208697	-84.821159
628.340364	-87.854182
628.472087	-87.967376
628.603865	-84.235652
628.735698	-81.744051
628.867586	-80.606411
628.999530	-80.390277
629.131529	-81.431832
629.263584	-83.186180
629.395694	-82.940358
629.527859	-80.916356
629.660080	-79.445904
629.792357	-79.230691
629.924689	-80.554626
630.057077	-83.757082
630.189520	-86.234570
630.322019	-82.658976
630.454574	-79.752294
630.587184	-78.666742
630.719851	-79.663967
630.852573	-83.442176
630.985351	-90.245783
631.118185	-89.429905
631.251075	-84.910555
631.384021	-83.141745
631.517023	-83.317459
631.650081	-84.618444
631.783195	-86.994666
631.916365	-92.443918
632.049592	-101.484286
632.182874	-86.777358
632.316213	-81.878738
632.449608	-80.231185
632.583059	-81.004330
632.716567	-84.628746
632.850131	-91.033174
632.983751	-84.956923
633.117428	-80.853899
633.251161	-79.853292
633.384951	-81.053909
633.518797	-85.075345
633.652700	-99.820083
633.786660	-89.644948
633.920676	-84.434809
634.054749	-83.398593
634.188879	-84.795829
634.323065	-88.235371
634.457308	-90.530487
634.591608	-89.679041
634.725965	-90.214351
634.860379	-93.947325
634.994850	-93.817065
635.129377	-89.095847
635.263962	-86.925574
635.398604	-87.075753
635.533303	-91.096593
635.668058	-102.842738
635.802872	-90.112855
635.937742	-86.036096
636.072669	-84.959280
636.207654	-85.845036
636.342696	-89.181573
636.477796	-91.524672
636.612953	-88.159224
636.748167	-87.840198
636.883439	-89.701439
637.018768	-90.581131
637.154155	-87.290956
637.289599	-84.673894
637.425101	-84.518494
637.560660	-85.626191
637.696277	-85.088959
637.831952	-82.733657
637.967685	-81.574016
638.103475	-82.590179
638.239324	-83.866667
638.375230	-82.594783
638.511194	-80.581266
638.647215	-79.971577
638.783295	-81.301629
638.919433	-84.947908
639.055629	-95.672056
639.191883	-92.064740
639.328195	-85.349602
639.464565	-83.408041
639.600994	-83.213049
639.737481	-85.064716
639.874025	-91.635719
640.010629	-95.928024
640.147290	-84.441603
640.284010	-80.826125
640.420789	-80.051607
640.557625	-81.467972
640.694521	-86.273272
640.831474	-101.748837
640.968487	-86.704513
641.105558	-83.701715
641.242687	-84.038671
641.379876	-85.889965
641.517123	-86.832131
641.654429	-85.322487
641.791793	-84.859168
641.929216	-87.007816
642.066699	-93.058096
642.204240	-95.473574
642.341840	-87.652416
642.479499	-83.579083
642.617217	-81.914634
642.754994	-82.179548
642.892830	-84.354797
643.030726	-88.929117
643.168680	-86.021420
643.306694	-80.525137
643.444767	-78.356231
643.582899	-77.981029
643.721091	-79.439026
643.859342	-82.954092
643.997652	-84.437842
644.136022	-81.782806
644.274451	-80.250587
644.412940	-80.743960
644.551488	-83.213930
644.690096	-88.465499
644.828763	-92.846186
644.967490	-90.629931
645.106277	-88.782287
645.245124	-86.513832
645.384030	-83.194478
645.522997	-80.603292
645.662023	-79.519042
645.801109	-80.062822
645.940255	-82.875694
646.079460	-88.366685
646.218726	-87.581110
646.358052	-83.500420
646.497438	-82.220001
646.636884	-82.823087
646.776391	-84.087657
646.915957	-85.145488
647.055584	-86.839870
647.195271	-89.507630
647.335019	-91.858445
647.474826	-93.385612
647.614695	-92.691999
647.754623	-86.446454
647.894612	-81.871171
648.034662	-79.791831
648.174772	-80.005669
648.314943	-82.644623
648.455174	-85.026721
648.595466	-80.377803
648.735819	-76.586459
648.876233	-75.289966
649.016707	-75.908986
649.157242	-78.488470
649.297838	-82.522684
649.438495	-80.985314
649.579213	-78.374328
649.719992	-77.809435
649.860832	-79.212662
650.001733	-83.910659
650.142695	-93.993553
650.283718	-87.803232
650.424803	-84.370702
650.565949	-85.033749
650.707156	-90.693631
650.848424	-89.882001
650.989754	-83.203532
651.131145	-81.118171
651.272597	-82.133023
651.414111	-86.502293
651.555687	-93.007158
651.697324	-85.332057
651.839022	-81.914055
651.980782	-80.431844
652.122604	-79.678337
652.264488	-78.446704
652.406433	-77.211378
652.548441	-76.197661
652.690510	-75.360432
652.832640	-75.439803
652.974833	-76.472418
653.117088	-78.052329
653.259405	-78.951086
653.401784	-77.974360
653.544224	-76.318797
653.686727	-75.407127
653.829293	-76.172734
653.971920	-78.701874
654.114609	-81.836144
654.257361	-80.580505
654.400175	-76.939316
654.543052	-75.893892
654.685991	-77.606465
654.828992	-82.116581
654.972056	-86.145960
655.115183	-82.211161
655.258372	-81.304381
655.401623	-83.455458
655.544937	-82.393832
655.688314	-79.227255
655.831754	-78.855986
655.975256	-82.141152
656.118822	-82.454756
656.262450	-76.602119
656.406141	-73.868602
656.549894	-73.455102
656.693711	-75.329588
656.837591	-78.387176
656.981534	-78.117796
657.125540	-76.350537
657.269610	-75.970286
657.413742	-77.048588
657.557938	-79.515062
657.702196	-83.653509
657.846519	-83.858411
657.990904	-81.774158
658.135353	-81.362033
658.279866	-82.230111
658.424441	-86.231319
658.569081	-96.001746
658.713784	-98.573435
658.858550	-88.986612
659.003381	-85.437080
659.148274	-82.240812
659.293232	-80.508208
659.438253	-79.360225
659.583339	-77.839262
659.728488	-77.190131
659.873701	-77.792301
660.018978	-79.504202
660.164318	-82.855652
660.309723	-83.428660
660.455192	-81.141516
660.600725	-81.407741
660.746323	-83.746475
660.891984	-86.889231
661.037710	-84.896082
661.183500	-81.906684
661.329354	-81.379643
661.475272	-84.314532
661.621255	-107.152664
661.767303	-83.871244
661.913415	-78.966608
662.059591	-78.396252
662.205833	-82.260930
662.352138	-84.346937
662.498509	-77.766132
662.644944	-75.221361
662.791443	-76.225602
662.938008	-81.042800
663.084638	-79.161257
663.231332	-74.585630
663.378091	-73.535224
663.524915	-75.721584
663.671804	-83.754693
663.818759	-86.893402
663.965778	-79.809922
664.112863	-79.761316
664.260012	-85.659894
664.407227	-94.058266
664.554507	-83.372172
664.701853	-82.483698
664.849264	-87.553708
664.996740	-91.401359
665.144282	-81.394862
665.291889	-78.724556
665.439561	-79.018685
665.587300	-81.030166
665.735103	-80.588715
665.882973	-77.697147
666.030908	-75.502647
666.178909	-74.928975
666.326976	-75.775388
666.475109	-77.161496
666.623307	-77.679343
666.771571	-76.017994
666.919902	-74.741575
667.068298	-75.110581
667.216761	-77.558435
667.365289	-83.796502
667.513884	-91.260022
667.662545	-84.782115
667.811272	-83.978420
667.960065	-82.588760
668.108925	-78.841201
668.257851	-77.111421
668.406843	-77.024961
668.555902	-75.350887
668.705027	-72.644078
668.854219	-70.867512
669.003478	-70.669447
669.152803	-72.155659
669.302195	-74.055152
669.451653	-73.716074
669.601179	-73.174920
669.750771	-73.902640
669.900430	-75.818677
670.050156	-79.659910
670.199949	-85.725574
670.349808	-93.202191
670.499735	-91.840961
670.649729	-85.567882
670.799790	-81.613221
670.949918	-80.836120
671.100114	-83.397225
671.250377	-84.372254
671.400707	-80.352288
671.551104	-77.986740
671.701569	-78.140812
671.852101	-81.532122
672.002700	-82.359157
672.153368	-78.807714
672.304102	-77.294036
672.454905	-79.408409
672.605775	-83.926088
672.756713	-84.890317
672.907718	-85.751036
673.058791	-90.193918
673.209933	-87.464065
673.361142	-79.972287
673.512419	-79.046030
673.663764	-80.590475
673.815177	-83.215260
673.966658	-86.639017
674.118207	-81.681339
674.269825	-78.617043
674.421510	-77.597200
674.573264	-77.158233
674.725086	-78.734826
674.876977	-80.097871
675.028936	-77.176314
675.180963	-76.508940
675.333059	-77.993413
675.485224	-80.321941
675.637457	-80.792671
675.789758	-80.594532
675.942129	-78.346460
676.094568	-74.261860
676.247075	-72.353419
676.399652	-72.607630
676.552298	-74.702456
676.705012	-78.004357
676.857795	-78.087982
677.010648	-79.179304
677.163569	-85.666801
677.316560	-89.468778
677.469619	-79.690363
677.622748	-77.870810
677.775946	-79.932018
677.929214	-83.132460
678.082551	-83.613911
678.235957	-84.065956
678.389432	-97.597829
678.542977	-85.769022
678.696592	-79.651044
678.850276	-78.474812
679.004030	-80.910523
679.157853	-83.907855
679.311746	-84.636052
679.465709	-82.511605
679.619742	-78.947177
679.773844	-76.598713
679.928017	-76.379836
680.082259	-77.627608
680.236571	-79.487507
680.390954	-81.361748
680.545406	-83.340654
680.699929	-89.544439
680.854522	-87.676158
681.009185	-82.060852
681.163918	-80.937488
681.318722	-81.122420
681.473596	-81.480926
681.628540	-82.500850
681.783555	-85.726684
681.938641	-85.797452
682.093797	-81.722202
682.249023	-79.502969
682.404321	-77.844581
682.559689	-75.663907
682.715128	-74.946245
682.870637	-76.028495
683.026218	-76.545879
683.181869	-76.131287
683.337591	-76.347980
683.493385	-79.770691
683.649249	-87.450162
683.805185	-93.230747
683.961191	-85.288300
684.117269	-77.603686
684.273418	-73.429576
684.429639	-72.594133
684.585930	-73.852783
684.742294	-74.766954
684.898728	-74.593163
685.055234	-75.067522
685.211812	-78.567128
685.368461	-88.368562
685.525182	-84.395254
685.681975	-83.823825
685.838839	-90.353041
685.995775	-83.756300
686.152783	-78.660838
686.309863	-77.212075
686.467014	-77.232986
686.624238	-78.366463
686.781534	-81.664644
686.938902	-80.771617
687.096342	-74.907593
687.253854	-74.906826
687.411438	-80.350564
687.569095	-92.578367
687.726824	-78.862075
687.884626	-78.472046
688.042499	-89.324556
688.200446	-86.400192
688.358465	-82.086719
688.516556	-88.158362
688.674720	-81.221308
688.832957	-74.902664
688.991266	-74.537635
689.149649	-77.339904
689.308104	-83.569901
689.466632	-83.104226
689.625233	-80.884971
689.783906	-77.234396
689.942653	-74.582822
690.101473	-74.479167
690.260367	-75.741896
690.419333	-73.896074
690.578372	-72.350532
690.737485	-74.172018
690.896672	-79.580728
691.055931	-88.589734
691.215264	-94.149573
691.374671	-81.039999
691.534151	-75.410297
691.693704	-74.861629
691.853332	-79.739289
692.013033	-82.583474
692.172807	-75.397858
692.332656	-75.653349
692.492578	-80.329265
692.652575	-76.679317
692.812645	-73.728441
692.972789	-75.043573
693.133007	-81.033661
693.293300	-92.993328
693.453666	-91.479099
693.614107	-78.403148
693.774622	-73.404516
693.935211	-72.317972
694.095875	-75.101799
694.256613	-76.483799
694.417426	-73.492381
694.578313	-73.539024
694.739274	-78.667810
694.900311	-84.855802
695.061421	-76.885034
695.222607	-77.088012
695.383868	-84.599809
695.545203	-88.395916
695.706613	-80.766615
695.868098	-81.402041
696.029658	-87.295576
696.191293	-93.873814
696.353003	-79.335303
696.514789	-74.024606
696.676649	-72.667943
696.838585	-74.770419
697.000596	-74.892980
697.162682	-72.650199
697.324844	-72.843519
697.487081	-77.861356
697.649394	-87.585086
697.811782	-79.954618
697.974246	-81.104859
698.136786	-82.955259
698.299401	-76.088029
698.462092	-74.914408
698.624859	-78.259128
698.787702	-83.904923
698.950621	-80.601430
699.113616	-83.516753
699.276686	-82.229265
699.439833	-74.720120
699.603056	-73.050225
699.766355	-75.746849
699.929731	-81.604679
700.093183	-80.793807
700.256711	-85.204789
700.420315	-83.169660
700.583996	-76.536129
700.747754	-77.744901
700.911588	-82.637941
701.075499	-77.078491
701.239486	-75.408579
701.403550	-81.916855
701.567691	-84.488098
701.731909	-77.496096
701.896203	-79.930568
702.060575	-81.312166
702.225024	-74.043855
702.389549	-73.040036
702.554152	-76.771983
702.718832	-90.901098
702.883589	-81.967705
703.048424	-77.912951
703.213335	-75.264202
703.378324	-75.773518
703.543391	-80.733181
703.708535	-73.717591
703.873757	-69.870798
704.039056	-70.836682
704.204433	-75.645476
704.369887	-72.712029
704.535420	-70.485023
704.701030	-73.424694
704.866718	-83.988959
705.032484	-77.357897
705.198328	-75.566481
705.364250	-74.916673
705.530250	-73.476971
705.696328	-76.026688
705.862485	-80.226731
706.028720	-73.188191
706.195033	-72.552931
706.361424	-79.148056
706.527894	-81.152220
706.694442	-75.475273
706.861069	-80.796842
707.027775	-83.148718
707.194559	-75.120146
707.361422	-75.832127
707.528363	-81.084943
707.695384	-80.268193
707.862483	-88.419912
708.029661	-78.300880
708.196918	-72.071519
708.364254	-72.915392
708.531670	-83.271930
708.699164	-77.292336
708.866738	-74.152884
709.034391	-76.438220
709.202123	-71.985943
709.369935	-68.676475
709.537826	-69.522937
709.705796	-74.537157
709.873847	-81.206663
710.041976	-79.541540
710.210186	-76.727027
710.378475	-74.213529
710.546844	-76.593821
710.715292	-86.997572
710.883821	-75.291782
711.052429	-74.637814
711.221118	-82.092324
711.389887	-75.703006
711.558735	-72.282104
711.727664	-76.173293
711.896673	-78.759684
712.065763	-73.487523
712.234932	-75.641323
712.404183	-86.442414
712.573513	-73.946288
712.742924	-73.792493
712.912416	-85.428818
713.081988	-74.445778
713.251641	-72.306608
713.421375	-75.145466
713.591190	-70.371210
713.761085	-67.507696
713.931061	-69.477031
714.101119	-77.535197
714.271257	-77.591119
714.441476	-77.211613
714.611777	-80.108602
714.782159	-76.325815
714.952622	-82.363001
715.123166	-77.017249
715.293792	-70.725861
715.464499	-72.046261
715.635288	-75.562971
715.806158	-69.203301
715.977110	-69.042484
716.148143	-76.539104
716.319259	-74.030480
716.490456	-71.244701
716.661735	-80.543979
716.833096	-75.071035
717.004538	-70.816210
717.176063	-76.378849
717.347670	-73.929591
717.519359	-69.699453
717.691130	-74.487770
717.862984	-76.081599
718.034920	-69.377312
718.206938	-72.120986
718.379039	-77.407887
718.551222	-68.874674
718.723488	-69.155066
718.895836	-72.933145
719.068267	-67.848233
719.240781	-67.548688
719.413377	-75.451993
719.586057	-77.598648
719.758819	-73.693239
719.931664	-104.533860
720.104593	-71.839837
720.277604	-70.889043
720.450699	-81.644381
720.623876	-69.380711
720.797137	-67.259360
720.970482	-72.240255
721.143910	-70.510372
721.317421	-67.184004
721.491016	-71.667854
721.664694	-76.589327
721.838456	-69.908210
722.012302	-74.608322
722.186231	-76.954286
722.360244	-69.925954
722.534342	-74.815768
722.708523	-76.183268
722.882788	-69.101972
723.057137	-71.900492
723.231570	-70.250997
723.406088	-65.724482
723.580689	-67.645612
723.755375	-77.460399
723.930146	-70.097951
724.105000	-70.876280
724.279940	-73.264012
724.454963	-66.555949
724.630072	-66.736884
724.805265	-74.609542
724.980543	-71.047345
725.155905	-70.566747
725.331353	-97.320775
725.506885	-70.530387
725.682503	-70.169531
725.858205	-75.749408
726.033993	-67.613513
726.209865	-67.441448
726.385823	-74.314469
726.561866	-66.839818
726.737995	-65.317656
726.914209	-70.685694
727.090508	-69.701656
727.266893	-68.701645
727.443364	-86.193702
727.619920	-69.086113
727.796562	-67.397416
727.973290	-72.598198
728.150103	-66.817870
728.327003	-65.791618
728.503988	-73.195429
728.681060	-68.837908
728.858218	-67.522166
729.035461	-75.256893
729.212791	-66.137934
729.390208	-64.572272
729.567710	-68.759480
729.745299	-65.702590
729.922975	-64.597283
730.100737	-70.700099
730.278586	-68.669057
730.456521	-66.429200
730.634543	-75.017998
730.812652	-72.410212
730.990848	-70.529194
731.169130	-86.566442
731.347500	-68.243906
731.525957	-69.229225
731.704500	-74.098249
731.883131	-64.906121
732.061850	-65.263634
732.240655	-68.812168
732.419548	-64.202433
732.598528	-65.308193
732.777596	-73.438773
732.956751	-66.433174
733.135994	-67.909222
733.315325	-72.441404
733.494744	-64.784106
733.674250	-66.198804
733.853844	-68.908907
734.033526	-64.473400
734.213296	-67.006800
734.393154	-72.110503
734.573101	-65.948108
734.753135	-69.188353
734.933258	-70.717075
735.113469	-65.663989
735.293769	-69.371459
735.474157	-68.631231
735.654633	-64.969611
735.835198	-69.438986
736.015852	-71.196409
736.196594	-67.770531
736.377426	-76.401297
736.558346	-69.210263
736.739355	-66.940245
736.920453	-71.346364
737.101640	-65.990076
737.282916	-65.289059
737.464282	-71.625389
737.645736	-67.473577
737.827280	-67.479902
738.008914	-71.925094
738.190637	-64.818608
738.372449	-65.104250
738.554351	-67.971104
738.736342	-63.587403
738.918424	-64.508744
739.100595	-67.559279
739.282855	-63.443123
739.465206	-64.855867
739.647647	-70.788272
739.830178	-66.437011
740.012799	-70.535429
740.195510	-72.895997
740.378311	-66.531879
740.561203	-70.994293
740.744185	-65.902941
740.927258	-63.158642
741.110421	-67.482735
741.293674	-65.878790
741.477018	-64.205264
741.660453	-71.884185
741.843979	-68.608458
742.027596	-68.001414
742.211303	-76.753902
742.395102	-65.216930
742.578991	-66.170484
742.762972	-68.486285
742.947044	-63.786880
743.131207	-66.640113
743.315461	-73.130247
743.499807	-66.793465
743.684244	-73.328113
743.868773	-67.383805
744.053394	-64.245925
744.238106	-67.931577
744.422910	-63.840539
744.607805	-62.790993
744.792793	-69.565216
744.977872	-70.018783
745.163044	-71.697722
745.348307	-71.856018
745.533663	-64.103351
745.719111	-66.184150
745.904651	-66.966341
746.090283	-63.638200
746.276008	-68.817577
746.461826	-71.501249
746.647735	-67.943241
746.833738	-72.993794
747.019833	-64.418709
747.206021	-64.573638
747.392302	-69.154680
747.578676	-63.910978
747.765143	-65.083777
747.951703	-66.928325
748.138356	-63.589850
748.325102	-67.543926
748.511941	-69.686105
748.698874	-65.486422
748.885900	-71.102271
749.073019	-67.890631
749.260232	-67.060287
749.447539	-72.655808
749.634939	-65.772461
749.822433	-67.340863
750.010021	-75.027765
750.197703	-69.015308
750.385479	-76.256868
750.573348	-74.122941
750.761312	-72.980116
750.949370	-71.222514
751.137523	-64.040488
751.325769	-64.631778
751.514110	-64.748318
751.702545	-61.621385
751.891075	-62.898679
752.079700	-63.894775
752.268419	-62.846666
752.457233	-68.106926
752.646142	-78.437784
752.835145	-71.699055
753.024244	-72.129911
753.213437	-65.967120
753.402726	-68.696804
753.592110	-73.321765
753.781589	-67.839266
753.971163	-77.537400
754.160833	-66.925856
754.350598	-65.313610
754.540459	-65.858306
754.730415	-61.589870
754.920467	-63.171857
755.110615	-66.350090
755.300858	-62.542298
755.491198	-65.396842
755.681633	-68.371161
755.872164	-66.480891
756.062792	-83.136217
756.253515	-67.846006
756.444335	-69.699517
756.635252	-70.673794
756.826264	-64.583099
757.017373	-69.192680
757.208579	-66.059067
757.399881	-66.113262
757.591280	-71.380030
757.782776	-61.792214
757.974368	-62.391955
758.166058	-63.168563
758.357844	-60.908232
758.549728	-65.447039
758.741708	-66.787908
758.933786	-65.287530
759.125961	-85.631550
759.318233	-66.939238
759.510603	-69.236136
759.703071	-66.101191
759.895635	-63.783812
760.088298	-70.610739
760.281058	-64.411815
760.473916	-64.767228
760.666872	-70.254004
760.859926	-65.238784
761.053078	-69.323542
761.246328	-64.815743
761.439676	-63.602806
761.633122	-66.911134
761.826667	-61.169868
762.020310	-61.375137
762.214052	-62.600835
762.407892	-61.388921
762.601831	-66.608628
762.795868	-64.841444
762.990004	-63.716660
763.184239	-67.519769
763.378573	-62.940392
763.573006	-63.858883
763.767538	-61.369260
763.962169	-59.720999
764.156900	-62.482787
764.351729	-61.790521
764.546658	-63.346334
764.741687	-70.353798
764.936815	-65.824144
765.132042	-64.903513
765.327370	-59.855092
765.522797	-59.141117
765.718324	-61.359535
765.913950	-60.978311
766.109677	-63.625214
766.305504	-64.972163
766.501431	-63.853326
766.697458	-64.249918
766.893586	-59.646772
767.089814	-59.250842
767.286142	-60.174135
767.482571	-60.308977
767.679100	-64.562601
767.875730	-63.769135
768.072461	-63.825124
768.269293	-63.294028
768.466225	-60.092906
768.663259	-60.444692
768.860393	-58.897704
769.057629	-59.030475
769.254966	-59.950647
769.452404	-58.740463
769.649944	-60.860744
769.847585	-62.537984
770.045328	-62.596981
770.243172	-61.782149
770.441118	-58.849646
770.639166	-59.578911
770.837315	-59.130941
771.035567	-58.626656
771.233920	-59.788155
771.432376	-59.146511
771.630934	-61.148473
771.829594	-60.590061
772.028356	-59.262539
772.227220	-59.443842
772.426188	-57.299397
772.625257	-57.605837
772.824430	-57.687878
773.023705	-58.604017
773.223083	-63.448265
773.422563	-61.792288
773.622147	-61.034166
773.821834	-58.395553
774.021624	-57.330047
774.221517	-57.495475
774.421513	-55.998672
774.621613	-57.289658
774.821816	-59.224356
775.022122	-60.740604
775.222532	-62.998350
775.423046	-59.258885
775.623664	-58.442384
775.824385	-56.203106
776.025211	-55.496236
776.226140	-56.650259
776.427173	-56.792838
776.628311	-58.419736
776.829553	-58.222014
777.030899	-58.026974
777.232350	-59.034385
777.433905	-57.045210
777.635564	-56.491413
777.837328	-55.644133
778.039197	-55.826661
778.241171	-57.788239
778.443250	-58.010896
778.645433	-59.612789
778.847722	-59.197979
779.050116	-57.639585
779.252615	-56.797834
779.455219	-55.421153
779.657929	-56.440381
779.860744	-56.783853
780.063665	-56.866972
780.266691	-58.188575
780.469823	-57.742426
780.673061	-58.285324
780.876405	-56.372182
781.079855	-55.613872
781.283410	-56.162936
781.487072	-55.533511
781.690840	-56.271694
781.894715	-56.189651
782.098695	-57.074079
782.302783	-58.343857
782.506976	-56.919155
782.711277	-57.125579
782.915684	-55.670968
783.120198	-55.411802
783.324818	-54.790464
783.529546	-54.584131
783.734381	-56.566665
783.939322	-57.476822
784.144372	-58.453623
784.349528	-57.209959
784.554792	-56.085589
784.760163	-55.034085
784.965642	-53.559528
785.171228	-53.765156
785.376922	-54.434887
785.582724	-55.825258
785.788634	-57.753809
785.994651	-58.398047
786.200777	-58.689697
786.407011	-56.181404
786.613353	-54.383622
786.819804	-53.732910
787.026363	-53.685188
787.233030	-54.674059
787.439806	-54.917891
787.646691	-56.204109
787.853684	-57.711350
788.060786	-57.245765
788.267997	-55.914051
788.475317	-54.117440
788.682746	-53.870958
788.890285	-53.097655
789.097932	-53.328539
789.305689	-54.748041
789.513555	-56.492522
789.721531	-57.663230
789.929617	-54.936326
790.137812	-53.964726
790.346117	-52.860998
790.554531	-52.873065
790.763056	-53.483453
790.971691	-55.000769
791.180436	-58.938880
791.389291	-58.653741
791.598256	-56.513483
791.807332	-53.526231
792.016518	-52.474010
792.225815	-51.456784
792.435222	-51.596002
792.644740	-53.492746
792.854369	-55.282362
793.064109	-57.088620
793.273960	-55.686402
793.483922	-55.786001
793.693995	-54.320899
793.904180	-53.170422
794.114475	-52.586785
794.324882	-52.645912
794.535401	-54.362501
794.746031	-54.669695
794.956774	-55.954083
795.167627	-54.676954
795.378593	-53.436454
795.589671	-52.123016
795.800861	-51.913392
796.012162	-53.165584
796.223577	-53.171306
796.435103	-54.018471
796.646742	-54.496818
796.858493	-55.535255
797.070357	-54.220969
797.282334	-52.604328
797.494423	-52.699182
797.706626	-52.734335
797.918941	-53.815311
798.131369	-53.562899
798.343911	-54.187559
798.556566	-53.513022
798.769334	-52.530644
798.982215	-52.726510
799.195210	-52.468618
799.408319	-53.046122
799.621541	-51.774185
799.834877	-52.451320
800.048327	-52.810042
800.261890	-52.786012
800.475568	-52.517016
800.689360	-52.380239
800.903266	-53.788334
801.117287	-52.666848
801.331422	-52.533644
801.545671	-51.706978
801.760036	-52.180280
801.974514	-51.831222
802.189108	-51.834698
802.403816	-52.915736
802.618640	-52.725298
802.833578	-53.121361
803.048632	-52.161667
803.263800	-52.635423
803.479085	-51.217197
803.694484	-50.912656
803.909999	-51.181629
804.125630	-51.906472
804.341376	-52.502912
804.557239	-51.853626
804.773217	-52.481385
804.989311	-51.378396
805.205521	-50.902949
805.421847	-50.240154
805.638290	-51.492118
805.854849	-52.451174
806.071524	-52.437643
806.288316	-52.062564
806.505225	-51.328373
806.722250	-50.990506
806.939393	-50.226042
807.156652	-51.047649
807.374028	-51.115268
807.591521	-51.629690
807.809132	-51.357440
808.026859	-52.089360
808.244705	-51.357084
808.462667	-50.507348
808.680748	-50.081497
808.898946	-50.107620
809.117261	-50.290587
809.335695	-49.908678
809.554246	-51.170543
809.772916	-51.687000
809.991704	-52.027425
810.210610	-50.364028
810.429634	-50.421148
810.648777	-49.727102
810.868039	-50.172409
811.087419	-50.399108
811.306918	-51.333975
811.526535	-51.049551
811.746272	-50.406849
811.966127	-50.629845
812.186102	-50.429019
812.406196	-50.600646
812.626409	-49.843653
812.846742	-50.746249
813.067194	-49.662273
813.287766	-49.590875
813.508457	-48.955115
813.729269	-50.477014
813.950200	-50.617176
814.171251	-50.737868
814.392422	-49.893522
814.613714	-49.644887
814.835126	-49.346859
815.056658	-49.339311
815.278311	-50.071510
815.500084	-49.638028
815.721978	-50.079242
815.943993	-50.185920
816.166128	-51.588387
816.388385	-50.177416
816.610762	-49.798024
816.833261	-49.045022
817.055881	-49.279589
817.278623	-48.569959
817.501486	-48.856136
817.724471	-49.519845
817.947577	-50.062639
818.170805	-50.170395
818.394155	-49.837853
818.617627	-49.535669
818.841221	-48.650191
819.064937	-49.205284
819.288775	-49.766733
819.512736	-50.288567
819.736819	-49.338339
819.961025	-49.752584
820.185354	-49.881332
820.409805	-50.073245
820.634379	-49.518108
820.859076	-49.597022
821.083897	-48.912095
821.308840	-48.410384
821.533907	-48.627580
821.759097	-49.241886
821.984411	-49.745743
822.209848	-49.560649
822.435409	-49.871498
822.661093	-49.046318
822.886902	-48.755269
823.112834	-48.302200
823.338891	-48.980638
823.565072	-48.527521
823.791377	-49.632541
824.017807	-50.158056
824.244361	-51.046218
824.471039	-49.173112
824.697843	-49.002175
824.924771	-47.810201
825.151824	-47.670049
825.379002	-47.233585
825.606306	-48.860453
825.833734	-50.201147
826.061288	-51.147328
826.288967	-49.982339
826.516772	-49.409194
826.744703	-48.114868
826.972759	-48.090754
827.200941	-48.320325
827.429249	-48.381945
827.657683	-48.704724
827.886243	-49.419803
828.114930	-50.515312
828.343743	-49.451996
828.572682	-49.163711
828.801748	-48.617229
829.030941	-48.600266
829.260260	-47.431772
829.489706	-48.385423
829.719280	-48.457727
829.948980	-49.757249
830.178808	-48.807959
830.408763	-49.952228
830.638845	-48.805677
830.869055	-49.725831
831.099393	-48.495509
831.329858	-48.918033
831.560451	-47.445129
831.791173	-49.161087
832.022022	-49.072609
832.252999	-49.805656
832.484105	-47.605426
832.715339	-48.203114
832.946702	-47.145100
833.178193	-48.372490
833.409813	-48.500532
833.641561	-50.662890
833.873439	-48.996872
834.105445	-49.279678
834.337581	-47.677898
834.569846	-48.010311
834.802241	-46.995841
835.034764	-48.359308
835.267418	-47.841012
835.500201	-48.427678
835.733114	-47.860115
835.966157	-49.109707
836.199329	-47.923888
836.432632	-48.401432
836.666065	-47.897034
836.899629	-48.636917
837.133323	-47.651558
837.367147	-48.637181
837.601102	-47.903939
837.835188	-48.030839
838.069405	-46.951930
838.303752	-47.669457
838.538231	-46.951832
838.772841	-47.675248
839.007582	-47.190177
839.242455	-47.514407
839.477459	-46.925695
839.712595	-48.660081
839.947863	-48.244677
840.183263	-47.637664
840.418794	-45.978965
840.654458	-46.695142
840.890254	-46.121254
841.126182	-47.075593
841.362242	-46.894758
841.598435	-47.915772
841.834761	-46.747063
842.071220	-47.293508
842.307811	-46.008669
842.544536	-46.539990
842.781393	-46.131338
843.018384	-47.289299
843.255508	-45.914749
843.492765	-46.510729
843.730156	-45.874097
843.967681	-46.394426
844.205339	-45.280465
844.443132	-46.309535
844.681058	-45.716249
844.919118	-46.278097
845.157313	-45.728937
845.395642	-46.228850
845.634105	-44.966107
845.872703	-45.158334
846.111436	-45.088880
846.350303	-45.786764
846.589306	-45.318268
846.828443	-45.338635
847.067716	-44.795456
847.307124	-44.912903
847.546667	-45.159597
847.786345	-44.622395
848.026160	-43.976638
848.266110	-43.976954
848.506195	-44.846131
848.746417	-44.658975
848.986775	-44.895669
849.227269	-44.437012
849.467899	-44.624771
849.708666	-43.519839
849.949569	-43.880185
850.190609	-43.202060
850.431785	-44.247619
850.673099	-44.077638
850.914549	-44.575094
851.156137	-43.143788
851.397861	-43.822194
851.639723	-43.242036
851.881723	-43.445444
852.123860	-42.747883
852.366135	-43.576311
852.608547	-43.265771
852.851098	-43.367496
853.093786	-42.893687
853.336613	-42.499482
853.579578	-42.378997
853.822681	-42.603141
854.065923	-42.995073
854.309304	-42.481709
854.552823	-42.853185
854.796481	-42.196867
855.040278	-42.513602
855.284215	-42.025449
855.528290	-42.539483
855.772505	-41.592032
856.016859	-42.169488
856.261353	-41.981930
856.505987	-42.207671
856.750760	-41.623679
856.995673	-41.903141
857.240727	-41.579853
857.485920	-41.373477
857.731254	-41.527188
857.976729	-41.373773
858.222343	-41.549702
858.468099	-41.254135
858.713995	-41.508099
858.960032	-40.843639
859.206211	-41.359939
859.452530	-40.766194
859.698991	-40.884677
859.945593	-40.652056
860.192336	-41.132147
860.439222	-40.530027
860.686248	-40.463601
860.933417	-40.616832
861.180728	-40.545478
861.428181	-40.629344
861.675776	-40.261342
861.923514	-40.508354
862.171394	-40.051466
862.419417	-40.446875
862.667582	-39.804933
862.915890	-40.308534
863.164342	-40.234297
863.412936	-40.184221
863.661674	-39.722777
863.910555	-39.961912
864.159579	-40.036450
864.408747	-39.417746
864.658059	-39.621278
864.907515	-39.408278
865.157114	-39.783303
865.406858	-39.394099
865.656746	-39.725328
865.906778	-39.202875
866.156955	-39.457176
866.407277	-39.277453
866.657743	-39.134874
866.908354	-39.101238
867.159110	-38.845191
867.410011	-38.986733
867.661057	-38.914163
867.912249	-39.414217
868.163586	-38.644103
868.415069	-38.858384
868.666697	-38.685565
868.918472	-38.582679
869.170392	-38.271042
869.422458	-38.629025
869.674671	-39.103605
869.927030	-38.726474
870.179536	-38.603687
870.432188	-37.855083
870.684987	-38.303173
870.937933	-38.294361
871.191026	-38.398876
871.444266	-38.105576
871.697653	-38.271213
871.951188	-38.226119
872.204870	-37.724721
872.458700	-37.990204
872.712677	-37.729080
872.966803	-38.173299
873.221076	-38.003731
873.475498	-37.964805
873.730068	-37.663206
873.984787	-37.725263
874.239654	-37.623915
874.494669	-37.157014
874.749834	-37.718276
875.005147	-37.747643
875.260610	-37.895461
875.516222	-37.444430
875.771983	-37.331123
876.027894	-37.312730
876.283954	-37.494663
876.540164	-37.595979
876.796524	-37.004624
877.053033	-37.393269
877.309693	-37.323681
877.566503	-37.308814
877.823464	-36.871233
878.080575	-36.684322
878.337837	-37.112784
878.595249	-37.434982
878.852813	-37.399584
879.110528	-36.570590
879.368393	-36.819079
879.626410	-36.718160
879.884579	-36.636959
880.142899	-37.105888
880.401371	-37.145572
880.659994	-36.859961
880.918770	-36.250858
881.177698	-36.624316
881.436778	-36.919575
881.696010	-37.034475
881.955395	-36.577815
882.214933	-36.188846
882.474623	-36.820319
882.734467	-36.633456
882.994463	-36.497877
883.254613	-36.391835
883.514916	-36.456295
883.775372	-36.661856
884.035982	-36.679603
884.296746	-36.458479
884.557664	-35.873692
884.818735	-36.340532
885.079961	-36.638293
885.341341	-36.553746
885.602876	-36.429634
885.864565	-35.991985
886.126409	-36.286311
886.388407	-36.399560
886.650561	-36.353427
886.912870	-36.246205
887.175334	-36.256671
887.437953	-36.244093
887.700728	-36.102166
887.963658	-36.487376
888.226745	-36.115918
888.489987	-35.846005
888.753385	-36.047047
889.016940	-36.182046
889.280651	-36.512316
889.544518	-36.016184
889.808543	-35.650098
890.072723	-35.971353
890.337061	-36.364389
890.601556	-36.215693
890.866208	-35.804871
891.131017	-35.887295
891.395984	-35.890547
891.661109	-36.102157
891.926391	-36.103094
892.191831	-35.743856
892.457429	-36.051322
892.723186	-35.940006
892.989100	-35.583439
893.255173	-35.719006
893.521405	-35.960899
893.787796	-36.100851
894.054345	-35.743860
894.321053	-35.548524
894.587921	-35.850324
894.854948	-35.989778
895.122134	-35.603424
895.389480	-35.558071
895.656986	-36.219729
895.924651	-35.924504
896.192477	-35.360080
896.460463	-35.631454
896.728609	-35.852179
896.996915	-35.946096
897.265382	-35.701435
897.534010	-35.514789
897.802799	-35.836215
898.071749	-35.656041
898.340860	-35.433999
898.610132	-35.696958
898.879566	-35.787016
899.149162	-35.698062
899.418919	-35.605053
899.688838	-35.485368
899.958919	-35.601035
900.229162	-35.877518
900.499568	-35.591418
900.770136	-35.285858
901.040867	-35.652791
901.311761	-35.707997
901.582817	-35.409989
901.854037	-35.398475
902.125420	-35.561664
902.396966	-35.767578
902.668676	-35.310705
902.940550	-35.029718
903.212587	-35.691230
903.484788	-35.713297
903.757153	-35.304081
904.029683	-35.495978
904.302377	-35.406904
904.575236	-35.200255
904.848259	-35.300366
905.121447	-35.495653
905.394800	-35.699456
905.668319	-35.373155
905.942002	-34.959521
906.215852	-35.236446
906.489866	-35.523044
906.764047	-35.372277
907.038393	-35.367596
907.312906	-35.363686
907.587584	-35.228776
907.862429	-35.192103
908.137441	-35.252216
908.412619	-35.490117
908.687964	-35.431830
908.963476	-34.944417
909.239155	-35.028160
909.515002	-35.356141
909.791015	-35.207883
910.067197	-35.342087
910.343546	-35.396281
910.620063	-35.017289
910.896748	-35.051476
911.173601	-35.234234
911.450623	-35.340119
911.727813	-35.422303
912.005171	-35.099563
912.282699	-34.949646
912.560395	-34.979739
912.838261	-34.920243
913.116296	-35.227869
913.394500	-35.286229
913.672874	-34.939455
913.951418	-34.774828
914.230131	-34.663810
914.509015	-35.163492
914.788068	-35.628156
915.067292	-34.783665
915.346687	-34.527055
915.626252	-35.030474
915.905988	-34.882999
916.185895	-34.784892
916.465973	-35.012099
916.746223	-34.969203
917.026644	-34.798725
917.307236	-34.716430
917.588000	-35.027593
917.868937	-35.040245
918.150045	-34.458035
918.431325	-34.465670
918.712778	-34.666627
918.994404	-34.607489
919.276202	-34.762751
919.558173	-34.592141
919.840317	-34.520997
920.122634	-34.651492
920.405125	-34.168579
920.687789	-34.161456
920.970627	-34.602101
921.253639	-34.431930
921.536824	-34.347584
921.820184	-34.207887
922.103718	-33.981440
922.387427	-34.270185
922.671310	-34.410913
922.955368	-34.185859
923.239601	-33.822246
923.524009	-33.660575
923.808592	-34.163440
924.093351	-34.249301
924.378285	-33.739700
924.663396	-33.515089
924.948682	-33.379620
925.234144	-33.768854
925.519782	-34.087218
925.805597	-33.401944
926.091589	-33.207531
926.377757	-33.466190
926.664102	-33.472038
926.950624	-33.532853
927.237323	-33.360157
927.524200	-33.243392
927.811255	-33.281589
928.098487	-33.221595
928.385897	-33.446772
928.673485	-33.284884
928.961251	-32.937719
929.249196	-33.189872
929.537319	-33.225713
929.825621	-33.062242
930.114102	-33.005316
930.402762	-32.856947
930.691601	-32.904636
930.980620	-32.816497
931.269818	-32.819589
931.559196	-32.883443
931.848753	-32.549015
932.138491	-32.698443
932.428409	-32.683279
932.718508	-32.247716
933.008787	-32.698690
933.299246	-32.757297
933.589887	-32.150588
933.880709	-32.383099
934.171712	-32.540935
934.462896	-32.214810
934.754262	-32.289280
935.045810	-32.578494
935.337539	-32.197332
935.629451	-31.650760
935.921545	-32.256360
936.213822	-32.654243
936.506281	-31.713577
936.798922	-31.674634
937.091747	-32.054535
937.384755	-31.871034
937.677946	-31.859233
937.971321	-31.732105
938.264879	-31.623000
938.558621	-31.598248
938.852547	-31.566605
939.146657	-31.712802
939.440952	-31.495147
939.735431	-31.388405
940.030095	-31.443874
940.324943	-31.349600
940.619977	-31.640119
940.915196	-31.410977
941.210600	-31.023169
941.506189	-31.366422
941.801965	-31.420993
942.097926	-31.277674
942.394074	-31.162822
942.690407	-30.983452
942.986927	-31.085085
943.283634	-31.106150
943.580527	-31.161869
943.877608	-30.815409
944.174875	-30.457963
944.472330	-31.043739
944.769972	-31.016961
945.067802	-30.356729
945.365820	-30.434152
945.664026	-30.738264
945.962420	-30.667392
946.261002	-30.167170
946.559773	-30.262257
946.858733	-30.678274
947.157881	-30.212750
947.457219	-30.094342
947.756746	-30.219150
948.056462	-30.195600
948.356368	-30.364155
948.656464	-29.916663
948.956749	-29.760338
949.257225	-30.238853
949.557891	-30.167964
949.858748	-29.703463
950.159796	-29.622786
950.461034	-30.030099
950.762463	-29.809568
951.064084	-29.527344
951.365896	-29.801893
951.667900	-29.419052
951.970095	-29.462291
952.272483	-29.793545
952.575063	-29.245416
952.877835	-29.271688
953.180799	-29.508393
953.483956	-29.318226
953.787307	-29.251992
954.090850	-29.222889
954.394586	-29.231507
954.698516	-29.146755
955.002640	-29.244166
955.306957	-29.136205
955.611469	-28.934154
955.916174	-29.232224
956.221074	-29.074007
956.526169	-28.948853
956.831458	-29.074508
957.136942	-28.970246
957.442622	-28.995826
957.748496	-28.719569
958.054567	-29.007896
958.360833	-29.238040
958.667294	-28.384703
958.973952	-28.607731
959.280806	-29.267101
959.587857	-28.664215
959.895104	-28.264499
960.202548	-28.759420
960.510189	-28.935015
960.818027	-28.308301
961.126062	-28.442028
961.434295	-28.672306
961.742726	-28.355707
962.051355	-28.345879
962.360182	-28.339153
962.669207	-28.555975
962.978431	-28.247491
963.287854	-27.921068
963.597475	-28.537719
963.907296	-28.368072
964.217315	-27.905274
964.527535	-28.046043
964.837954	-28.263992
965.148573	-28.219674
965.459392	-27.820229
965.770411	-27.946931
966.081630	-28.089826
966.393051	-27.912996
966.704672	-27.895326
967.016494	-27.812746
967.328517	-27.785828
967.640742	-27.724641
967.953169	-27.859485
968.265797	-27.624819
968.578627	-27.448693
968.891660	-27.762302
969.204895	-27.403280
969.518332	-27.534494
969.831972	-27.552626
970.145816	-27.012135
970.459862	-27.493294
970.774112	-27.508230
971.088565	-26.929474
971.403223	-27.076179
971.718084	-27.384452
972.033149	-27.080693
972.348419	-26.832210
972.663893	-27.113741
972.979572	-27.027942
973.295456	-26.905147
973.611546	-26.833899
973.927840	-26.902701
974.244340	-26.937409
974.561046	-26.571486
974.877958	-26.955877
975.195076	-26.789314
975.512401	-26.455664
975.829932	-26.923412
976.147670	-26.584780
976.465615	-26.549950
976.783767	-26.746598
977.102126	-26.424088
977.420693	-26.525692
977.739468	-26.717631
978.058451	-26.365249
978.377642	-26.270180
978.697041	-26.646571
979.016649	-26.323913
979.336466	-26.298883
979.656492	-26.358206
979.976727	-26.155772
980.297171	-26.447111
980.617825	-26.082745
980.938689	-26.110721
981.259763	-26.258119
981.581048	-26.002317
981.902542	-26.212313
982.224248	-25.925352
982.546164	-25.905968
982.868291	-26.190468
983.190630	-25.895392
983.513180	-25.708666
983.835942	-26.056273
984.158916	-25.877860
984.482101	-25.589367
984.805500	-26.022228
985.129110	-25.618703
985.452934	-25.613539
985.776970	-25.936384
986.101220	-25.513117
986.425683	-25.528578
986.750359	-25.617325
987.075250	-25.726748
987.400354	-25.396103
987.725673	-25.329582
988.051206	-25.629206
988.376954	-25.400113
988.702916	-25.274694
989.029094	-25.285596
989.355487	-25.420157
989.682095	-25.185771
990.008919	-25.153161
990.335959	-25.203127
990.663216	-25.091950
990.990688	-25.092315
991.318377	-24.971108
991.646283	-25.100447
991.974406	-24.780590
992.302746	-24.945356
992.631304	-25.033285
992.960079	-24.554145
993.289072	-24.824785
993.618283	-24.880959
993.947713	-24.599476
994.277361	-24.530100
994.607227	-24.805961
994.937313	-24.502630
995.267618	-24.469913
995.598142	-24.734758
995.928886	-24.230257
996.259849	-24.513413
996.591033	-24.649118
996.922437	-24.194700
997.254061	-24.303432
997.585906	-24.643885
997.917972	-24.204743
998.250260	-24.163527
998.582768	-24.524315
998.915498	-24.118266
999.248450	-24.358626
999.581624	-24.209500
999.915020	-24.141697
1000.248639	-24.319571
1000.582480	-24.063743
1000.916545	-24.239820
1001.250832	-24.084427
1001.585343	-24.114458
1001.920077	-24.205225
1002.255035	-23.977953
1002.590218	-23.946322
1002.925624	-24.240499
1003.261255	-23.922478
1003.597111	-23.898223
1003.933192	-24.139921
1004.269497	-23.778497
1004.606029	-24.085983
1004.942785	-23.796970
1005.279768	-23.839857
1005.616977	-24.069770
1005.954412	-23.703396
1006.292074	-23.843223
1006.629962	-23.875418
1006.968077	-23.792906
1007.306420	-23.740526
1007.644990	-23.847171
1007.983787	-23.694674
1008.322813	-23.825940
1008.662067	-23.766478
1009.001549	-23.631098
1009.341259	-23.727100
1009.681199	-23.761790
1010.021367	-23.653248
1010.361765	-23.495235
1010.702392	-23.930321
1011.043250	-23.449327
1011.384337	-23.553919
1011.725654	-23.748089
1012.067202	-23.356605
1012.408980	-23.667466
1012.750989	-23.488550
1013.093230	-23.329078
1013.435702	-23.592183
1013.778405	-23.418366
1014.121341	-23.183145
1014.464508	-23.585498
1014.807908	-23.214063
1015.151540	-23.256282
1015.495405	-23.348920
1015.839503	-23.102203
1016.183835	-23.337883
1016.528400	-23.098331
1016.873198	-23.112119
1017.218231	-23.150167
1017.563498	-23.174175
1017.908999	-22.940654
1018.254735	-23.097692
1018.600707	-23.085598
1018.946913	-22.920207
1019.293354	-23.019381
1019.640032	-22.957063
1019.986945	-22.986704
1020.334094	-22.900596
1020.681480	-22.910547
1021.029102	-22.859209
1021.376961	-23.010913
1021.725058	-22.717027
1022.073391	-22.904444
1022.421962	-22.879445
1022.770772	-22.744504
1023.119819	-22.836657
1023.469104	-22.712238
1023.818628	-22.895659
1024.168391	-22.656751
1024.518393	-22.724135
1024.868634	-22.791119
1025.219115	-22.693249
1025.569836	-22.629272
1025.920796	-22.775378
1026.271997	-22.603187
1026.623438	-22.743950
1026.975121	-22.601727
1027.327044	-22.615224
1027.679208	-22.792335
1028.031614	-22.459190
1028.384262	-22.729163
1028.737152	-22.612568
1029.090284	-22.647266
1029.443659	-22.573422
1029.797276	-22.591550
1030.151137	-22.661719
1030.505240	-22.568615
1030.859587	-22.484560
1031.214178	-22.735247
1031.569013	-22.459707
1031.924093	-22.526268
1032.279417	-22.612767
1032.634985	-22.388151
1032.990799	-22.685991
1033.346858	-22.293776
1033.703162	-22.561377
1034.059712	-22.497733
1034.416509	-22.275346
1034.773551	-22.499701
1035.130841	-22.413520
1035.488377	-22.240511
1035.846160	-22.486868
1036.204190	-22.179911
1036.562468	-22.402359
1036.920994	-22.279229
1037.279768	-22.100464
1037.638790	-22.472610
1037.998061	-22.066482
1038.357581	-22.224850
1038.717350	-22.230816
1039.077368	-22.145033
1039.437636	-22.135296
1039.798154	-22.162689
1040.158922	-22.081065
1040.519940	-22.165427
1040.881209	-21.953820
1041.242729	-22.189056
1041.604501	-22.011711
1041.966524	-21.987211
1042.328798	-22.055958
1042.691325	-21.995881
1043.054103	-21.988655
1043.417135	-21.919050
1043.780419	-22.026271
1044.143956	-21.913682
1044.507746	-21.918862
1044.871791	-21.911395
1045.236088	-21.980888
1045.600641	-21.791396
1045.965447	-21.964773
1046.330508	-21.881385
1046.695824	-21.914776
1047.061395	-21.782544
1047.427222	-21.980005
1047.793304	-21.829309
1048.159642	-21.850904
1048.526237	-21.885901
1048.893088	-21.893726
1049.260196	-21.822117
1049.627561	-21.868559
1049.995183	-21.885395
1050.363063	-21.863920
1050.731201	-21.803544
1051.099597	-21.895626
1051.468251	-21.886560
1051.837164	-21.718226
1052.206336	-21.951768
1052.575767	-21.782648
1052.945458	-21.838237
1053.315409	-21.778788
1053.685619	-21.841622
1054.056090	-21.754354
1054.426821	-21.774050
1054.797814	-21.750205
1055.169067	-21.800002
1055.540582	-21.593740
1055.912359	-21.821984
1056.284398	-21.633363
1056.656698	-21.660956
1057.029262	-21.626543
1057.402088	-21.677412
1057.775177	-21.523433
1058.148530	-21.598524
1058.522146	-21.562489
1058.896027	-21.509658
1059.270171	-21.472848
1059.644580	-21.504615
1060.019254	-21.419781
1060.394193	-21.387787
1060.769397	-21.398430
1061.144867	-21.369494
1061.520602	-21.280149
1061.896604	-21.296667
1062.272872	-21.307326
1062.649407	-21.200857
1063.026210	-21.217880
1063.403279	-21.208752
1063.780616	-21.162763
1064.158221	-21.067940
1064.536094	-21.210928
1064.914235	-21.027465
1065.292645	-21.073860
1065.671325	-21.070126
1066.050273	-21.029559
1066.429491	-20.965300
1066.808979	-21.053345
1067.188738	-20.948356
1067.568766	-20.983254
1067.949066	-20.922066
1068.329636	-21.009057
1068.710478	-20.854780
1069.091592	-20.970046
1069.472977	-20.905424
1069.854635	-20.905612
1070.236565	-20.858298
1070.618768	-20.947982
1071.001243	-20.822223
1071.383993	-20.897504
1071.767016	-20.855674
1072.150313	-20.867767
1072.533884	-20.768983
1072.917730	-20.928065
1073.301850	-20.761477
1073.686246	-20.817237
1074.070917	-20.808930
1074.455864	-20.792701
1074.841087	-20.735029
1075.226586	-20.811171
1075.612362	-20.716108
1075.998415	-20.743108
1076.384745	-20.690869
1076.771353	-20.746860
1077.158238	-20.597567
1077.545401	-20.720776
1077.932843	-20.595745
1078.320564	-20.599105
1078.708564	-20.565136
1079.096842	-20.574622
1079.485401	-20.467705
1079.874240	-20.514835
1080.263358	-20.427517
1080.652757	-20.434164
1081.042438	-20.349463
1081.432399	-20.418014
1081.822641	-20.257502
1082.213166	-20.323890
1082.603972	-20.262094
1082.995061	-20.212846
1083.386433	-20.199740
1083.778087	-20.198361
1084.170025	-20.077963
1084.562246	-20.145929
1084.954751	-20.048311
1085.347541	-20.058510
1085.740615	-19.973238
1086.133973	-20.030835
1086.527617	-19.896089
1086.921546	-19.960276
1087.315761	-19.901853
1087.710262	-19.872938
1088.105050	-19.859701
1088.500124	-19.868381
1088.895485	-19.808191
1089.291134	-19.846284
1089.687070	-19.805318
1090.083294	-19.796979
1090.479806	-19.777587
1090.876607	-19.812394
1091.273696	-19.725995
1091.671075	-19.777382
1092.068744	-19.727407
1092.466702	-19.698758
1092.864950	-19.708803
1093.263489	-19.677841
1093.662319	-19.634967
1094.061440	-19.639352
1094.460852	-19.619830
1094.860555	-19.561835
1095.260551	-19.599104
1095.660840	-19.541903
1096.061421	-19.525640
1096.462295	-19.535041
1096.863462	-19.505835
1097.264923	-19.466759
1097.666678	-19.500819
1098.068727	-19.429893
1098.471071	-19.441369
1098.873710	-19.393000
1099.276644	-19.392181
1099.679874	-19.296366
1100.083400	-19.348783
1100.487222	-19.210137
1100.891340	-19.230079
1101.295756	-19.157493
1101.700468	-19.104238
1102.105478	-19.051814
1102.510787	-19.028592
1102.916393	-18.948639
1103.322298	-18.931310
1103.728502	-18.885110
1104.135005	-18.838889
1104.541807	-18.827864
1104.948909	-18.811780
1105.356312	-18.751119
1105.764015	-18.780833
1106.172019	-18.739123
1106.580324	-18.716095
1106.988931	-18.757022
1107.397840	-18.669477
1107.807051	-18.708012
1108.216564	-18.656553
1108.626380	-18.667958
1109.036500	-18.593141
1109.446923	-18.625954
1109.857649	-18.529909
1110.268680	-18.541912
1110.680016	-18.503239
1111.091657	-18.441379
1111.503602	-18.431198
1111.915854	-18.405271
1112.328411	-18.354119
1112.741275	-18.368749
1113.154445	-18.319425
1113.567922	-18.310465
1113.981706	-18.333774
1114.395798	-18.297533
1114.810198	-18.321464
1115.224906	-18.316654
1115.639923	-18.324695
1116.055249	-18.324639
1116.470884	-18.361791
1116.886829	-18.302633
1117.303084	-18.364137
1117.719650	-18.307161
1118.136526	-18.312774
1118.553713	-18.285668
1118.971212	-18.242794
1119.389022	-18.209762
1119.807145	-18.170940
1120.225580	-18.109750
1120.644328	-18.036221
1121.063389	-18.014760
1121.482763	-17.898760
1121.902452	-17.901704
1122.322454	-17.787121
1122.742771	-17.756188
1123.163404	-17.692887
1123.584351	-17.664670
1124.005614	-17.593448
1124.427193	-17.591958
1124.849089	-17.527416
1125.271301	-17.533428
1125.693830	-17.512689
1126.116677	-17.475325
1126.539842	-17.502067
1126.963324	-17.458349
1127.387126	-17.498642
1127.811246	-17.450889
1128.235685	-17.484928
1128.660444	-17.428971
1129.085522	-17.492454
1129.510922	-17.403882
1129.936641	-17.446278
1130.362682	-17.387446
1130.789044	-17.383876
1131.215728	-17.364280
1131.642734	-17.305742
1132.070063	-17.299260
1132.497714	-17.246877
1132.925689	-17.241593
1133.353987	-17.164409
1133.782610	-17.177908
1134.211556	-17.095978
1134.640827	-17.132596
1135.070424	-17.045830
1135.500345	-17.060845
1135.930593	-17.031513
1136.361166	-17.022198
1136.792067	-17.020126
1137.223294	-16.989156
1137.654848	-17.012542
1138.086730	-16.994270
1138.518940	-17.017334
1138.951479	-16.975653
1139.384346	-17.020389
1139.817543	-16.988714
1140.251069	-17.010144
1140.684925	-16.979655
1141.119111	-16.969871
1141.553628	-16.984043
1141.988475	-16.929335
1142.423655	-16.930191
1142.859166	-16.868293
1143.295009	-16.869266
1143.731185	-16.808091
1144.167694	-16.767580
1144.604536	-16.708170
1145.041711	-16.674559
1145.479221	-16.623399
1145.917065	-16.541459
1146.355245	-16.516926
1146.793759	-16.431684
1147.232609	-16.424785
1147.671795	-16.316603
1148.111317	-16.305085
1148.551177	-16.247535
1148.991373	-16.208343
1149.431907	-16.171832
1149.872779	-16.111288
1150.313989	-16.125847
1150.755538	-16.061948
1151.197426	-16.066006
1151.639653	-16.010951
1152.082220	-16.045289
1152.525128	-15.999603
1152.968376	-16.004131
1153.411966	-15.988980
1153.855897	-15.999029
1154.300169	-16.009066
1154.744784	-15.971016
1155.189742	-16.013743
1155.635042	-15.992410
1156.080687	-16.016490
1156.526674	-15.994500
1156.973007	-16.000425
1157.419683	-16.028388
1157.866705	-15.990093
1158.314072	-16.008203
1158.761786	-15.977764
1159.209845	-16.005445
1159.658251	-15.962891
1160.107004	-15.944462
1160.556104	-15.939863
1161.005553	-15.912042
1161.455349	-15.890181
1161.905494	-15.829018
1162.355989	-15.838279
1162.806832	-15.779413
1163.258026	-15.744363
1163.709570	-15.696138
1164.161464	-15.661691
1164.613710	-15.637050
1165.066307	-15.544870
1165.519256	-15.544413
1165.972558	-15.470687
1166.426212	-15.457008
1166.880219	-15.373499
1167.334580	-15.349974
1167.789295	-15.325388
1168.244364	-15.253414
1168.699788	-15.234654
1169.155567	-15.182458
1169.611702	-15.178202
1170.068193	-15.118850
1170.525041	-15.086947
1170.982245	-15.091099
1171.439807	-15.038705
1171.897726	-15.035193
1172.356004	-14.991980
1172.814640	-15.011328
1173.273635	-14.980543
1173.732989	-14.952971
1174.192703	-14.974251
1174.652778	-14.946937
1175.113213	-14.958622
1175.574009	-14.923210
1176.035167	-14.953687
1176.496687	-14.943913
1176.958569	-14.920185
1177.420814	-14.943015
1177.883422	-14.926479
1178.346394	-14.942345
1178.809730	-14.906998
1179.273430	-14.927483
1179.737496	-14.925380
1180.201927	-14.895133
1180.666723	-14.903869
1181.131886	-14.884646
1181.597416	-14.886031
1182.063312	-14.849390
1182.529576	-14.838639
1182.996209	-14.838646
1183.463209	-14.787432
1183.930579	-14.778707
1184.398317	-14.744748
1184.866426	-14.729108
1185.334904	-14.679783
1185.803754	-14.650354
1186.272974	-14.633295
1186.742566	-14.574684
1187.212529	-14.551288
1187.682865	-14.504476
1188.153574	-14.481196
1188.624656	-14.432758
1189.096112	-14.388956
1189.567942	-14.381517
1190.040147	-14.313598
1190.512726	-14.305823
1190.985681	-14.262884
1191.459012	-14.237024
1191.932720	-14.219462
1192.406804	-14.171279
1192.881265	-14.182532
1193.356104	-14.137289
1193.831322	-14.124902
1194.306918	-14.127941
1194.782893	-14.087078
1195.259248	-14.105050
1195.735982	-14.073564
1196.213097	-14.081210
1196.690593	-14.075776
1197.168471	-14.053683
1197.646730	-14.080456
1198.125371	-14.046582
1198.604395	-14.063818
1199.083803	-14.058847
1199.563594	-14.046352
1200.043769	-14.060044
1200.524329	-14.040845
1201.005273	-14.054488
1201.486604	-14.037316
1201.968320	-14.037061
1202.450422	-14.044499
1202.932912	-14.015053
1203.415789	-14.033946
1203.899054	-14.009934
1204.382707	-14.011629
1204.866748	-14.001408
1205.351179	-13.985345
1205.836000	-13.997477
1206.321211	-13.958787
1206.806812	-13.966384
1207.292805	-13.964234
1207.779189	-13.924147
1208.265965	-13.935853
1208.753134	-13.920731
1209.240696	-13.893386
1209.728651	-13.890077
1210.217000	-13.873791
1210.705744	-13.855375
1211.194883	-13.836987
1211.684417	-13.825374
1212.174347	-13.799706
1212.664673	-13.791989
1213.155396	-13.760600
1213.646516	-13.743464
1214.138034	-13.748730
1214.629951	-13.678677
1215.122266	-13.702640
1215.614980	-13.687596
1216.108095	-13.605186
1216.601609	-13.667525
1217.095524	-13.607655
1217.589841	-13.557270
1218.084559	-13.618580
1218.579679	-13.525699
1219.075202	-13.529270
1219.571128	-13.549870
1220.067458	-13.457782
1220.564191	-13.507167
1221.061330	-13.465765
1221.558874	-13.411835
1222.056823	-13.471132
1222.555178	-13.385453
1223.053940	-13.378750
1223.553109	-13.419660
1224.052686	-13.320746
1224.552671	-13.348812
1225.053065	-13.359210
1225.553867	-13.273393
1226.055079	-13.315474
1226.556702	-13.298624
1227.058735	-13.241481
1227.561179	-13.276421
1228.064035	-13.243244
1228.567303	-13.218304
1229.070983	-13.233454
1229.575077	-13.195842
1230.079585	-13.198517
1230.584506	-13.183400
1231.089842	-13.160123
1231.595594	-13.170796
1232.101761	-13.133127
1232.608345	-13.127583
1233.115345	-13.131909
1233.622762	-13.084808
1234.130597	-13.093653
1234.638851	-13.080261
1235.147523	-13.039486
1235.656615	-13.051166
1236.166126	-13.021745
1236.676058	-12.996334
1237.186411	-12.996701
1237.697185	-12.961999
1238.208381	-12.949504
1238.719999	-12.935755
1239.232040	-12.902742
1239.744505	-12.898333
1240.257394	-12.870791
1240.770708	-12.845493
1241.284446	-12.842139
1241.798610	-12.806190
1242.313201	-12.788006
1242.828218	-12.782921
1243.343662	-12.745087
1243.859534	-12.729709
1244.375834	-12.724790
1244.892563	-12.683809
1245.409721	-12.673841
1245.927309	-12.667488
1246.445327	-12.625391
1246.963777	-12.620176
1247.482657	-12.612850
1248.001970	-12.569369
1248.521716	-12.572106
1249.041894	-12.559266
1249.562506	-12.519260
1250.083553	-12.528207
1250.605034	-12.506693
1251.126950	-12.477694
1251.649302	-12.486995
1252.172091	-12.458674
1252.695316	-12.443485
1253.218979	-12.446746
1253.743079	-12.416533
1254.267619	-12.415475
1254.792597	-12.405482
1255.318015	-12.383861
1255.843874	-12.387747
1256.370173	-12.366624
1256.896913	-12.357237
1257.424095	-12.359066
1257.951720	-12.331130
1258.479787	-12.336229
1259.008298	-12.326706
1259.537254	-12.303075
1260.066654	-12.315457
1260.596499	-12.294592
1261.126790	-12.281832
1261.657527	-12.293270
1262.188711	-12.266196
1262.720342	-12.266100
1263.252422	-12.270102
1263.784950	-12.244865
1264.317928	-12.253615
1264.851355	-12.248032
1265.385232	-12.231888
1265.919560	-12.241834
1266.454340	-12.231243
1266.989572	-12.223609
1267.525256	-12.232084
1268.061394	-12.218470
1268.597985	-12.220620
1269.135031	-12.220585
1269.672531	-12.212179
1270.210487	-12.216828
1270.748899	-12.211322
1271.287768	-12.208482
1271.827094	-12.210758
1272.366877	-12.203413
1272.907119	-12.203746
1273.447820	-12.203000
1273.988981	-12.194109
1274.530601	-12.198038
1275.072683	-12.191634
1275.615226	-12.184749
1276.158230	-12.188446
1276.701697	-12.179068
1277.245627	-12.173385
1277.790021	-12.177446
1278.334879	-12.163689
1278.880202	-12.163083
1279.425991	-12.162158
1279.972245	-12.150622
1280.518966	-12.148502
1281.066155	-12.148437
1281.613811	-12.135060
1282.161936	-12.135729
1282.710529	-12.133296
1283.259593	-12.120364
1283.809126	-12.121453
1284.359131	-12.118767
1284.909607	-12.104560
1285.460555	-12.107260
1286.011976	-12.101844
1286.563870	-12.088714
1287.116237	-12.089994
1287.669080	-12.085531
1288.222397	-12.068938
1288.776191	-12.072465
1289.330460	-12.066037
1289.885207	-12.046792
1290.440431	-12.053604
1290.996133	-12.042403
1291.552314	-12.023266
1292.108975	-12.032349
1292.666115	-12.016321
1293.223737	-11.997316
1293.781839	-12.010095
1294.340424	-11.986295
1294.899491	-11.971522
1295.459041	-11.985325
1296.019075	-11.953683
1296.579593	-11.946692
1297.140597	-11.957287
1297.702086	-11.920200
1298.264061	-11.923202
1298.826524	-11.925391
1299.389474	-11.889295
1299.952912	-11.898522
1300.516839	-11.891227
1301.081255	-11.860250
1301.646162	-11.872555
1302.211559	-11.855066
1302.777448	-11.834740
1303.343829	-11.842974
1303.910702	-11.821556
1304.478069	-11.810631
1305.045930	-11.810137
1305.614285	-11.792217
1306.183136	-11.785527
1306.752483	-11.777039
1307.322326	-11.767373
1307.892666	-11.758722
1308.463504	-11.746256
1309.034841	-11.746649
1309.606677	-11.729248
1310.179012	-11.722030
1310.751849	-11.726408
1311.325186	-11.701285
1311.899025	-11.704428
1312.473366	-11.704326
1313.048211	-11.678487
1313.623559	-11.691588
1314.199412	-11.681166
1314.775770	-11.663768
1315.352634	-11.678320
1315.930004	-11.661157
1316.507881	-11.656960
1317.086266	-11.662429
1317.665159	-11.649719
1318.244562	-11.651506
1318.824474	-11.647275
1319.404897	-11.646673
1319.985831	-11.645081
1320.567276	-11.638307
1321.149234	-11.649645
1321.731706	-11.637288
1322.314691	-11.639276
1322.898190	-11.652168
1323.482205	-11.634202
1324.066736	-11.648146
1324.651783	-11.653090
1325.237347	-11.640966
1325.823430	-11.658064
1326.410031	-11.655942
1326.997151	-11.656393
1327.584791	-11.665729
1328.172952	-11.667206
1328.761634	-11.675401
1329.350839	-11.672950
1329.940566	-11.687504
1330.530817	-11.691394
1331.121592	-11.686865
1331.712891	-11.711145
1332.304716	-11.706265
1332.897068	-11.710545
1333.489946	-11.732599
1334.083352	-11.727311
1334.677287	-11.740424
1335.271750	-11.752590
1335.866744	-11.759569
1336.462268	-11.769510
1337.058323	-11.777356
1337.654910	-11.798562
1338.252029	-11.796701
1338.849682	-11.812498
1339.447869	-11.835114
1340.046591	-11.829583
1340.645848	-11.852367
1341.245641	-11.868012
1341.845972	-11.870197
1342.446840	-11.889185
1343.048246	-11.900480
1343.650191	-11.915142
1344.252677	-11.918186
1344.855702	-11.938726
1345.459269	-11.953227
1346.063379	-11.947913
1346.668030	-11.976473
1347.273226	-11.983050
1347.878965	-11.984750
1348.485250	-12.005275
1349.092080	-12.013893
1349.699456	-12.022670
1350.307380	-12.027579
1350.915851	-12.050108
1351.524871	-12.054278
1352.134441	-12.054101
1352.744560	-12.083613
1353.355231	-12.081538
1353.966453	-12.088159
1354.578227	-12.106643
1355.190555	-12.115196
1355.803436	-12.120834
1356.416872	-12.127177
1357.030863	-12.152502
1357.645411	-12.147807
1358.260515	-12.155175
1358.876177	-12.181569
1359.492397	-12.177053
1360.109176	-12.187014
1360.726516	-12.200742
1361.344416	-12.214306
1361.962877	-12.212323
1362.581901	-12.222409
1363.201487	-12.246591
1363.821637	-12.235021
1364.442352	-12.249134
1365.063632	-12.263942
1365.685478	-12.266116
1366.307891	-12.267724
1366.930871	-12.277943
1367.554420	-12.294711
1368.178538	-12.279724
1368.803226	-12.295706
1369.428485	-12.306821
1370.054315	-12.299472
1370.680717	-12.304774
1371.307693	-12.311744
1371.935242	-12.320645
1372.563366	-12.305471
1373.192065	-12.320797
1373.821341	-12.327054
1374.451193	-12.315627
1375.081623	-12.322454
1375.712632	-12.327381
1376.344221	-12.331148
1376.976389	-12.316635
1377.609139	-12.333423
1378.242470	-12.335297
1378.876384	-12.325034
1379.510881	-12.333685
1380.145963	-12.338613
1380.781629	-12.342516
1381.417881	-12.329406
1382.054720	-12.350265
1382.692147	-12.349883
1383.330161	-12.342842
1383.968765	-12.353085
1384.607959	-12.359938
1385.247743	-12.363904
1385.888119	-12.353099
1386.529087	-12.377386
1387.170648	-12.374734
1387.812804	-12.374177
1388.455554	-12.381845
1389.098899	-12.393713
1389.742842	-12.397563
1390.387381	-12.388488
1391.032519	-12.413611
1391.678256	-12.410224
1392.324592	-12.413871
1392.971529	-12.413772
1393.619068	-12.432525
1394.267208	-12.430742
1394.915952	-12.425067
1395.565300	-12.445665
1396.215253	-12.444639
1396.865812	-12.450400
1397.516977	-12.443183
1398.168749	-12.468202
1398.821130	-12.459650
1399.474120	-12.460996
1400.127719	-12.468678
1400.781930	-12.476264
1401.436752	-12.476582
1402.092186	-12.467574
1402.748234	-12.489657
1403.404897	-12.480094
1404.062174	-12.485714
1404.720067	-12.478554
1405.378577	-12.499417
1406.037705	-12.489742
1406.697451	-12.491017
1407.357817	-12.500657
1408.018803	-12.506666
1408.680410	-12.507949
1409.342639	-12.501750
1410.005492	-12.526104
1410.668968	-12.516322
1411.333068	-12.527055
1411.997795	-12.521830
1412.663147	-12.546552
1413.329127	-12.537057
1413.995736	-12.545740
1414.662973	-12.551621
1415.330840	-12.564113
1415.999339	-12.564250
1416.668469	-12.562928
1417.338232	-12.584941
1418.008628	-12.582503
1418.679659	-12.595877
1419.351325	-12.591525
1420.023628	-12.623101
1420.696568	-12.615259
1421.370145	-12.632998
1422.044362	-12.632066
1422.719219	-12.658562
1423.394717	-12.653397
1424.070856	-12.664412
1424.747638	-12.675184
1425.425064	-12.690037
1426.103134	-12.696475
1426.781850	-12.699810
1427.461212	-12.723653
1428.141221	-12.724740
1428.821878	-12.738705
1429.503185	-12.731248
1430.185141	-12.758879
1430.867749	-12.747863
1431.551008	-12.764399
1432.234920	-12.755800
1432.919486	-12.785996
1433.604707	-12.776886
1434.290583	-12.795688
1434.977116	-12.793631
1435.664307	-12.818717
1436.352156	-12.810781
1437.040664	-12.818954
1437.729833	-12.818265
1438.419663	-12.828836
1439.110156	-12.824470
1439.801312	-12.824547
1440.493132	-12.836244
1441.185617	-12.843877
1441.878768	-12.855270
1442.572586	-12.854481
1443.267072	-12.878514
1443.962228	-12.876257
1444.658053	-12.889031
1445.354549	-12.871837
1446.051717	-12.889908
1446.749558	-12.869891
1447.448073	-12.880401
1448.147263	-12.857021
1448.847128	-12.884045
1449.547671	-12.870780
1450.248891	-12.898303
1450.950789	-12.887760
1451.653368	-12.927835
1452.356627	-12.917303
1453.060568	-12.942946
1453.765192	-12.919652
1454.470500	-12.941378
1455.176492	-12.909698
1455.883170	-12.915835
1456.590534	-12.880330
1457.298586	-12.898284
1458.007327	-12.875868
1458.716758	-12.901233
1459.426880	-12.893650
1460.137693	-12.940560
1460.849199	-12.945192
1461.561398	-12.988569
1462.274293	-12.986156
1462.987883	-13.022637
1463.702170	-13.003019
1464.417155	-13.011867
1465.132838	-12.970709
1465.849222	-12.971145
1466.566306	-12.926482
1467.284093	-12.926265
1468.002582	-12.894107
1468.721775	-12.922371
1469.441674	-12.920343
1470.162278	-12.973766
1470.883590	-12.995430
1471.605609	-13.073736
1472.328338	-13.105849
1473.051777	-13.175822
1473.775928	-13.187642
1474.500790	-13.233803
1475.226367	-13.212566
1475.952657	-13.218414
1476.679663	-13.162649
1477.407386	-13.150852
1478.135826	-13.092857
1478.864985	-13.087342
1479.594863	-13.052222
1480.325463	-13.085866
1481.056784	-13.100874
1481.788828	-13.178169
1482.521597	-13.233588
1483.255090	-13.341248
1483.989309	-13.414320
1484.724256	-13.505663
1485.459931	-13.537299
1486.196336	-13.558625
1486.933471	-13.507675
1487.671337	-13.423575
1488.409937	-13.272464
1489.149270	-13.096499
1489.889337	-12.890598
1490.630141	-12.678338
1491.371682	-12.474626
1492.113961	-12.285035
1492.856979	-12.143434
1493.600738	-12.024240
1494.345238	-11.972951
1495.090481	-11.942915
1495.836467	-11.994461
1496.583198	-12.056620
1497.330675	-12.193397
1498.078899	-12.321078
1498.827872	-12.507574
1499.577593	-12.659081
1500.328065	-12.834917
1501.079289	-12.947967
1501.831265	-13.055630
1502.583995	-13.092432
1503.337480	-13.107412
1504.091721	-13.071045
1504.846719	-13.024359
1505.602475	-12.975441
1506.358991	-12.937453
1507.116268	-12.947351
1507.874306	-12.989647
1508.633108	-13.128200
1509.392673	-13.315315
1510.153004	-13.631453
1510.914101	-14.008852
1511.675965	-14.539594
1512.438599	-15.136704
1513.202002	-15.869873
1513.966176	-16.612773
1514.731122	-17.348496
1515.496842	-17.839828
1516.263336	-17.949553
1517.030607	-17.511192
1517.798654	-16.655696
1518.567479	-15.546080
1519.337083	-14.376631
1520.107468	-13.249951
1520.878634	-12.199524
1521.650584	-11.272204
1522.423317	-10.430962
1523.196836	-9.715486
1523.971141	-9.069703
1524.746233	-8.531198
1525.522115	-8.053908
1526.298786	-7.659964
1527.076249	-7.324992
1527.854504	-7.048703
1528.633553	-6.834698
1529.413397	-6.660404
1530.194037	-6.548388
1530.975474	-6.464940
1531.757709	-6.437482
1532.540745	-6.438952
1533.324581	-6.481664
1534.109220	-6.559811
1534.894662	-6.662588
1535.680909	-6.808711
1536.467961	-6.968736
1537.255821	-7.171742
1538.044489	-7.391790
1538.833967	-7.646670
1539.624256	-7.934121
1540.415357	-8.244876
1541.207271	-8.607781
1542.000000	-8.995227
1542.793545	-9.447173
1543.587907	-9.944019
1544.383087	-10.509036
1545.179088	-11.159801
1545.975909	-11.885117
1546.773552	-12.743251
1547.572019	-13.708288
1548.371311	-14.856811
1549.171428	-16.202541
1549.972373	-17.804532
1550.774147	-19.802325
1551.576751	-22.261574
1552.380185	-25.516975
1553.184453	-29.298383
1553.989554	-30.285834
1554.795490	-27.132451
1555.602263	-23.901621
1556.409873	-21.433657
1557.218322	-19.596542
1558.027612	-18.116793
1558.837743	-16.968251
1559.648717	-16.022245
1560.460536	-15.256710
1561.273200	-14.648719
1562.086710	-14.142353
1562.901069	-13.765752
1563.716278	-13.460834
1564.532337	-13.254170
1565.349249	-13.118268
1566.167014	-13.044659
1566.985634	-13.047277
1567.805111	-13.087583
1568.625444	-13.199303
1569.446637	-13.340613
1570.268690	-13.529510
1571.091605	-13.752255
1571.915382	-13.989714
1572.740024	-14.261166
1573.565532	-14.516569
1574.391907	-14.786679
1575.219150	-15.023610
1576.047262	-15.237614
1576.876246	-15.414499
1577.706103	-15.526850
1578.536833	-15.604502
1579.368439	-15.601275
1580.200922	-15.566193
1581.034282	-15.467808
1581.868522	-15.335993
1582.703643	-15.180488
1583.539646	-14.992733
1584.376532	-14.817193
1585.214304	-14.620044
1586.052962	-14.446039
1586.892508	-14.274875
1587.732943	-14.117956
1588.574269	-13.990003
1589.416487	-13.863409
1590.259599	-13.774022
1591.103605	-13.687647
1591.948508	-13.624851
1592.794309	-13.579675
1593.641009	-13.533401
1594.488609	-13.512806
1595.337112	-13.480978
1596.186518	-13.463568
1597.036829	-13.446043
1597.888047	-13.418853
1598.740172	-13.405323
1599.593207	-13.371845
1600.447153	-13.349002
1601.302010	-13.320239
1602.157782	-13.283254
1603.014469	-13.260630
1603.872072	-13.222197
1604.730593	-13.200480
1605.590034	-13.178379
1606.450397	-13.156504
1607.311681	-13.155708
1608.173890	-13.147131
1609.037024	-13.162592
1609.901085	-13.184034
1610.766075	-13.212530
1611.631995	-13.267185
1612.498846	-13.317846
1613.366630	-13.394901
1614.235349	-13.479019
1615.105004	-13.568439
1615.975596	-13.682392
1616.847128	-13.788269
1617.719600	-13.914796
1618.593014	-14.042945
1619.467372	-14.166491
1620.342675	-14.307435
1621.218924	-14.429776
1622.096122	-14.560635
1622.974270	-14.686666
1623.853369	-14.795389
1624.733420	-14.916659
1625.614427	-15.014878
1626.496389	-15.114726
1627.379308	-15.214544
1628.263187	-15.293536
1629.148026	-15.389272
1630.033828	-15.470629
1630.920593	-15.553099
1631.808324	-15.649622
1632.697022	-15.729238
1633.586688	-15.830136
1634.477324	-15.928469
1635.368932	-16.021995
1636.261514	-16.135883
1637.155070	-16.230212
1638.049602	-16.335126
1638.945113	-16.441044
1639.841603	-16.525959
1640.739075	-16.624427
1641.637529	-16.699374
1642.536968	-16.764438
1643.437393	-16.832397
1644.338806	-16.867841
1645.241209	-16.907612
1646.144602	-16.934396
1647.048988	-16.940587
1647.954368	-16.959512
1648.860744	-16.956488
1649.768118	-16.953261
1650.676491	-16.956750
1651.585865	-16.939377
1652.496241	-16.935657
1653.407621	-16.925753
1654.320008	-16.904164
1655.233401	-16.896100
1656.147804	-16.869626
1657.063218	-16.841648
1657.979645	-16.816608
1658.897085	-16.768689
1659.815542	-16.726604
1660.735016	-16.676119
1661.655509	-16.611213
1662.577023	-16.556797
1663.499560	-16.488744
1664.423121	-16.418928
1665.347709	-16.358136
1666.273324	-16.283597
1667.199969	-16.216755
1668.127645	-16.151728
1669.056353	-16.075533
1669.986097	-16.010393
1670.916877	-15.939728
1671.848695	-15.862972
1672.781553	-15.795702
1673.715452	-15.717471
1674.650395	-15.639298
1675.586383	-15.567770
1676.523418	-15.485579
1677.461501	-15.409410
1678.400635	-15.336197
1679.340821	-15.255174
1680.282061	-15.183873
1681.224357	-15.111782
1682.167710	-15.034699
1683.112122	-14.966665
1684.057595	-14.894181
1685.004132	-14.820277
1685.951732	-14.754611
1686.900400	-14.683248
1687.850135	-14.613749
1688.800940	-14.550762
1689.752818	-14.482572
1690.705768	-14.419124
1691.659795	-14.360040
1692.614898	-14.296160
1693.571081	-14.238066
1694.528345	-14.182299
1695.486691	-14.123065
1696.446122	-14.070253
1697.406640	-14.017937
1698.368245	-13.963634
1699.330941	-13.915825
1700.294729	-13.867416
1701.259611	-13.817942
1702.225588	-13.773985
1703.192664	-13.728209
1704.160838	-13.682741
1705.130114	-13.642690
1706.100493	-13.600842
1707.071977	-13.560079
1708.044568	-13.523713
1709.018268	-13.484876
1709.993079	-13.447545
1710.969003	-13.413640
1711.946041	-13.376907
1712.924196	-13.342000
1713.903469	-13.309994
1714.883862	-13.275690
1715.865378	-13.243791
1716.848017	-13.214649
1717.831783	-13.183373
1718.816677	-13.154716
1719.802701	-13.128569
1720.789857	-13.100424
1721.778147	-13.074571
1722.767573	-13.050462
1723.758136	-13.024302
1724.749840	-13.000477
1725.742685	-12.978668
1726.736673	-12.955239
1727.731808	-12.934302
1728.728090	-12.915094
1729.725521	-12.893909
1730.724105	-12.874442
1731.723842	-12.856026
1732.724735	-12.835508
1733.726785	-12.816845
1734.729995	-12.799874
1735.734366	-12.781532
1736.739902	-12.765302
1737.746603	-12.751011
1738.754472	-12.735342
1739.763510	-12.721300
1740.773721	-12.709160
1741.785105	-12.695704
1742.797665	-12.683678
1743.811403	-12.673637
1744.826321	-12.662270
1745.842422	-12.651715
1746.859706	-12.643258
1747.878177	-12.633891
1748.897835	-12.625502
1749.918685	-12.619568
1750.940726	-12.612942
1751.963963	-12.606374
1752.988395	-12.601837
1754.014027	-12.596698
1755.040860	-12.591508
1756.068895	-12.588432
1757.098135	-12.585137
1758.128583	-12.581315
1759.160240	-12.579497
1760.193109	-12.578061
1761.227191	-12.576202
1762.262488	-12.576121
1763.299004	-12.576559
1764.336740	-12.575891
1765.375697	-12.576194
1766.415880	-12.576986
1767.457288	-12.576697
1768.499926	-12.577360
1769.543794	-12.579345
1770.588895	-12.580764
1771.635231	-12.582647
1772.682805	-12.585514
1773.731619	-12.587237
1774.781674	-12.588458
1775.832973	-12.590528
1776.885519	-12.591937
1777.939312	-12.592983
1778.994357	-12.595478
1780.050654	-12.598092
1781.108207	-12.600174
1782.167017	-12.603534
1783.227087	-12.607295
1784.288418	-12.610172
1785.351013	-12.613950
1786.414875	-12.618718
1787.480006	-12.622656
1788.546407	-12.627196
1789.614082	-12.633430
1790.683032	-12.639582
1791.753259	-12.646088
1792.824767	-12.654415
1793.897557	-12.662662
1794.971632	-12.669822
1796.046994	-12.677788
1797.123645	-12.686162
1798.201588	-12.693634
1799.280824	-12.701910
1800.361357	-12.711776
1801.443188	-12.721184
1802.526320	-12.730581
1803.610756	-12.740997
1804.696497	-12.750925
1805.783546	-12.759821
1806.871906	-12.769869
1807.961578	-12.780760
1809.052565	-12.791345
1810.144870	-12.802734
1811.238494	-12.815225
1812.333441	-12.827100
1813.429713	-12.838836
1814.527311	-12.851764
1815.626239	-12.864828
1816.726499	-12.877451
1817.828094	-12.890908
1818.931025	-12.905139
1820.035295	-12.919066
1821.140906	-12.933239
1822.247862	-12.948155
1823.356165	-12.962738
1824.465816	-12.977088
1825.576819	-12.992104
1826.689175	-13.007258
1827.802888	-13.022094
1828.917960	-13.037670
1830.034394	-13.053980
1831.152191	-13.070048
1832.271354	-13.086325
1833.391887	-13.103355
1834.513790	-13.120458
1835.637068	-13.137616
1836.761722	-13.155576
1837.887755	-13.173912
1839.015169	-13.191951
1840.143968	-13.210466
1841.274153	-13.229941
1842.405727	-13.249168
1843.538693	-13.267722
1844.673053	-13.286789
1845.808810	-13.306195
1846.945966	-13.325176
1848.084525	-13.344731
1849.224488	-13.365416
1850.365858	-13.385813
1851.508638	-13.405272
1852.652831	-13.425287
1853.798438	-13.446134
1854.945463	-13.467276
1856.093909	-13.489205
1857.243777	-13.512347
1858.395071	-13.535497
1859.547794	-13.557996
1860.701947	-13.581262
1861.857533	-13.605797
1863.014556	-13.630657
1864.173018	-13.655698
1865.332922	-13.681724
1866.494270	-13.707992
1867.657065	-13.733700
1868.821309	-13.759675
1869.987006	-13.786548
1871.154158	-13.813660
1872.322768	-13.840646
1873.492839	-13.867908
1874.664373	-13.895520
1875.837373	-13.923188
1877.011841	-13.950869
1878.187782	-13.978770
1879.365197	-14.006869
1880.544089	-14.034677
1881.724460	-14.062329
1882.906315	-14.090587
1884.089655	-14.119093
1885.274483	-14.146859
1886.460803	-14.174387
1887.648616	-14.202228
1888.837927	-14.229445
1890.028736	-14.255975
1891.221049	-14.282799
1892.414866	-14.309057
1893.610192	-14.333952
1894.807028	-14.358856
1896.005379	-14.384181
1897.205246	-14.408566
1898.406633	-14.432503
1899.609542	-14.456827
1900.813977	-14.480269
1902.019940	-14.502672
1903.227434	-14.525800
1904.436462	-14.549265
1905.647028	-14.571440
1906.859133	-14.593146
1908.072781	-14.615590
1909.287976	-14.638182
1910.504719	-14.660567
1911.723013	-14.683420
1912.942863	-14.705967
1914.164270	-14.727286
1915.387238	-14.748651
1916.611770	-14.771271
1917.837868	-14.794264
1919.065536	-14.816518
1920.294777	-14.837852
1921.525594	-14.858191
1922.757989	-14.877800
1923.991967	-14.896976
1925.227529	-14.915785
1926.464679	-14.933756
1927.703420	-14.950281
1928.943755	-14.965363
1930.185688	-14.979613
1931.429221	-14.993257
1932.674356	-15.006079
1933.921099	-15.017768
1935.169451	-15.028367
1936.419415	-15.038142
1937.670996	-15.046672
1938.924195	-15.053571
1940.179017	-15.059176
1941.435463	-15.063895
1942.693538	-15.067574
1943.953245	-15.069512
1945.214586	-15.068965
1946.477566	-15.065769
1947.742186	-15.060703
1949.008451	-15.055321
1950.276363	-15.050199
1951.545926	-15.044441
1952.817143	-15.037009
1954.090017	-15.027919
1955.364551	-15.018270
1956.640749	-15.008505
1957.918615	-14.998355
1959.198150	-14.987511
1960.479359	-14.975820
1961.762244	-14.963147
1963.046810	-14.949621
1964.333059	-14.935639
1965.620995	-14.921519
1966.910621	-14.907307
1968.201940	-14.892612
1969.494956	-14.877074
1970.789672	-14.860201
1972.086091	-14.842042
1973.384217	-14.823685
1974.684053	-14.805938
1975.985602	-14.788476
1977.288869	-14.769960
1978.593855	-14.750331
1979.900566	-14.730514
1981.209003	-14.711278
1982.519171	-14.692096
1983.831073	-14.671198
1985.144712	-14.647701
1986.460093	-14.621845
1987.777217	-14.594693
1989.096089	-14.567135
1990.416713	-14.538641
1991.739092	-14.508413
1993.063228	-14.476700
1994.389127	-14.444466
1995.716791	-14.412447
1997.046223	-14.380370
1998.377428	-14.347845
1999.710409	-14.314635
2001.045169	-14.280834
2002.381713	-14.246423
2003.720043	-14.211439
2005.060163	-14.176416
2006.402077	-14.142166
2007.745788	-14.108855
2009.091301	-14.075513
2010.438618	-14.041442
2011.787743	-14.007486
2013.138680	-13.975177
2014.491433	-13.944282
2015.846005	-13.913780
2017.202399	-13.883085
2018.560621	-13.852323
2019.920673	-13.821831
2021.282558	-13.791363
2022.646281	-13.760596
2024.011846	-13.729355
2025.379256	-13.697167
2026.748515	-13.664179
2028.119626	-13.630551
2029.492594	-13.596224
2030.867422	-13.560971
2032.244114	-13.524969
2033.622673	-13.488207
2035.003104	-13.450240
2036.385411	-13.411314
2037.769597	-13.371805
2039.155665	-13.331921
2040.543621	-13.292212
2041.933467	-13.253223
2043.325208	-13.216500
2044.718847	-13.182940
2046.114389	-13.152626
2047.511837	-13.125454
2048.911195	-13.101831
2050.312467	-13.082778
2051.715657	-13.067864
2053.120769	-13.055482
2054.527807	-13.043974
2055.936775	-13.033428
2057.347677	-13.024149
2058.760516	-13.014835
2060.175297	-13.003395
2061.592025	-12.988980
2063.010701	-12.971426
2064.431332	-12.951156
2065.853921	-12.928664
2067.278472	-12.903984
2068.704988	-12.876873
2070.133475	-12.847699
2071.563936	-12.817604
2072.996375	-12.787692
2074.430796	-12.758061
2075.867204	-12.727742
2077.305603	-12.696313
2078.745996	-12.664828
2080.188389	-12.635025
2081.632784	-12.607421
2083.079187	-12.581517
2084.527601	-12.556684
2085.978030	-12.533629
2087.430480	-12.513318
2088.884954	-12.496532
2090.341455	-12.482112
2091.799990	-12.468202
2093.260561	-12.455398
2094.723173	-12.445009
2096.187831	-12.436878
2097.654538	-12.429375
2099.123300	-12.421383
2100.594119	-12.413433
2102.067001	-12.405962
2103.541950	-12.398300
2105.018971	-12.389326
2106.498067	-12.378830
2107.979243	-12.366910
2109.462503	-12.352897
2110.947853	-12.336939
2112.435295	-12.319684
2113.924836	-12.300948
2115.416478	-12.281330
2116.910227	-12.263110
2118.406087	-12.247727
2119.904063	-12.234289
2121.404158	-12.222538
2122.906378	-12.213534
2124.410727	-12.208856
2125.917210	-12.207905
2127.425831	-12.208716
2128.936594	-12.211092
2130.449505	-12.216243
2131.964567	-12.223647
2133.481786	-12.230853
2135.001166	-12.236577
2136.522711	-12.241568
2138.046427	-12.246566
2139.572317	-12.251370
2141.100388	-12.255478
2142.630642	-12.258700
2144.163085	-12.261212
2145.697722	-12.263804
2147.234558	-12.266848
2148.773596	-12.269477
2150.314842	-12.271121
2151.858301	-12.273040
2153.403977	-12.276286
2154.951875	-12.279492
2156.502000	-12.281288
2158.054357	-12.282584
2159.608950	-12.284610
2161.165785	-12.287238
2162.724866	-12.290064
2164.286198	-12.293349
2165.849786	-12.297873
2167.415635	-12.304370
2168.983749	-12.312347
2170.554134	-12.321604
2172.126795	-12.332785
2173.701737	-12.346352
2175.278964	-12.362306
2176.858481	-12.379464
2178.440294	-12.397595
2180.024408	-12.417460
2181.610827	-12.439443
2183.199557	-12.462049
2184.790602	-12.484224
2186.383968	-12.506931
2187.979660	-12.530996
2189.577683	-12.555750
2191.178041	-12.580248
2192.780741	-12.604833
2194.385787	-12.630196
2195.993185	-12.655779
2197.602939	-12.680568
2199.215054	-12.704923
2200.829537	-12.729810
2202.446392	-12.755634
2204.065624	-12.781309
2205.687239	-12.806164
2207.311242	-12.830611
2208.937638	-12.855695
2210.566433	-12.881093
2212.197631	-12.905113
2213.831239	-12.928409
2215.467261	-12.953395
2217.105703	-12.979798
2218.746570	-13.005817
2220.389867	-13.032943
2222.035601	-13.063543
2223.683776	-13.097057
2225.334398	-13.132599
2226.987472	-13.169780
2228.643004	-13.210013
2230.300999	-13.254553
2231.961463	-13.301810
2233.624402	-13.349609
2235.289820	-13.399051
2236.957723	-13.452000
2238.628118	-13.505570
2240.301009	-13.557083
2241.976402	-13.609155
2243.654303	-13.663945
2245.334717	-13.719390
2247.017650	-13.773187
2248.703108	-13.826825
2250.391096	-13.881506
2252.081620	-13.935660
2253.774686	-13.987921
2255.470300	-14.040263
2257.168467	-14.094807
2258.869193	-14.149665
2260.572484	-14.201045
2262.278345	-14.251888
2263.986783	-14.305608
2265.697804	-14.359405
2267.411412	-14.411392
2269.127615	-14.465257
2270.846417	-14.522304
2272.567826	-14.579375
2274.291846	-14.635632
2276.018484	-14.695075
2277.747745	-14.759611
2279.479637	-14.826835
2281.214164	-14.895392
2282.951333	-14.968664
2284.691149	-15.048529
2286.433619	-15.131058
2288.178750	-15.214317
2289.926546	-15.301982
2291.677014	-15.394542
2293.430161	-15.486476
2295.185992	-15.576007
2296.944513	-15.667446
2298.705732	-15.761193
2300.469653	-15.852626
2302.236283	-15.940913
2304.005629	-16.031717
2305.777696	-16.125193
2307.552492	-16.215815
2309.330022	-16.303438
2311.110292	-16.393409
2312.893310	-16.484476
2314.679080	-16.572323
2316.467611	-16.657542
2318.258907	-16.744230
2320.052976	-16.833346
2321.849824	-16.920170
2323.649457	-17.006236
2325.451883	-17.096067
2327.257106	-17.187263
2329.065135	-17.277706
2330.875975	-17.371271
2332.689633	-17.470970
2334.506116	-17.574792
2336.325430	-17.680401
2338.147581	-17.789795
2339.972578	-17.908457
2341.800425	-18.033104
2343.631130	-18.156762
2345.464700	-18.287689
2347.301141	-18.426602
2349.140461	-18.563608
2350.982665	-18.698169
2352.827760	-18.836018
2354.675754	-18.974787
2356.526653	-19.107679
2358.380464	-19.236142
2360.237195	-19.370663
2362.096851	-19.504587
2363.959440	-19.627963
2365.824968	-19.755104
2367.693444	-19.886665
2369.564873	-20.010985
2371.439263	-20.131713
2373.316620	-20.255185
2375.196953	-20.378370
2377.080267	-20.495878
2378.966570	-20.610686
2380.855869	-20.731485
2382.748171	-20.852907
2384.643484	-20.971784
2386.541815	-21.094360
2388.443170	-21.221261
2390.347557	-21.355661
2392.254984	-21.492464
2394.165457	-21.632645
2396.078984	-21.787934
2397.995572	-21.950654
2399.915229	-22.113725
2401.837961	-22.286507
2403.763777	-22.469230
2405.692684	-22.651236
2407.624689	-22.830146
2409.559800	-23.016799
2411.498023	-23.201268
2413.439368	-23.367787
2415.383840	-23.536771
2417.331449	-23.709625
2419.282201	-23.867145
2421.236104	-24.020261
2423.193165	-24.182874
2425.153393	-24.341581
2427.116795	-24.484342
2429.083378	-24.630219
2431.053151	-24.779479
2433.026121	-24.914768
2435.002297	-25.044447
2436.981685	-25.182810
2438.964293	-25.320085
2440.950131	-25.444027
2442.939204	-25.573749
2444.931522	-25.721099
2446.927092	-25.857835
2448.925923	-26.000800
2450.928022	-26.170604
2452.933397	-26.341591
2454.942056	-26.513125
2456.954008	-26.711368
2458.969260	-26.926326
2460.987821	-27.143227
2463.009699	-27.372014
2465.034902	-27.607436
2467.063437	-27.831038
2469.095315	-28.054364
2471.130542	-28.270081
2473.169127	-28.469864
2475.211078	-28.660762
2477.256404	-28.841884
2479.305112	-29.005708
2481.357212	-29.167675
2483.412713	-29.328126
2485.471621	-29.481439
2487.533946	-29.630787
2489.599696	-29.775319
2491.668880	-29.911448
2493.741507	-30.033418
2495.817585	-30.152721
2497.897122	-30.264720
2499.980127	-30.371893
2502.066609	-30.490531
2504.156578	-30.608555
2506.250040	-30.742802
2508.347006	-30.887980
2510.447483	-31.046908
2512.551482	-31.231016
2514.659010	-31.424016
2516.770076	-31.649692
2518.884690	-31.909558
2521.002861	-32.180009
2523.124597	-32.474493
2525.249907	-32.776034
2527.378801	-33.059415
2529.511287	-33.350226
2531.647375	-33.619268
2533.787074	-33.841916
2535.930393	-34.052461
2538.077340	-34.241339
2540.227927	-34.408539
2542.382160	-34.564705
2544.540051	-34.694544
2546.701608	-34.844972
2548.866840	-34.956234
2551.035757	-35.064887
2553.208369	-35.169147
2555.384684	-35.235918
2557.564713	-35.275481
2559.748465	-35.326961
2561.935948	-35.381741
2564.127174	-35.411956
2566.322152	-35.493823
2568.520890	-35.580194
2570.723399	-35.716242
2572.929689	-35.830160
2575.139769	-36.005998
2577.353649	-36.233588
2579.571340	-36.511706
2581.792849	-36.801459
2584.018189	-37.171479
2586.247368	-37.582324
2588.480396	-37.992997
2590.717284	-38.385156
2592.958041	-38.821899
2595.202678	-39.186107
2597.451204	-39.485068
2599.703630	-39.763894
2601.959966	-40.005948
2604.220222	-40.253652
2606.484408	-40.374202
2608.752535	-40.542487
2611.024612	-40.725274
2613.300651	-40.759610
2615.580661	-40.783116
2617.864653	-40.799352
2620.152638	-40.722984
2622.444625	-40.552187
2624.740626	-40.457589
2627.040651	-40.401494
2629.344710	-40.239236
2631.652814	-40.176379
2633.964974	-40.249015
2636.281200	-40.196771
2638.601504	-40.240951
2640.925896	-40.407041
2643.254386	-40.584986
2645.586987	-40.817247
2647.923707	-41.204720
2650.264559	-41.606139
2652.609554	-42.092554
2654.958702	-42.607446
2657.312015	-43.121423
2659.669503	-43.671750
2662.031178	-44.170833
2664.397051	-44.671483
2666.767132	-45.172408
2669.141434	-45.608451
2671.519968	-46.089500
2673.902745	-46.689995
2676.289776	-47.015781
2678.681072	-47.468858
2681.076646	-47.729867
2683.476508	-47.579599
2685.880671	-47.625099
2688.289145	-47.130452
2690.701942	-46.672745
2693.119075	-46.447131
2695.540554	-45.929733
2697.966391	-45.639279
2700.396599	-45.393121
2702.831189	-45.079032
2705.270172	-44.869692
2707.713561	-44.806365
2710.161368	-44.739283
2712.613605	-44.865605
2715.070283	-45.079917
2717.531416	-45.334116
2719.997014	-45.694021
2722.467090	-46.056863
2724.941657	-46.387245
2727.420726	-46.838998
2729.904310	-47.174080
2732.392421	-47.501511
2734.885072	-48.000190
2737.382275	-48.439240
2739.884042	-48.976862
2742.390387	-49.873480
2744.901321	-50.633914
2747.416857	-51.803207
2749.937008	-52.920223
2752.461787	-53.990301
2754.991206	-54.918431
2757.525279	-55.242607
2760.064017	-55.258482
2762.607434	-54.758448
2765.155544	-54.193168
2767.708358	-53.695351
2770.265890	-52.706056
2772.828153	-51.955378
2775.395160	-51.480682
2777.966924	-50.949486
2780.543459	-50.769197
2783.124778	-50.721737
2785.710894	-50.760883
2788.301821	-50.871455
2790.897572	-50.960815
2793.498160	-51.021640
2796.103599	-50.961509
2798.713903	-50.956332
2801.329085	-50.914383
2803.949159	-50.688069
2806.574139	-50.774486
2809.204038	-50.892950
2811.838871	-51.035371
2814.478650	-51.451702
2817.123391	-52.069191
2819.773107	-52.763190
2822.427812	-53.588533
2825.087521	-54.607760
2827.752247	-55.629419
2830.422005	-56.628848
2833.096808	-57.856287
2835.776672	-58.878363
2838.461611	-60.143591
2841.151638	-60.907691
2843.846769	-60.451446
2846.547019	-59.514245
2849.252401	-59.181529
2851.962930	-58.378141
2854.678621	-58.465196
2857.399489	-58.690528
2860.125549	-59.002085
2862.856815	-59.527373
2865.593302	-59.837398
2868.335026	-59.712254
2871.082002	-59.511326
2873.834244	-58.671787
2876.591767	-57.699868
2879.354588	-57.181116
2882.122721	-56.156708
2884.896181	-55.884050
2887.674984	-55.728690
2890.459146	-55.237427
2893.248681	-56.051656
2896.043606	-55.604478
2898.843937	-55.847017
2901.649687	-57.995526
2904.460875	-55.837008
2907.277515	-57.866167
2910.099623	-59.693260
2912.927215	-59.287918
2915.760308	-61.249949
2918.598916	-61.553344
2921.443057	-65.604597
2924.292747	-60.646913
2927.148002	-61.451157
2930.008837	-59.687362
2932.875270	-61.704734
2935.747318	-60.471288
2938.624995	-61.957035
2941.508320	-60.475692
2944.397308	-63.476851
2947.291977	-63.400017
2950.192343	-68.402862
2953.098423	-68.619892
2956.010234	-71.830467
2958.927792	-68.526724
2961.851116	-70.029538
2964.780221	-65.409886
2967.715126	-65.604423
2970.655847	-63.430065
2973.602402	-63.314614
2976.554808	-62.102582
2979.513083	-61.546997
2982.477243	-61.275268
2985.447308	-60.809092
2988.423293	-61.863463
2991.405218	-61.984453
2994.393099	-64.170724
2997.386955	-64.980348
