# 2022-03-21_23.17.59
# shape = sech2
# FWHM_ps = 0.1
# carrier_nm = 1542
# frep_MHz = 12126
# pow_mW = 8000
# GDD = 0.0
# propa_len = 0.12555555555555556
# untap_len = 0.01
# taper_len = 0.06555555555555556
# waist_len = 0.02
# uptap_len = 0.02
# untap_scale = 1.0
# waist_scale = 0.19473684210526318
# workingDir = NL_20110305_12 (Spirou)
# axis = slow
# window_ps = 10.0
# steps = 200
# points = 21700
# 
# wavelength [nm]	 power spectral density [dB]
600.043425	-88.674794
600.163550	-90.238512
600.283723	-85.304906
600.403943	-82.213827
600.524212	-80.675876
600.644529	-80.100061
600.764895	-80.440045
600.885308	-81.946153
601.005770	-84.707660
601.126280	-88.195478
601.246839	-88.759481
601.367446	-85.597145
601.488101	-83.146955
601.608804	-81.951622
601.729557	-81.828230
601.850357	-82.946943
601.971206	-86.015303
602.092104	-92.988939
602.213050	-94.317299
602.334045	-86.475370
602.455089	-82.730677
602.576181	-80.918057
602.697322	-80.462022
602.818511	-81.159794
602.939749	-83.057916
603.061036	-86.356498
603.182372	-88.668292
603.303757	-85.958860
603.425191	-82.999394
603.546673	-81.111586
603.668204	-80.094852
603.789785	-79.942398
603.911414	-80.726366
604.033092	-82.619765
604.154820	-86.104486
604.276596	-92.317791
604.398422	-93.311510
604.520297	-87.721305
604.642220	-85.103400
604.764193	-84.349286
604.886216	-85.102483
605.008287	-87.397928
605.130408	-89.534099
605.252578	-86.681517
605.374798	-83.014742
605.497066	-80.692338
605.619385	-79.483182
605.741752	-79.192937
605.864169	-79.812572
605.986636	-81.492070
606.109152	-84.547223
606.231718	-89.443320
606.354333	-90.421599
606.476998	-85.689630
606.599712	-82.455290
606.722476	-80.602441
606.845290	-79.777088
606.968154	-79.845828
607.091067	-80.858562
607.214030	-83.064919
607.337043	-86.400366
607.460106	-87.410307
607.583219	-84.056265
607.706381	-81.073411
607.829594	-79.403392
607.952856	-78.935373
608.076169	-79.560777
608.199531	-81.234642
608.322944	-84.237513
608.446407	-88.935771
608.569920	-90.233362
608.693483	-86.253601
608.817096	-83.879243
608.940759	-83.252424
609.064473	-84.086636
609.188237	-86.580347
609.312051	-90.299790
609.435916	-87.138936
609.559831	-82.096352
609.683796	-78.929532
609.807812	-76.965565
609.931878	-75.750698
610.055995	-75.121158
610.180162	-75.071021
610.304380	-75.580030
610.428648	-76.466484
610.552967	-77.320496
610.677337	-77.912138
610.801757	-78.363846
610.926228	-78.873447
611.050750	-79.710123
611.175323	-81.442095
611.299946	-84.666179
611.424620	-88.262742
611.549345	-85.701032
611.674121	-81.830060
611.798948	-79.420862
611.923826	-78.209551
612.048755	-78.026663
612.173734	-78.778333
612.298765	-79.917293
612.423847	-79.835323
612.548980	-78.000070
612.674165	-75.944751
612.799400	-74.411764
612.924687	-73.527872
613.050025	-73.359640
613.175414	-74.047587
613.300854	-75.769970
613.426346	-78.728248
613.551889	-83.434414
613.677484	-89.235808
613.803130	-86.827992
613.928827	-83.772765
614.054576	-83.492237
614.180377	-86.440446
614.306229	-97.407433
614.432132	-86.422131
614.558087	-79.464445
614.684094	-75.819753
614.810153	-73.781721
614.936263	-72.842922
615.062425	-72.788753
615.188639	-73.592117
615.314904	-75.304560
615.441222	-77.711773
615.567591	-79.593275
615.694012	-79.309013
615.820486	-78.106896
615.947011	-77.559587
616.073588	-78.297034
616.200217	-80.870132
616.326898	-87.123529
616.453632	-92.905261
616.580417	-82.758613
616.707255	-78.695862
616.834144	-77.094902
616.961086	-77.148529
617.088081	-78.852405
617.215127	-82.754653
617.342226	-87.099490
617.469378	-81.970594
617.596581	-77.559682
617.723837	-75.220461
617.851146	-74.300923
617.978507	-74.634524
618.105920	-76.386032
618.233386	-80.035117
618.360905	-84.871093
618.488476	-82.173481
618.616100	-78.137079
618.743777	-76.071564
618.871506	-75.586993
618.999288	-76.599398
619.127123	-79.556561
619.255011	-85.790301
619.382951	-85.829217
619.510945	-79.260738
619.638991	-75.999790
619.767090	-74.569781
619.895243	-74.453650
620.023448	-75.647425
620.151706	-78.471184
620.280017	-83.677569
620.408382	-86.338999
620.536799	-81.107103
620.665270	-78.065158
620.793794	-76.927980
620.922371	-77.091623
621.051002	-78.014259
621.179686	-78.769254
621.308423	-78.385128
621.437213	-77.142321
621.566057	-76.067664
621.694954	-75.789269
621.823905	-76.607476
621.952909	-78.810679
622.081967	-83.079385
622.211079	-86.538304
622.340244	-81.369676
622.469462	-77.580616
622.598735	-75.764587
622.728061	-75.365485
622.857441	-76.127968
622.986874	-77.770430
623.116361	-79.275928
623.245903	-78.838093
623.375498	-76.876809
623.505147	-75.218205
623.634850	-74.419488
623.764606	-74.539636
623.894417	-75.579321
624.024282	-77.679606
624.154201	-80.768073
624.284174	-82.601693
624.414202	-80.948486
624.544283	-79.129967
624.674419	-78.684847
624.804609	-79.912612
624.934853	-83.520368
625.065151	-88.340124
625.195504	-82.580139
625.325911	-77.537891
625.456373	-74.593782
625.586889	-72.918548
625.717460	-72.119444
625.848085	-71.963363
625.978764	-72.324468
626.109498	-73.080801
626.240287	-73.998953
626.371131	-74.860667
626.502029	-75.751675
626.632982	-76.908065
626.763989	-78.684893
626.895052	-81.837540
627.026169	-87.700794
627.157341	-89.169942
627.288568	-83.036775
627.419850	-79.703557
627.551187	-78.087384
627.682579	-77.662505
627.814026	-77.928777
627.945528	-77.947067
628.077085	-76.778366
628.208697	-74.820478
628.340364	-73.068186
628.472087	-71.945786
628.603865	-71.602603
628.735698	-72.116814
628.867586	-73.591806
628.999530	-76.085255
629.131529	-79.423092
629.263584	-81.779340
629.395694	-80.794828
629.527859	-79.536510
629.660080	-79.976097
629.792357	-82.838726
629.924689	-87.924907
630.057077	-82.840447
630.189520	-77.316762
630.322019	-74.109174
630.454574	-72.348648
630.587184	-71.657393
630.719851	-71.897310
630.852573	-73.074634
630.985351	-75.355016
631.118185	-78.887670
631.251075	-81.623507
631.384021	-79.355611
631.517023	-76.537818
631.650081	-74.907323
631.783195	-74.311534
631.916365	-74.679985
632.049592	-76.052353
632.182874	-78.640908
632.316213	-82.695964
632.449608	-83.961364
632.583059	-79.165689
632.716567	-75.575498
632.850131	-73.592530
632.983751	-72.881247
633.117428	-73.380980
633.251161	-75.292921
633.384951	-79.172214
633.518797	-83.281496
633.652700	-79.160091
633.786660	-75.421322
633.920676	-73.820457
634.054749	-73.946531
634.188879	-76.065226
634.323065	-82.115175
634.457308	-88.977163
634.591608	-77.156822
634.725965	-72.768716
634.860379	-70.799790
634.994850	-70.377996
635.129377	-71.392391
635.263962	-74.167103
635.398604	-79.878558
635.533303	-84.163739
635.668058	-77.270720
635.802872	-73.935383
635.937742	-72.888797
636.072669	-73.510607
636.207654	-75.799154
636.342696	-79.936763
636.477796	-82.635877
636.612953	-79.770845
636.748167	-77.846348
636.883439	-78.128132
637.018768	-80.921491
637.154155	-83.638588
637.289599	-78.376642
637.425101	-74.132894
637.560660	-71.909150
637.696277	-71.151706
637.831952	-71.681108
637.967685	-73.541034
638.103475	-76.515708
638.239324	-78.046147
638.375230	-76.130495
638.511194	-74.420762
638.647215	-74.190925
638.783295	-75.773162
638.919433	-80.258529
639.055629	-95.415542
639.191883	-83.057850
639.328195	-77.582925
639.464565	-75.772642
639.600994	-76.127701
639.737481	-78.571214
639.874025	-80.825786
640.010629	-76.927265
640.147290	-72.956877
640.284010	-70.645974
640.420789	-69.667012
640.557625	-69.837155
640.694521	-71.115062
640.831474	-73.464597
640.968487	-76.464614
641.105558	-78.681123
641.242687	-79.670514
641.379876	-81.565078
641.517123	-87.888621
641.654429	-87.428754
641.791793	-78.396762
641.929216	-74.219645
642.066699	-72.099770
642.204240	-71.296356
642.341840	-71.571404
642.479499	-72.685775
642.617217	-73.852768
642.754994	-73.658504
642.892830	-72.276038
643.030726	-71.153241
643.168680	-70.980020
643.306694	-71.986659
643.444767	-74.440114
643.582899	-79.046334
643.721091	-87.527410
643.859342	-88.600881
643.997652	-85.043289
644.136022	-83.845322
644.274451	-80.543504
644.412940	-76.237982
644.551488	-72.983081
644.690096	-70.975351
644.828763	-70.008368
644.967490	-69.919039
645.106277	-70.695260
645.245124	-72.341404
645.384030	-74.631272
645.522997	-76.784787
645.662023	-77.910564
645.801109	-78.946979
645.940255	-82.147440
646.079460	-93.789894
646.218726	-85.199639
646.358052	-78.342952
646.497438	-75.531131
646.636884	-74.737823
646.776391	-75.259807
646.915957	-75.920484
647.055584	-75.252382
647.195271	-73.624828
647.335019	-72.215975
647.474826	-71.547253
647.614695	-71.729510
647.754623	-72.777375
647.894612	-74.794898
648.034662	-78.031338
648.174772	-82.768822
648.314943	-88.456752
648.455174	-95.739116
648.595466	-92.119077
648.735819	-81.736594
648.876233	-76.388845
649.016707	-73.391337
649.157242	-71.958769
649.297838	-71.771567
649.438495	-72.693016
649.579213	-74.336098
649.719992	-75.304264
649.860832	-74.595076
650.001733	-73.490830
650.142695	-73.044444
650.283718	-73.685990
650.424803	-75.615412
650.565949	-79.087165
650.707156	-85.239879
650.848424	-104.973325
650.989754	-91.035606
651.131145	-86.606722
651.272597	-82.110494
651.414111	-77.289730
651.555687	-73.607547
651.697324	-71.195671
651.839022	-69.999547
651.980782	-69.946847
652.122604	-70.969536
652.264488	-73.023069
652.406433	-75.598968
652.548441	-76.935554
652.690510	-76.852359
652.832640	-77.388820
652.974833	-80.046983
653.117088	-86.990413
653.259405	-86.446956
653.401784	-80.198679
653.544224	-77.945046
653.686727	-77.917893
653.829293	-79.081402
653.971920	-78.372832
654.114609	-75.469166
654.257361	-73.116401
654.400175	-71.833651
654.543052	-71.655889
654.685991	-72.656202
654.828992	-74.844793
654.972056	-78.234770
655.115183	-82.649591
655.258372	-86.618729
655.401623	-90.865300
655.544937	-94.205679
655.688314	-82.787896
655.831754	-77.105606
655.975256	-74.071389
656.118822	-72.829315
656.262450	-73.098002
656.406141	-74.908175
656.549894	-78.481207
656.693711	-81.857113
656.837591	-79.662642
656.981534	-77.521792
657.125540	-77.330041
657.269610	-78.956752
657.413742	-82.448530
657.557938	-85.867643
657.702196	-85.317569
657.846519	-84.854877
657.990904	-85.128178
658.135353	-82.225666
658.279866	-77.857366
658.424441	-74.729777
658.569081	-72.928352
658.713784	-72.198795
658.858550	-72.445052
659.003381	-73.621753
659.148274	-75.699154
659.293232	-78.680966
659.438253	-82.530176
659.583339	-86.274702
659.728488	-87.121270
659.873701	-84.443964
660.018978	-80.777298
660.164318	-77.846266
660.309723	-76.208157
660.455192	-76.012987
660.600725	-77.313458
660.746323	-79.985365
660.891984	-81.035846
661.037710	-77.945668
661.183500	-75.377617
661.329354	-74.330971
661.475272	-74.555677
661.621255	-75.889065
661.767303	-78.255348
661.913415	-81.329986
662.059591	-83.926686
662.205833	-84.284197
662.352138	-82.407563
662.498509	-79.986765
662.644944	-78.115512
662.791443	-77.123453
662.938008	-77.099081
663.084638	-78.268120
663.231332	-81.168261
663.378091	-87.666964
663.524915	-100.770395
663.671804	-85.534770
663.818759	-81.056990
663.965778	-78.967753
664.112863	-78.124083
664.260012	-78.157671
664.407227	-79.050640
664.554507	-80.505047
664.701853	-80.834410
664.849264	-78.847899
664.996740	-76.403581
665.144282	-74.735370
665.291889	-74.194005
665.439561	-74.837371
665.587300	-76.725852
665.735103	-80.156681
665.882973	-85.918465
666.030908	-95.382697
666.178909	-90.238701
666.326976	-83.707396
666.475109	-79.558199
666.623307	-77.026475
666.771571	-75.930554
666.919902	-75.953220
667.068298	-76.464868
667.216761	-76.183643
667.365289	-74.775443
667.513884	-73.450825
667.662545	-72.903922
667.811272	-73.295037
667.960065	-74.559388
668.108925	-76.361629
668.257851	-77.752900
668.406843	-77.740619
668.555902	-76.716438
668.705027	-75.570763
668.854219	-74.512186
669.003478	-73.604192
669.152803	-72.933905
669.302195	-72.627115
669.451653	-72.859135
669.601179	-73.829277
669.750771	-75.768500
669.900430	-78.879463
670.050156	-82.649795
670.199949	-84.423558
670.349808	-85.635259
670.499735	-91.478389
670.649729	-86.774175
670.799790	-78.663638
670.949918	-74.464103
671.100114	-72.288418
671.250377	-71.414886
671.400707	-71.266477
671.551104	-71.228135
671.701569	-71.052295
671.852101	-71.072504
672.002700	-71.953887
672.153368	-74.407949
672.304102	-79.646072
672.454905	-94.767670
672.605775	-84.129824
672.756713	-79.745662
672.907718	-78.641307
673.058791	-77.129565
673.209933	-74.511006
673.361142	-72.377230
673.512419	-71.283041
673.663764	-71.032138
673.815177	-70.965152
673.966658	-70.533332
674.118207	-70.036036
674.269825	-70.079916
674.421510	-71.127561
674.573264	-73.663368
674.725086	-78.547882
674.876977	-87.396357
675.028936	-82.150571
675.180963	-76.516894
675.333059	-73.342252
675.485224	-71.349188
675.637457	-70.173562
675.789758	-69.806562
675.942129	-70.188531
676.094568	-71.019726
676.247075	-71.652665
676.399652	-71.510463
676.552298	-71.222374
676.705012	-71.724091
676.857795	-73.028254
677.010648	-74.514816
677.163569	-75.506098
677.316560	-75.994168
677.469619	-75.903399
677.622748	-74.156322
677.775946	-71.556143
677.929214	-69.504006
678.082551	-68.405695
678.235957	-68.200981
678.389432	-68.752153
678.542977	-69.840047
678.696592	-71.094390
678.850276	-72.164973
679.004030	-72.887605
679.157853	-73.445441
679.311746	-73.504118
679.465709	-72.506990
679.619742	-71.414884
679.773844	-71.077885
679.928017	-71.357333
680.082259	-71.241000
680.236571	-69.911604
680.390954	-68.320243
680.545406	-67.287555
680.699929	-67.076769
680.854522	-67.801760
681.009185	-69.312189
681.163918	-71.181968
681.318722	-72.653381
681.473596	-73.164576
681.628540	-72.604711
681.783555	-70.832398
681.938641	-68.705076
682.093797	-67.088799
682.249023	-66.375598
682.404321	-66.556125
682.559689	-67.289397
682.715128	-67.885012
682.870637	-67.832868
683.026218	-67.617302
683.181869	-67.944731
683.337591	-69.073866
683.493385	-70.632661
683.649249	-71.352159
683.805185	-70.959459
683.961191	-70.519463
684.117269	-69.947466
684.273418	-68.408594
684.429639	-66.452963
684.585930	-65.130409
684.742294	-64.799833
684.898728	-65.500118
685.055234	-66.975479
685.211812	-68.340095
685.368461	-68.658256
685.525182	-68.487518
685.681975	-68.754933
685.838839	-69.303323
685.995775	-69.267779
686.152783	-68.577881
686.309863	-68.160292
686.467014	-68.488915
686.624238	-68.675572
686.781534	-67.451907
686.938902	-65.696279
687.096342	-64.678998
687.253854	-64.744927
687.411438	-65.701126
687.569095	-66.961905
687.726824	-67.722764
687.884626	-67.987937
688.042499	-68.446607
688.200446	-68.904053
688.358465	-68.204858
688.516556	-66.676261
688.674720	-65.677086
688.832957	-65.639353
688.991266	-66.272076
689.149649	-66.550058
689.308104	-65.799535
689.466632	-64.897444
689.625233	-64.700783
689.783906	-65.348857
689.942653	-66.348947
690.101473	-67.009271
690.260367	-67.251956
690.419333	-67.471194
690.578372	-67.433201
690.737485	-66.497419
690.896672	-65.132419
691.055931	-64.254731
691.215264	-64.265200
691.374671	-65.075850
691.534151	-66.097180
691.693704	-66.419307
691.853332	-66.012677
692.013033	-65.668192
692.172807	-65.734773
692.332656	-66.031183
692.492578	-66.248435
692.652575	-66.463005
692.812645	-66.901973
692.972789	-67.239925
693.133007	-66.713115
693.293300	-65.479238
693.453666	-64.428771
693.614107	-63.962544
693.774622	-64.104158
693.935211	-64.647503
694.095875	-65.220781
694.256613	-65.530237
694.417426	-65.676633
694.578313	-65.835098
694.739274	-66.012708
694.900311	-66.080253
695.061421	-66.079845
695.222607	-66.162717
695.383868	-66.119014
695.545203	-65.545740
695.706613	-64.451812
695.868098	-63.399538
696.029658	-62.866846
696.191293	-62.980454
696.353003	-63.718964
696.514789	-64.789426
696.676649	-65.665489
696.838585	-66.007415
697.000596	-65.868642
697.162682	-65.433956
697.324844	-64.901584
697.487081	-64.650755
697.649394	-64.745213
697.811782	-64.985203
697.974246	-65.009110
698.136786	-64.599256
698.299401	-63.922168
698.462092	-63.400224
698.624859	-63.376838
698.787702	-63.908524
698.950621	-64.814353
699.113616	-65.589757
699.276686	-65.880444
699.439833	-65.648724
699.603056	-65.146797
699.766355	-64.612184
699.929731	-64.200919
700.093183	-64.016198
700.256711	-64.118650
700.420315	-64.539960
700.583996	-64.820246
700.747754	-64.384252
700.911588	-63.700166
701.075499	-63.617702
701.239486	-64.284055
701.403550	-65.129109
701.567691	-65.358240
701.731909	-64.994751
701.896203	-64.644219
702.060575	-64.230118
702.225024	-63.492792
702.389549	-62.768630
702.554152	-62.696954
702.718832	-63.570740
702.883589	-64.874585
703.048424	-65.016696
703.213335	-64.011998
703.378324	-63.488645
703.543391	-63.764708
703.708535	-64.047146
703.873757	-63.638254
704.039056	-63.224507
704.204433	-63.348128
704.369887	-63.544827
704.535420	-63.014330
704.701030	-62.194033
704.866718	-62.077619
705.032484	-63.106252
705.198328	-64.891157
705.364250	-65.658368
705.530250	-64.993535
705.696328	-64.527903
705.862485	-64.381074
706.028720	-63.687765
706.195033	-62.715315
706.361424	-62.336223
706.527894	-62.795477
706.694442	-63.476151
706.861069	-63.360602
707.027775	-62.746793
707.194559	-62.667270
707.361422	-63.497015
707.528363	-64.548973
707.695384	-64.612675
707.862483	-63.932230
708.029661	-63.466601
708.196918	-63.010243
708.364254	-62.186822
708.531670	-61.465645
708.699164	-61.427803
708.866738	-62.185486
709.034391	-63.149437
709.202123	-63.251633
709.369935	-62.490764
709.537826	-61.988187
709.705796	-62.166129
709.873847	-62.544580
710.041976	-62.565892
710.210186	-62.442743
710.378475	-62.587247
710.546844	-62.531259
710.715292	-61.771176
710.883821	-60.929401
711.052429	-60.774116
711.221118	-61.507606
711.389887	-62.494114
711.558735	-62.651208
711.727664	-62.164185
711.896673	-62.052486
712.065763	-62.385949
712.234932	-62.402373
712.404183	-62.008510
712.573513	-61.992076
712.742924	-62.450486
712.912416	-62.255443
713.081988	-61.107198
713.251641	-60.312850
713.421375	-60.495145
713.591190	-61.352793
713.761085	-61.905043
713.931061	-61.807841
714.101119	-61.808457
714.271257	-61.976797
714.441476	-61.495823
714.611777	-60.520589
714.782159	-60.044513
714.952622	-60.277537
715.123166	-60.465549
715.293792	-59.825714
715.464499	-59.044822
715.635288	-58.952490
715.806158	-59.532847
715.977110	-60.198845
716.148143	-60.685420
716.319259	-61.396734
716.490456	-62.101127
716.661735	-61.422266
716.833096	-59.797503
717.004538	-58.723663
717.176063	-58.575395
717.347670	-58.923542
717.519359	-59.163243
717.691130	-59.310693
717.862984	-59.841578
718.034920	-60.756509
718.206938	-61.169425
718.379039	-60.844568
718.551222	-60.648736
718.723488	-60.585428
718.895836	-59.742332
719.068267	-58.451877
719.240781	-57.768842
719.413377	-57.963482
719.586057	-58.652401
719.758819	-59.195053
719.931664	-59.486579
720.104593	-59.789854
720.277604	-59.691358
720.450699	-58.737442
720.623876	-57.776795
720.797137	-57.599349
720.970482	-58.057647
721.143910	-58.275681
721.317421	-57.942267
721.491016	-57.761873
721.664694	-58.008172
721.838456	-58.165441
722.012302	-57.988391
722.186231	-58.053256
722.360244	-58.623883
722.534342	-58.937179
722.708523	-58.298684
722.882788	-57.556019
723.057137	-57.495441
723.231570	-57.833656
723.406088	-57.796780
723.580689	-57.529560
723.755375	-57.679200
723.930146	-58.011579
724.105000	-57.801991
724.279940	-57.409469
724.454963	-57.630586
724.630072	-58.322809
724.805265	-58.361144
724.980543	-57.512930
725.155905	-56.860540
725.331353	-56.751178
725.506885	-56.682268
725.682503	-56.431526
725.858205	-56.503279
726.033993	-57.069554
726.209865	-57.295600
726.385823	-56.659866
726.561866	-56.174049
726.737995	-56.439042
726.914209	-56.945853
727.090508	-56.887582
727.266893	-56.534390
727.443364	-56.411301
727.619920	-56.213049
727.796562	-55.659822
727.973290	-55.320586
728.150103	-55.789447
728.327003	-56.769619
728.503988	-57.102564
728.681060	-56.733792
728.858218	-56.666552
729.035461	-56.766726
729.212791	-56.333064
729.390208	-55.757837
729.567710	-55.736268
729.745299	-55.999746
729.922975	-55.824608
730.100737	-55.529286
730.278586	-55.913929
730.456521	-56.843566
730.634543	-57.094525
730.812652	-56.422273
730.990848	-55.864506
731.169130	-55.493911
731.347500	-54.892405
731.525957	-54.468816
731.704500	-54.809955
731.883131	-55.684380
732.061850	-55.978036
732.240655	-55.494916
732.419548	-55.207331
732.598528	-55.256669
732.777596	-55.131540
732.956751	-54.961082
733.135994	-55.291726
733.315325	-55.849908
733.494744	-55.665701
733.674250	-55.014431
733.853844	-54.855458
734.033526	-55.141111
734.213296	-55.154087
734.393154	-54.884244
734.573101	-54.982514
734.753135	-55.409397
734.933258	-55.491703
735.113469	-55.391429
735.293769	-55.820908
735.474157	-56.356183
735.654633	-55.759384
735.835198	-54.670311
736.015852	-54.230021
736.196594	-54.346325
736.377426	-54.437951
736.558346	-54.578619
736.739355	-55.196128
736.920453	-55.737068
737.101640	-55.224800
737.282916	-54.490144
737.464282	-54.526106
737.645736	-54.974293
737.827280	-54.838149
738.008914	-54.408501
738.190637	-54.415428
738.372449	-54.500510
738.554351	-54.219525
738.736342	-54.236807
738.918424	-55.105583
739.100595	-55.960755
739.282855	-55.498205
739.465206	-54.744037
739.647647	-54.654837
739.830178	-54.661049
740.012799	-54.336334
740.195510	-54.378920
740.378311	-55.039549
740.561203	-55.342715
740.744185	-54.939383
740.927258	-54.992514
741.110421	-55.722627
741.293674	-55.806317
741.477018	-54.941528
741.660453	-54.396573
741.843979	-54.286795
742.027596	-54.058632
742.211303	-53.975966
742.395102	-54.675164
742.578991	-55.724583
742.762972	-55.642394
742.947044	-54.856594
743.131207	-54.607833
743.315461	-54.666689
743.499807	-54.526414
743.684244	-54.561364
743.868773	-55.005277
744.053394	-55.145213
744.238106	-54.682631
744.422910	-54.530013
744.607805	-55.106382
744.792793	-55.712043
744.977872	-55.618085
745.163044	-55.351264
745.348307	-55.233676
745.533663	-54.964918
745.719111	-54.783796
745.904651	-55.225257
746.090283	-56.001619
746.276008	-56.068015
746.461826	-55.533461
746.647735	-55.320687
746.833738	-55.408589
747.019833	-55.319607
747.206021	-55.254885
747.392302	-55.500677
747.578676	-55.579606
747.765143	-55.304084
747.951703	-55.466235
748.138356	-56.255317
748.325102	-56.458354
748.511941	-55.633502
748.698874	-54.920188
748.885900	-54.643098
749.073019	-54.599172
749.260232	-55.129706
749.447539	-56.699499
749.634939	-58.288138
749.822433	-57.598720
750.010021	-56.350299
750.197703	-55.787057
750.385479	-55.367357
750.573348	-55.171333
750.761312	-55.815804
750.949370	-56.836215
751.137523	-57.029432
751.325769	-57.158332
751.514110	-58.239632
751.702545	-58.686246
751.891075	-57.355531
752.079700	-56.340826
752.268419	-55.928031
752.457233	-55.450376
752.646142	-55.498470
752.835145	-56.921738
753.024244	-58.706416
753.213437	-58.248797
753.402726	-57.454430
753.592110	-57.512289
753.781589	-57.228585
753.971163	-56.791257
754.160833	-57.211872
754.350598	-57.619293
754.540459	-56.936439
754.730415	-56.802028
754.920467	-58.357477
755.110615	-60.343323
755.300858	-60.086223
755.491198	-59.292233
755.681633	-58.504871
755.872164	-57.347345
756.062792	-57.195788
756.253515	-58.847447
756.444335	-60.838400
756.635252	-60.152867
756.826264	-59.188747
757.017373	-58.973315
757.208579	-58.466539
757.399881	-58.096583
757.591280	-58.717510
757.782776	-59.362291
757.974368	-58.853181
758.166058	-58.846271
758.357844	-60.227286
758.549728	-60.698966
758.741708	-59.188163
758.933786	-58.422026
759.125961	-58.581487
759.318233	-58.856682
759.510603	-59.961830
759.703071	-63.073870
759.895635	-63.642853
760.088298	-60.105379
760.281058	-58.882778
760.473916	-59.445504
760.666872	-59.853004
760.859926	-60.330334
761.053078	-61.812252
761.246328	-61.029436
761.439676	-58.983488
761.633122	-59.121097
761.826667	-60.565825
762.020310	-59.695252
762.214052	-58.503082
762.407892	-58.796081
762.601831	-58.763588
762.795868	-58.322735
762.990004	-59.701045
763.184239	-61.566780
763.378573	-59.591959
763.573006	-58.588012
763.767538	-59.827670
763.962169	-60.069458
764.156900	-59.088928
764.351729	-59.411189
764.546658	-58.976889
764.741687	-57.529506
764.936815	-58.066120
765.132042	-60.426304
765.327370	-59.419914
765.522797	-57.432551
765.718324	-57.132458
765.913950	-56.737387
766.109677	-56.325572
766.305504	-57.474889
766.501431	-58.255681
766.697458	-56.164590
766.893586	-55.054615
767.089814	-55.662377
767.286142	-56.373262
767.482571	-56.752010
767.679100	-57.838448
767.875730	-57.474694
768.072461	-55.609454
768.269293	-55.172342
768.466225	-55.709541
768.663259	-55.246422
768.860393	-54.734336
769.057629	-55.338485
769.254966	-55.854761
769.452404	-55.647853
769.649944	-55.585242
769.847585	-54.592909
770.045328	-52.834983
770.243172	-52.173599
770.441118	-52.905212
770.639166	-53.938728
770.837315	-54.329830
771.035567	-54.356138
771.233920	-53.470689
771.432376	-52.306183
771.630934	-52.260220
771.829594	-53.013716
772.028356	-52.990317
772.227220	-52.499843
772.426188	-52.542949
772.625257	-52.533555
772.824430	-52.399156
773.023705	-52.746656
773.223083	-52.577418
773.422563	-51.512735
773.622147	-51.140635
773.821834	-51.529906
774.021624	-51.449324
774.221517	-51.116805
774.421513	-51.027010
774.621613	-50.569828
774.821816	-50.270334
775.022122	-50.791017
775.222532	-50.964738
775.423046	-50.154279
775.623664	-49.725356
775.824385	-49.772463
776.025211	-49.803286
776.226140	-50.272224
776.427173	-50.694642
776.628311	-49.861353
776.829553	-49.140177
777.030899	-49.318294
777.232350	-49.525854
777.433905	-49.559193
777.635564	-49.709703
777.837328	-49.184246
778.039197	-48.498015
778.241171	-48.672088
778.443250	-48.923378
778.645433	-48.473379
778.847722	-48.202986
779.050116	-48.141723
779.252615	-47.926894
779.455219	-48.157928
779.657929	-48.543675
779.860744	-47.973196
780.063665	-47.375334
780.266691	-47.468869
780.469823	-47.613538
780.673061	-47.686816
780.876405	-47.881924
781.079855	-47.552237
781.283410	-47.039244
781.487072	-47.231409
781.690840	-47.625882
781.894715	-47.383949
782.098695	-47.004049
782.302783	-46.733498
782.506976	-46.452414
782.711277	-46.541782
782.915684	-46.856645
783.120198	-46.535592
783.324818	-45.935865
783.529546	-45.854934
783.734381	-46.065181
783.939322	-46.206895
784.144372	-46.350495
784.349528	-46.142257
784.554792	-45.574375
784.760163	-45.452741
784.965642	-45.775694
785.171228	-45.775844
785.376922	-45.645187
785.582724	-45.765693
785.788634	-45.729382
785.994651	-45.679745
786.200777	-45.746569
786.407011	-45.202118
786.613353	-44.497137
786.819804	-44.491312
787.026363	-44.812637
787.233030	-45.013433
787.439806	-45.220132
787.646691	-44.926026
787.853684	-44.290861
788.060786	-44.200947
788.267997	-44.382733
788.475317	-44.288494
788.682746	-44.309563
788.890285	-44.450374
789.097932	-44.473261
789.305689	-44.716367
789.513555	-44.769181
789.721531	-44.160381
789.929617	-43.696878
790.137812	-43.671140
790.346117	-43.815103
790.554531	-44.104143
790.763056	-44.151389
790.971691	-43.675030
791.180436	-43.315368
791.389291	-43.261743
791.598256	-43.228733
791.807332	-43.233314
792.016518	-43.272557
792.225815	-43.297622
792.435222	-43.498702
792.644740	-43.671831
792.854369	-43.385555
793.064109	-42.967686
793.273960	-42.812290
793.483922	-42.966902
793.693995	-43.365442
793.904180	-43.550849
794.114475	-43.152444
794.324882	-42.650900
794.535401	-42.460888
794.746031	-42.474360
794.956774	-42.524219
795.167627	-42.502993
795.378593	-42.353485
795.589671	-42.333938
795.800861	-42.553183
796.012162	-42.592025
796.223577	-42.341996
796.435103	-42.174707
796.646742	-42.153178
796.858493	-42.302036
797.070357	-42.559711
797.282334	-42.459794
797.494423	-42.132006
797.706626	-42.087985
797.918941	-42.125739
798.131369	-42.010553
798.343911	-41.876211
798.556566	-41.616122
798.769334	-41.488135
798.982215	-41.771226
799.195210	-41.894322
799.408319	-41.623736
799.621541	-41.439219
799.834877	-41.375327
800.048327	-41.523796
800.261890	-41.899642
800.475568	-41.850913
800.689360	-41.481734
800.903266	-41.402142
801.117287	-41.438534
801.331422	-41.470477
801.545671	-41.503655
801.760036	-41.269528
801.974514	-41.106018
802.189108	-41.255187
802.403816	-41.228278
802.618640	-41.006605
802.833578	-40.868261
803.048632	-40.803506
803.263800	-40.961554
803.479085	-41.190977
803.694484	-41.074037
803.909999	-40.900654
804.125630	-40.982645
804.341376	-41.116007
804.557239	-41.137871
804.773217	-40.921689
804.989311	-40.590900
805.205521	-40.605192
805.421847	-40.939149
805.638290	-41.091881
805.854849	-40.875555
806.071524	-40.479806
806.288316	-40.230093
806.505225	-40.338590
806.722250	-40.567863
806.939393	-40.622656
807.156652	-40.595735
807.374028	-40.582435
807.591521	-40.531201
807.809132	-40.449031
808.026859	-40.319254
808.244705	-40.310625
808.462667	-40.585411
808.680748	-40.796146
808.898946	-40.607234
809.117261	-40.218639
809.335695	-39.953854
809.554246	-40.054645
809.772916	-40.378939
809.991704	-40.410237
810.210610	-40.156932
810.429634	-39.967850
810.648777	-39.976062
810.868039	-40.177046
811.087419	-40.283260
811.306918	-40.156666
811.526535	-40.124240
811.746272	-40.208796
811.966127	-40.242366
812.186102	-40.200070
812.406196	-40.070823
812.626409	-40.072793
812.846742	-40.208625
813.067194	-40.126311
813.287766	-39.860426
813.508457	-39.665454
813.729269	-39.688122
813.950200	-39.912584
814.171251	-40.008793
814.392422	-39.873401
814.613714	-39.810548
814.835126	-39.910449
815.056658	-40.048694
815.278311	-40.006791
815.500084	-39.803905
815.721978	-39.786829
815.943993	-40.010201
816.166128	-40.140226
816.388385	-39.943230
816.610762	-39.558157
816.833261	-39.374669
817.055881	-39.525595
817.278623	-39.740965
817.501486	-39.788899
817.724471	-39.724654
817.947577	-39.671193
818.170805	-39.692972
818.394155	-39.703709
818.617627	-39.693449
818.841221	-39.871372
819.064937	-40.132069
819.288775	-40.088483
819.512736	-39.705340
819.736819	-39.300851
819.961025	-39.284068
820.185354	-39.700147
820.409805	-39.972962
820.634379	-39.779371
820.859076	-39.423448
821.083897	-39.254466
821.308840	-39.467603
821.533907	-39.779267
821.759097	-39.865691
821.984411	-39.917237
822.209848	-39.903125
822.435409	-39.756673
822.661093	-39.583957
822.886902	-39.455346
823.112834	-39.610121
823.338891	-39.897951
823.565072	-39.765413
823.791377	-39.374711
824.017807	-39.159391
824.244361	-39.309803
824.471039	-39.762574
824.697843	-39.942155
824.924771	-39.725947
825.151824	-39.618720
825.379002	-39.665692
825.606306	-39.762887
825.833734	-39.780152
826.061288	-39.675174
826.288967	-39.735628
826.516772	-39.778157
826.744703	-39.530661
826.972759	-39.334221
827.200941	-39.387653
827.429249	-39.693217
827.657683	-39.926871
827.886243	-39.652898
828.114930	-39.372144
828.343743	-39.501011
828.572682	-39.876064
828.801748	-40.141208
829.030941	-39.959441
829.260260	-39.654042
829.489706	-39.598922
829.719280	-39.604750
829.948980	-39.574408
830.178808	-39.610209
830.408763	-39.725462
830.638845	-39.818070
830.869055	-39.633128
831.099393	-39.364664
831.329858	-39.481794
831.560451	-39.921383
831.791173	-40.191859
832.022022	-39.956357
832.252999	-39.576001
832.484105	-39.603070
832.715339	-39.911773
832.946702	-39.990653
833.178193	-39.741887
833.409813	-39.501989
833.641561	-39.557664
833.873439	-39.699810
834.105445	-39.694404
834.337581	-39.700564
834.569846	-39.822025
834.802241	-39.971951
835.034764	-39.896870
835.267418	-39.767835
835.500201	-39.924914
835.733114	-40.143661
835.966157	-40.062741
836.199329	-39.652713
836.432632	-39.436986
836.666065	-39.718423
836.899629	-40.001809
837.133323	-39.918294
837.367147	-39.649327
837.601102	-39.611136
837.835188	-39.952584
838.069405	-40.141182
838.303752	-40.105632
838.538231	-40.134796
838.772841	-40.147780
839.007582	-40.039019
839.242455	-39.672433
839.477459	-39.524698
839.712595	-39.887684
839.947863	-40.172740
840.183263	-40.038210
840.418794	-39.639955
840.654458	-39.506938
840.890254	-39.890847
841.126182	-40.207007
841.362242	-40.353004
841.598435	-40.381920
841.834761	-40.153179
842.071220	-39.794104
842.307811	-39.364587
842.544536	-39.486234
842.781393	-40.170724
843.018384	-40.433766
843.255508	-39.920581
843.492765	-39.208467
843.730156	-39.245834
843.967681	-40.064086
844.205339	-40.657434
844.443132	-40.521659
844.681058	-39.881017
844.919118	-39.494121
845.157313	-39.489915
845.395642	-39.620058
845.634105	-40.012063
845.872703	-40.144923
846.111436	-39.741076
846.350303	-39.234045
846.589306	-39.189498
846.828443	-39.947935
847.067716	-40.578146
847.307124	-40.193318
847.546667	-39.482731
847.786345	-39.318058
848.026160	-39.809599
848.266110	-40.011808
848.506195	-39.657735
848.746417	-39.325661
848.986775	-39.342921
849.227269	-39.587908
849.467899	-39.638483
849.708666	-39.692705
849.949569	-39.767359
850.190609	-39.654241
850.431785	-39.491030
850.673099	-39.509603
850.914549	-39.809145
851.156137	-39.699819
851.397861	-39.130390
851.639723	-38.855270
851.881723	-39.180425
852.123860	-39.739642
852.366135	-39.573525
852.608547	-39.097445
852.851098	-39.044427
853.093786	-39.373362
853.336613	-39.561951
853.579578	-39.265671
853.822681	-39.115506
854.065923	-39.099141
854.309304	-38.982819
854.552823	-38.816381
854.796481	-38.821320
855.040278	-39.078196
855.284215	-38.965761
855.528290	-38.711095
855.772505	-38.752932
856.016859	-39.090937
856.261353	-39.171523
856.505987	-38.684626
856.750760	-38.465547
856.995673	-38.615802
857.240727	-38.734928
857.485920	-38.478616
857.731254	-38.233880
857.976729	-38.421732
858.222343	-38.530038
858.468099	-38.388515
858.713995	-38.287125
858.960032	-38.532718
859.206211	-38.701569
859.452530	-38.259001
859.698991	-37.871468
859.945593	-37.894498
860.192336	-38.178220
860.439222	-38.127895
860.686248	-37.852342
860.933417	-37.825792
861.180728	-37.860747
861.428181	-37.867169
861.675776	-37.887116
861.923514	-38.123788
862.171394	-38.074539
862.419417	-37.494355
862.667582	-37.139962
862.915890	-37.365645
863.164342	-37.854384
863.412936	-37.650807
863.661674	-37.126976
863.910555	-37.071595
864.159579	-37.458110
864.408747	-37.703933
864.658059	-37.415113
864.907515	-37.161603
865.157114	-37.020710
865.406858	-36.939538
865.656746	-36.959999
865.906778	-37.075437
866.156955	-37.028019
866.407277	-36.594180
866.657743	-36.481381
866.908354	-36.940913
867.159110	-37.411954
867.410011	-36.956389
867.661057	-36.203154
867.912249	-36.158335
868.163586	-36.624602
868.415069	-36.855557
868.666697	-36.437514
868.918472	-36.086427
869.170392	-36.050807
869.422458	-36.191296
869.674671	-36.441781
869.927030	-36.593562
870.179536	-36.339293
870.432188	-35.730211
870.684987	-35.561813
870.937933	-36.017926
871.191026	-36.376223
871.444266	-35.896392
871.697653	-35.314814
871.951188	-35.441303
872.204870	-35.948103
872.458700	-36.053921
872.712677	-35.670898
872.966803	-35.433474
873.221076	-35.398352
873.475498	-35.383896
873.730068	-35.436660
873.984787	-35.484994
874.239654	-35.267673
874.494669	-34.915454
874.749834	-35.009687
875.005147	-35.467934
875.260610	-35.513193
875.516222	-34.937349
875.771983	-34.637568
876.027894	-34.899775
876.283954	-35.127702
876.540164	-34.868205
876.796524	-34.554849
877.053033	-34.558604
877.309693	-34.626164
877.566503	-34.659059
877.823464	-34.715089
878.080575	-34.693448
878.337837	-34.378388
878.595249	-34.152586
878.852813	-34.323106
879.110528	-34.495132
879.368393	-34.216757
879.626410	-33.862705
879.884579	-33.990093
880.142899	-34.265903
880.401371	-34.210561
880.659994	-33.939610
880.918770	-33.879450
881.177698	-33.857916
881.436778	-33.706504
881.696010	-33.664380
881.955395	-33.740908
882.214933	-33.663533
882.474623	-33.396387
882.734467	-33.427321
882.994463	-33.652016
883.254613	-33.652353
883.514916	-33.348933
883.775372	-33.208986
884.035982	-33.215718
884.296746	-33.133565
884.557664	-33.087533
884.818735	-33.194813
885.079961	-33.200322
885.341341	-32.904141
885.602876	-32.809237
885.864565	-33.043526
886.126409	-33.159617
886.388407	-32.797015
886.650561	-32.511629
886.912870	-32.579611
887.175334	-32.733484
887.437953	-32.696242
887.700728	-32.601806
887.963658	-32.528853
888.226745	-32.419328
888.489987	-32.435251
888.753385	-32.555388
889.016940	-32.448981
889.280651	-32.078418
889.544518	-32.003072
889.808543	-32.303713
890.072723	-32.416421
890.337061	-32.067613
890.601556	-31.876841
890.866208	-32.064243
891.131017	-32.201760
891.395984	-31.988192
891.661109	-31.777100
891.926391	-31.735411
892.191831	-31.765366
892.457429	-31.806458
892.723186	-31.841955
892.989100	-31.701257
893.255173	-31.529205
893.521405	-31.617798
893.787796	-31.796259
894.054345	-31.598451
894.321053	-31.256051
894.587921	-31.311272
894.854948	-31.586947
895.122134	-31.536143
895.389480	-31.256795
895.656986	-31.264314
895.924651	-31.416070
896.192477	-31.375656
896.460463	-31.195207
896.728609	-31.140016
896.996915	-31.093676
897.265382	-31.065923
897.534010	-31.116063
897.802799	-31.150968
898.071749	-31.004627
898.340860	-30.940601
898.610132	-31.035661
898.879566	-30.983866
899.149162	-30.723424
899.418919	-30.685323
899.688838	-30.880509
899.958919	-30.854647
900.229162	-30.617450
900.499568	-30.613960
900.770136	-30.790256
901.040867	-30.718124
901.311761	-30.482875
901.582817	-30.412048
901.854037	-30.462838
902.125420	-30.450117
902.396966	-30.433648
902.668676	-30.396461
902.940550	-30.284334
903.212587	-30.242961
903.484788	-30.340429
903.757153	-30.269416
904.029683	-29.996466
904.302377	-29.922177
904.575236	-30.114948
904.848259	-30.145358
905.121447	-29.940644
905.394800	-29.861358
905.668319	-29.925863
905.942002	-29.883525
906.215852	-29.785985
906.489866	-29.760266
906.764047	-29.690304
907.038393	-29.593486
907.312906	-29.657516
907.587584	-29.755582
907.862429	-29.631933
908.137441	-29.464863
908.412619	-29.487980
908.687964	-29.527949
908.963476	-29.425670
909.239155	-29.345816
909.515002	-29.349659
909.791015	-29.330658
910.067197	-29.342241
910.343546	-29.384407
910.620063	-29.255672
910.896748	-29.051691
911.173601	-29.093287
911.450623	-29.249491
911.727813	-29.129613
912.005171	-28.915994
912.282699	-28.982566
912.560395	-29.141291
912.838261	-29.043307
913.116296	-28.843645
913.394500	-28.783514
913.672874	-28.808520
913.951418	-28.834068
914.230131	-28.827202
914.509015	-28.727719
914.788068	-28.652976
915.067292	-28.737711
915.346687	-28.758848
915.626252	-28.534963
915.905988	-28.411055
916.185895	-28.570119
916.465973	-28.645087
916.746223	-28.462924
917.026644	-28.391777
917.307236	-28.497810
917.588000	-28.463934
917.868937	-28.298346
918.150045	-28.255571
918.431325	-28.293339
918.712778	-28.297670
918.994404	-28.283307
919.276202	-28.229095
919.558173	-28.146239
919.840317	-28.168711
920.122634	-28.192172
920.405125	-28.039837
920.687789	-27.938165
920.970627	-28.091470
921.253639	-28.173854
921.536824	-27.987211
921.820184	-27.893358
922.103718	-28.004495
922.387427	-27.990187
922.671310	-27.853626
922.955368	-27.841779
923.239601	-27.896965
923.524009	-27.878713
923.808592	-27.874586
924.093351	-27.844007
924.378285	-27.734121
924.663396	-27.710214
924.948682	-27.778108
925.234144	-27.716139
925.519782	-27.626518
925.805597	-27.701005
926.091589	-27.724272
926.377757	-27.581004
926.664102	-27.533028
926.950624	-27.579964
927.237323	-27.491900
927.524200	-27.428179
927.811255	-27.512943
928.098487	-27.495978
928.385897	-27.344491
928.673485	-27.341145
928.961251	-27.373083
929.249196	-27.252356
929.537319	-27.178720
929.825621	-27.248361
930.114102	-27.247556
930.402762	-27.180974
930.691601	-27.161718
930.980620	-27.086062
931.269818	-27.012587
931.559196	-27.065981
931.848753	-27.076142
932.138491	-26.959806
932.428409	-26.979853
932.718508	-27.058166
933.008787	-26.925528
933.299246	-26.796079
933.589887	-26.876589
933.880709	-26.899179
934.171712	-26.791906
934.462896	-26.812981
934.754262	-26.851108
935.045810	-26.740456
935.337539	-26.669900
935.629451	-26.704380
935.921545	-26.670969
936.213822	-26.644787
936.506281	-26.668518
936.798922	-26.608311
937.091747	-26.555048
937.384755	-26.581908
937.677946	-26.502305
937.971321	-26.387889
938.264879	-26.481237
938.558621	-26.530344
938.852547	-26.364959
939.146657	-26.321372
939.440952	-26.419786
939.735431	-26.322160
940.030095	-26.191548
940.324943	-26.274408
940.619977	-26.319899
940.915196	-26.228629
941.210600	-26.192773
941.506189	-26.178635
941.801965	-26.123347
942.097926	-26.131574
942.394074	-26.107598
942.690407	-26.033371
942.986927	-26.095458
943.283634	-26.123674
943.580527	-25.948023
943.877608	-25.899069
944.174875	-26.029357
944.472330	-25.957257
944.769972	-25.838402
945.067802	-25.953721
945.365820	-25.976644
945.664026	-25.798139
945.962420	-25.773704
946.261002	-25.851125
946.559773	-25.801481
946.858733	-25.769843
947.157881	-25.781109
947.457219	-25.731290
947.756746	-25.723348
948.056462	-25.694858
948.356368	-25.587592
948.656464	-25.638584
948.956749	-25.758319
949.257225	-25.616673
949.557891	-25.511493
949.858748	-25.651020
950.159796	-25.613912
950.461034	-25.446544
950.762463	-25.538784
951.064084	-25.640290
951.365896	-25.505634
951.667900	-25.452443
951.970095	-25.493649
952.272483	-25.444952
952.575063	-25.443128
952.877835	-25.459912
953.180799	-25.411175
953.483956	-25.448061
953.787307	-25.448647
954.090850	-25.298732
954.394586	-25.328097
954.698516	-25.464417
955.002640	-25.335439
955.306957	-25.258362
955.611469	-25.397370
955.916174	-25.321585
956.221074	-25.159245
956.526169	-25.252514
956.831458	-25.296208
957.136942	-25.189365
957.442622	-25.209242
957.748496	-25.198764
958.054567	-25.100482
958.360833	-25.124527
958.667294	-25.125051
958.973952	-25.064793
959.280806	-25.119799
959.587857	-25.077211
959.895104	-24.931432
960.202548	-24.994240
960.510189	-25.021619
960.818027	-24.869296
961.126062	-24.926062
961.434295	-25.010065
961.742726	-24.820835
962.051355	-24.771681
962.360182	-24.890045
962.669207	-24.816872
962.978431	-24.764821
963.287854	-24.829185
963.597475	-24.756762
963.907296	-24.699483
964.217315	-24.720795
964.527535	-24.656406
964.837954	-24.681765
965.148573	-24.735681
965.459392	-24.594670
965.770411	-24.573464
966.081630	-24.668246
966.393051	-24.542026
966.704672	-24.512968
967.016494	-24.670550
967.328517	-24.561109
967.640742	-24.423871
967.953169	-24.532584
968.265797	-24.511993
968.578627	-24.418321
968.891660	-24.482428
969.204895	-24.455206
969.518332	-24.389825
969.831972	-24.407180
970.145816	-24.329341
970.459862	-24.336219
970.774112	-24.442997
971.088565	-24.314394
971.403223	-24.235209
971.718084	-24.358516
972.033149	-24.266864
972.348419	-24.169773
972.663893	-24.310917
972.979572	-24.264590
973.295456	-24.133626
973.611546	-24.203451
973.927840	-24.175311
974.244340	-24.118736
974.561046	-24.204873
974.877958	-24.153485
975.195076	-24.092045
975.512401	-24.153896
975.829932	-24.075906
976.147670	-24.056397
976.465615	-24.175336
976.783767	-24.077377
977.102126	-24.006960
977.420693	-24.111680
977.739468	-24.034568
978.058451	-23.993046
978.377642	-24.116784
978.697041	-24.042473
979.016649	-23.976891
979.336466	-24.054352
979.656492	-23.984982
979.976727	-23.976310
980.297171	-24.062781
980.617825	-23.956062
980.938689	-23.930708
981.259763	-24.004311
981.581048	-23.899832
981.902542	-23.907958
982.224248	-23.999403
982.546164	-23.886373
982.868291	-23.866111
983.190630	-23.917384
983.513180	-23.830914
983.835942	-23.863151
984.158916	-23.890494
984.482101	-23.774159
984.805500	-23.809366
985.129110	-23.810932
985.452934	-23.701377
985.776970	-23.791010
986.101220	-23.796648
986.425683	-23.646170
986.750359	-23.706450
987.075250	-23.721779
987.400354	-23.612856
987.725673	-23.670055
988.051206	-23.659952
988.376954	-23.560104
988.702916	-23.581548
989.029094	-23.547031
989.355487	-23.531161
989.682095	-23.572962
990.008919	-23.460651
990.335959	-23.445241
990.663216	-23.515471
990.990688	-23.390195
991.318377	-23.394294
991.646283	-23.481229
991.974406	-23.326305
992.302746	-23.294525
992.631304	-23.384050
992.960079	-23.293307
993.289072	-23.273801
993.618283	-23.302266
993.947713	-23.229695
994.277361	-23.231046
994.607227	-23.214345
994.937313	-23.194178
995.267618	-23.243880
995.598142	-23.138601
995.928886	-23.095085
996.259849	-23.205658
996.591033	-23.109645
996.922437	-23.066078
997.254061	-23.176322
997.585906	-23.064303
997.917972	-23.016042
998.250260	-23.131645
998.582768	-23.074059
998.915498	-23.032337
999.248450	-23.055477
999.581624	-23.015408
999.915020	-23.043176
1000.248639	-23.020745
1000.582480	-22.992108
1000.916545	-23.059876
1001.250832	-22.966632
1001.585343	-22.937873
1001.920077	-23.075708
1002.255035	-22.976111
1002.590218	-22.916117
1002.925624	-23.024672
1003.261255	-22.935747
1003.597111	-22.907393
1003.933192	-22.992505
1004.269497	-22.920875
1004.606029	-22.896477
1004.942785	-22.906500
1005.279768	-22.889359
1005.616977	-22.933377
1005.954412	-22.860571
1006.292074	-22.833830
1006.629962	-22.907842
1006.968077	-22.799639
1007.306420	-22.797606
1007.644990	-22.886923
1007.983787	-22.750742
1008.322813	-22.740230
1008.662067	-22.814541
1009.001549	-22.726885
1009.341259	-22.732673
1009.681199	-22.732665
1010.021367	-22.668280
1010.361765	-22.684790
1010.702392	-22.641348
1011.043250	-22.637994
1011.384337	-22.639322
1011.725654	-22.526329
1012.067202	-22.573578
1012.408980	-22.591020
1012.750989	-22.469480
1013.093230	-22.521735
1013.435702	-22.497546
1013.778405	-22.397711
1014.121341	-22.459256
1014.464508	-22.414308
1014.807908	-22.352293
1015.151540	-22.366485
1015.495405	-22.305633
1015.839503	-22.324574
1016.183835	-22.303822
1016.528400	-22.231002
1016.873198	-22.274655
1017.218231	-22.206745
1017.563498	-22.173875
1017.908999	-22.230390
1018.254735	-22.115907
1018.600707	-22.113479
1018.946913	-22.151140
1019.293354	-22.050281
1019.640032	-22.092202
1019.986945	-22.076209
1020.334094	-21.995692
1020.681480	-22.046606
1021.029102	-21.995421
1021.376961	-21.975310
1021.725058	-21.990061
1022.073391	-21.906843
1022.421962	-21.949782
1022.770772	-21.934250
1023.119819	-21.876145
1023.469104	-21.934737
1023.818628	-21.856272
1024.168391	-21.854907
1024.518393	-21.910886
1024.868634	-21.798921
1025.219115	-21.833269
1025.569836	-21.840768
1025.920796	-21.762328
1026.271997	-21.832489
1026.623438	-21.784713
1026.975121	-21.751612
1027.327044	-21.797767
1027.679208	-21.734177
1028.031614	-21.760914
1028.384262	-21.734384
1028.737152	-21.683517
1029.090284	-21.742152
1029.443659	-21.667696
1029.797276	-21.680766
1030.151137	-21.709483
1030.505240	-21.603389
1030.859587	-21.674607
1031.214178	-21.653075
1031.569013	-21.566445
1031.924093	-21.629412
1032.279417	-21.558585
1032.634985	-21.546707
1032.990799	-21.570870
1033.346858	-21.495239
1033.703162	-21.524881
1034.059712	-21.479519
1034.416509	-21.459458
1034.773551	-21.477811
1035.130841	-21.372431
1035.488377	-21.409483
1035.846160	-21.380901
1036.204190	-21.302058
1036.562468	-21.366510
1036.920994	-21.272181
1037.279768	-21.254457
1037.638790	-21.291689
1037.998061	-21.183178
1038.357581	-21.199778
1038.717350	-21.158194
1039.077368	-21.109014
1039.437636	-21.132597
1039.798154	-21.045622
1040.158922	-21.061699
1040.519940	-21.032609
1040.881209	-20.972351
1041.242729	-21.010360
1041.604501	-20.909005
1041.966524	-20.906914
1042.328798	-20.910580
1042.691325	-20.817496
1043.054103	-20.866222
1043.417135	-20.799037
1043.780419	-20.771046
1044.143956	-20.810039
1044.507746	-20.709851
1044.871791	-20.733004
1045.236088	-20.698684
1045.600641	-20.649749
1045.965447	-20.688789
1046.330508	-20.608003
1046.695824	-20.630739
1047.061395	-20.619037
1047.427222	-20.570467
1047.793304	-20.609017
1048.159642	-20.523282
1048.526237	-20.547931
1048.893088	-20.541989
1049.260196	-20.470191
1049.627561	-20.540525
1049.995183	-20.464516
1050.363063	-20.471803
1050.731201	-20.506732
1051.099597	-20.410717
1051.468251	-20.460121
1051.837164	-20.418322
1052.206336	-20.398363
1052.575767	-20.421942
1052.945458	-20.357940
1053.315409	-20.407971
1053.685619	-20.357582
1054.056090	-20.352580
1054.426821	-20.366708
1054.797814	-20.276044
1055.169067	-20.345630
1055.540582	-20.280777
1055.912359	-20.250600
1056.284398	-20.305700
1056.656698	-20.209667
1057.029262	-20.256632
1057.402088	-20.212779
1057.775177	-20.162628
1058.148530	-20.194711
1058.522146	-20.113807
1058.896027	-20.142372
1059.270171	-20.087991
1059.644580	-20.073350
1060.019254	-20.092832
1060.394193	-19.995079
1060.769397	-20.040376
1061.144867	-19.964527
1061.520602	-19.940174
1061.896604	-19.965147
1062.272872	-19.857862
1062.649407	-19.914426
1063.026210	-19.855896
1063.403279	-19.822574
1063.780616	-19.834274
1064.158221	-19.743596
1064.536094	-19.782705
1064.914235	-19.709237
1065.292645	-19.700182
1065.671325	-19.700255
1066.050273	-19.632443
1066.429491	-19.680035
1066.808979	-19.584310
1067.188738	-19.597121
1067.568766	-19.582877
1067.949066	-19.511546
1068.329636	-19.565029
1068.710478	-19.477078
1069.091592	-19.514413
1069.472977	-19.493151
1069.854635	-19.434996
1070.236565	-19.479329
1070.618768	-19.397284
1071.001243	-19.435798
1071.383993	-19.392413
1071.767016	-19.378800
1072.150313	-19.412619
1072.533884	-19.338678
1072.917730	-19.388859
1073.301850	-19.318275
1073.686246	-19.330116
1074.070917	-19.330197
1074.455864	-19.262848
1074.841087	-19.326813
1075.226586	-19.250579
1075.612362	-19.281289
1075.998415	-19.248703
1076.384745	-19.204551
1076.771353	-19.243733
1077.158238	-19.153723
1077.545401	-19.198220
1077.932843	-19.145695
1078.320564	-19.142439
1078.708564	-19.143535
1079.096842	-19.065030
1079.485401	-19.111468
1079.874240	-19.020844
1080.263358	-19.038876
1080.652757	-19.004149
1081.042438	-18.961766
1081.432399	-18.993047
1081.822641	-18.892519
1082.213166	-18.922758
1082.603972	-18.849598
1082.995061	-18.829388
1083.386433	-18.808239
1083.778087	-18.741440
1084.170025	-18.771180
1084.562246	-18.673321
1084.954751	-18.689444
1085.347541	-18.616754
1085.740615	-18.584902
1086.133973	-18.574694
1086.527617	-18.484072
1086.921546	-18.529124
1087.315761	-18.431165
1087.710262	-18.445374
1088.105050	-18.393023
1088.500124	-18.342662
1088.895485	-18.363289
1089.291134	-18.262306
1089.687070	-18.315416
1090.083294	-18.238815
1090.479806	-18.246222
1090.876607	-18.222704
1091.273696	-18.164665
1091.671075	-18.201529
1092.068744	-18.110787
1092.466702	-18.159677
1092.864950	-18.101203
1093.263489	-18.110051
1093.662319	-18.095762
1094.061440	-18.043960
1094.460852	-18.080188
1094.860555	-17.999087
1095.260551	-18.049194
1095.660840	-17.989579
1096.061421	-18.011943
1096.462295	-17.994166
1096.863462	-17.952271
1097.264923	-17.988979
1097.666678	-17.911215
1098.068727	-17.971339
1098.471071	-17.907204
1098.873710	-17.944666
1099.276644	-17.924223
1099.679874	-17.895546
1100.083400	-17.927898
1100.487222	-17.861129
1100.891340	-17.921392
1101.295756	-17.854586
1101.700468	-17.905829
1102.105478	-17.864910
1102.510787	-17.858230
1102.916393	-17.862985
1103.322298	-17.806102
1103.728502	-17.853415
1104.135005	-17.770879
1104.541807	-17.825399
1104.948909	-17.749956
1105.356312	-17.754883
1105.764015	-17.715954
1106.172019	-17.669369
1106.580324	-17.680086
1106.988931	-17.593103
1107.397840	-17.631207
1107.807051	-17.528762
1108.216564	-17.543323
1108.626380	-17.461048
1109.036500	-17.441533
1109.446923	-17.409484
1109.857649	-17.347939
1110.268680	-17.362003
1110.680016	-17.266265
1111.091657	-17.289394
1111.503602	-17.191077
1111.915854	-17.211082
1112.328411	-17.147910
1112.741275	-17.138328
1113.154445	-17.123758
1113.567922	-17.068613
1113.981706	-17.085293
1114.395798	-17.006063
1114.810198	-17.048190
1115.224906	-16.974785
1115.639923	-17.011173
1116.055249	-16.961075
1116.470884	-16.961039
1116.886829	-16.938445
1117.303084	-16.905434
1117.719650	-16.925874
1118.136526	-16.864972
1118.553713	-16.908826
1118.971212	-16.832181
1119.389022	-16.863882
1119.807145	-16.794014
1120.225580	-16.807870
1120.644328	-16.771553
1121.063389	-16.753048
1121.482763	-16.748686
1121.902452	-16.690786
1122.322454	-16.703682
1122.742771	-16.625928
1123.163404	-16.658121
1123.584351	-16.581081
1124.005614	-16.609442
1124.427193	-16.543594
1124.849089	-16.543568
1125.271301	-16.502777
1125.693830	-16.478783
1126.116677	-16.479711
1126.539842	-16.429341
1126.963324	-16.457118
1127.387126	-16.384424
1127.811246	-16.419226
1128.235685	-16.348727
1128.660444	-16.388443
1129.085522	-16.336932
1129.510922	-16.359357
1129.936641	-16.328557
1130.362682	-16.319784
1130.789044	-16.315680
1131.215728	-16.288613
1131.642734	-16.315226
1132.070063	-16.266856
1132.497714	-16.306823
1132.925689	-16.239657
1133.353987	-16.281210
1133.782610	-16.218534
1134.211556	-16.258232
1134.640827	-16.208471
1135.070424	-16.223669
1135.500345	-16.187874
1135.930593	-16.173176
1136.361166	-16.161711
1136.792067	-16.129114
1137.223294	-16.140476
1137.654848	-16.081700
1138.086730	-16.103264
1138.518940	-16.025790
1138.951479	-16.056151
1139.384346	-15.982452
1139.817543	-16.013238
1140.251069	-15.942946
1140.684925	-15.956537
1141.119111	-15.897105
1141.553628	-15.895978
1141.988475	-15.862582
1142.423655	-15.847232
1142.859166	-15.832263
1143.295009	-15.791954
1143.731185	-15.794842
1144.167694	-15.741224
1144.604536	-15.766799
1145.041711	-15.708397
1145.479221	-15.740289
1145.917065	-15.672727
1146.355245	-15.704697
1146.793759	-15.643568
1147.232609	-15.678201
1147.671795	-15.629693
1148.111317	-15.652032
1148.551177	-15.609456
1148.991373	-15.617040
1149.431907	-15.593874
1149.872779	-15.591847
1150.313989	-15.587844
1150.755538	-15.565695
1151.197426	-15.568999
1151.639653	-15.531956
1152.082220	-15.552122
1152.525128	-15.507744
1152.968376	-15.538110
1153.411966	-15.479800
1153.855897	-15.506338
1154.300169	-15.445384
1154.744784	-15.476924
1155.189742	-15.418497
1155.635042	-15.447241
1156.080687	-15.383232
1156.526674	-15.399821
1156.973007	-15.344084
1157.419683	-15.357217
1157.866705	-15.311203
1158.314072	-15.311421
1158.761786	-15.266711
1159.209845	-15.251475
1159.658251	-15.221942
1160.107004	-15.200460
1160.556104	-15.180273
1161.005553	-15.144716
1161.455349	-15.124948
1161.905494	-15.080520
1162.355989	-15.075364
1162.806832	-15.026096
1163.258026	-15.026119
1163.709570	-14.964662
1164.161464	-14.964652
1164.613710	-14.902707
1165.066307	-14.913426
1165.519256	-14.849376
1165.972558	-14.858579
1166.426212	-14.787668
1166.880219	-14.796709
1167.334580	-14.733411
1167.789295	-14.747267
1168.244364	-14.682956
1168.699788	-14.690712
1169.155567	-14.625286
1169.611702	-14.634732
1170.068193	-14.580621
1170.525041	-14.588572
1170.982245	-14.532795
1171.439807	-14.534254
1171.897726	-14.482675
1172.356004	-14.488856
1172.814640	-14.445741
1173.273635	-14.445597
1173.732989	-14.400411
1174.192703	-14.396957
1174.652778	-14.360264
1175.113213	-14.361133
1175.574009	-14.327082
1176.035167	-14.318193
1176.496687	-14.285497
1176.958569	-14.276922
1177.420814	-14.255400
1177.883422	-14.245175
1178.346394	-14.221414
1178.809730	-14.203108
1179.273430	-14.185488
1179.737496	-14.171520
1180.201927	-14.159903
1180.666723	-14.139796
1181.131886	-14.122680
1181.597416	-14.103693
1182.063312	-14.093460
1182.529576	-14.080234
1182.996209	-14.065403
1183.463209	-14.047057
1183.930579	-14.029832
1184.398317	-14.020561
1184.866426	-14.008112
1185.334904	-13.996617
1185.803754	-13.977866
1186.272974	-13.962907
1186.742566	-13.953680
1187.212529	-13.942437
1187.682865	-13.935190
1188.153574	-13.912296
1188.624656	-13.906822
1189.096112	-13.886179
1189.567942	-13.891398
1190.040147	-13.867171
1190.512726	-13.864606
1190.985681	-13.839042
1191.459012	-13.838498
1191.932720	-13.826476
1192.406804	-13.816346
1192.881265	-13.805285
1193.356104	-13.780304
1193.831322	-13.787952
1194.306918	-13.756554
1194.782893	-13.776227
1195.259248	-13.722075
1195.735982	-13.750372
1196.213097	-13.692510
1196.690593	-13.734723
1197.168471	-13.670650
1197.646730	-13.702387
1198.125371	-13.640991
1198.604395	-13.669582
1199.083803	-13.629482
1199.563594	-13.635108
1200.043769	-13.607686
1200.524329	-13.587833
1201.005273	-13.592625
1201.486604	-13.556520
1201.968320	-13.573414
1202.450422	-13.517014
1202.932912	-13.538406
1203.415789	-13.495329
1203.899054	-13.509088
1204.382707	-13.477731
1204.866748	-13.459973
1205.351179	-13.458615
1205.836000	-13.423370
1206.321211	-13.448791
1206.806812	-13.385274
1207.292805	-13.418232
1207.779189	-13.356053
1208.265965	-13.394411
1208.753134	-13.342864
1209.240696	-13.353758
1209.728651	-13.322140
1210.217000	-13.317966
1210.705744	-13.316044
1211.194883	-13.288571
1211.684417	-13.291501
1212.174347	-13.258113
1212.664673	-13.273154
1213.155396	-13.246141
1213.646516	-13.247847
1214.138034	-13.221067
1214.629951	-13.222928
1215.122266	-13.209586
1215.614980	-13.209843
1216.108095	-13.185055
1216.601609	-13.187680
1217.095524	-13.167210
1217.589841	-13.180877
1218.084559	-13.152766
1218.579679	-13.155878
1219.075202	-13.138688
1219.571128	-13.140367
1220.067458	-13.140570
1220.564191	-13.114633
1221.061330	-13.129410
1221.558874	-13.096351
1222.056823	-13.130131
1222.555178	-13.087892
1223.053940	-13.108744
1223.553109	-13.081069
1224.052686	-13.094149
1224.552671	-13.091345
1225.053065	-13.069772
1225.553867	-13.085811
1226.055079	-13.054374
1226.556702	-13.089394
1227.058735	-13.049695
1227.561179	-13.067836
1228.064035	-13.047087
1228.567303	-13.053127
1229.070983	-13.058516
1229.575077	-13.027040
1230.079585	-13.051890
1230.584506	-13.012859
1231.089842	-13.051520
1231.595594	-13.005633
1232.101761	-13.023432
1232.608345	-13.002620
1233.115345	-13.003599
1233.622762	-13.007732
1234.130597	-12.968675
1234.638851	-12.995944
1235.147523	-12.950105
1235.656615	-12.986777
1236.166126	-12.931346
1236.676058	-12.950153
1237.186411	-12.922392
1237.697185	-12.922661
1238.208381	-12.913508
1238.719999	-12.877103
1239.232040	-12.895210
1239.744505	-12.851818
1240.257394	-12.873954
1240.770708	-12.818552
1241.284446	-12.832795
1241.798610	-12.802799
1242.313201	-12.798052
1242.828218	-12.777230
1243.343662	-12.748148
1243.859534	-12.754945
1244.375834	-12.717619
1244.892563	-12.720797
1245.409721	-12.675746
1245.927309	-12.682339
1246.445327	-12.654361
1246.963777	-12.640805
1247.482657	-12.616833
1248.001970	-12.596321
1248.521716	-12.593487
1249.041894	-12.559605
1249.562506	-12.551086
1250.083553	-12.519244
1250.605034	-12.520165
1251.126950	-12.490858
1251.649302	-12.473516
1252.172091	-12.453826
1252.695316	-12.439194
1253.218979	-12.428665
1253.743079	-12.395493
1254.267619	-12.389544
1254.792597	-12.365684
1255.318015	-12.361476
1255.843874	-12.331116
1256.370173	-12.317608
1256.896913	-12.308069
1257.424095	-12.288798
1257.951720	-12.278566
1258.479787	-12.249029
1259.008298	-12.253866
1259.537254	-12.230357
1260.066654	-12.220711
1260.596499	-12.202542
1261.126790	-12.192576
1261.657527	-12.192942
1262.188711	-12.163122
1262.720342	-12.166851
1263.252422	-12.146624
1263.784950	-12.152247
1264.317928	-12.133692
1264.851355	-12.120973
1265.385232	-12.130161
1265.919560	-12.109320
1266.454340	-12.118692
1266.989572	-12.093541
1267.525256	-12.107224
1268.061394	-12.102532
1268.597985	-12.087848
1269.135031	-12.100008
1269.672531	-12.083150
1270.210487	-12.105155
1270.748899	-12.083565
1271.287768	-12.090149
1271.827094	-12.101231
1272.366877	-12.089305
1272.907119	-12.106562
1273.447820	-12.088257
1273.988981	-12.113625
1274.530601	-12.109853
1275.072683	-12.104657
1275.615226	-12.124453
1276.158230	-12.115550
1276.701697	-12.139009
1277.245627	-12.125310
1277.790021	-12.139261
1278.334879	-12.156374
1278.880202	-12.145469
1279.425991	-12.167493
1279.972245	-12.160841
1280.518966	-12.183801
1281.066155	-12.185747
1281.613811	-12.181621
1282.161936	-12.212084
1282.710529	-12.202848
1283.259593	-12.221890
1283.809126	-12.222589
1284.359131	-12.232309
1284.909607	-12.255856
1285.460555	-12.238966
1286.011976	-12.267491
1286.563870	-12.271226
1287.116237	-12.276013
1287.669080	-12.292834
1288.222397	-12.285004
1288.776191	-12.316664
1289.330460	-12.308532
1289.885207	-12.313549
1290.440431	-12.338241
1290.996133	-12.327891
1291.552314	-12.348613
1292.108975	-12.343394
1292.666115	-12.355068
1293.223737	-12.371102
1293.781839	-12.352729
1294.340424	-12.378783
1294.899491	-12.376483
1295.459041	-12.374961
1296.019075	-12.387966
1296.579593	-12.376562
1297.140597	-12.397357
1297.702086	-12.384678
1298.264061	-12.382184
1298.826524	-12.402292
1299.389474	-12.379918
1299.952912	-12.390512
1300.516839	-12.387169
1301.081255	-12.379804
1301.646162	-12.390043
1302.211559	-12.365512
1302.777448	-12.379047
1303.343829	-12.374358
1303.910702	-12.350771
1304.478069	-12.367602
1305.045930	-12.347998
1305.614285	-12.343162
1306.183136	-12.341661
1306.752483	-12.320557
1307.322326	-12.331770
1307.892666	-12.307158
1308.463504	-12.296943
1309.034841	-12.306341
1309.606677	-12.273091
1310.179012	-12.274237
1310.751849	-12.266099
1311.325186	-12.243732
1311.899025	-12.245969
1312.473366	-12.219225
1313.048211	-12.216162
1313.623559	-12.208300
1314.199412	-12.175272
1314.775770	-12.183969
1315.352634	-12.162685
1315.930004	-12.138254
1316.507881	-12.142933
1317.086266	-12.114475
1317.665159	-12.105423
1318.244562	-12.094208
1318.824474	-12.068561
1319.404897	-12.070824
1319.985831	-12.042818
1320.567276	-12.026877
1321.149234	-12.029995
1321.731706	-11.994150
1322.314691	-11.988246
1322.898190	-11.982696
1323.482205	-11.951276
1324.066736	-11.950077
1324.651783	-11.932336
1325.237347	-11.913653
1325.823430	-11.910258
1326.410031	-11.883371
1326.997151	-11.878721
1327.584791	-11.868530
1328.172952	-11.839311
1328.761634	-11.843910
1329.350839	-11.826129
1329.940566	-11.801536
1330.530817	-11.807614
1331.121592	-11.785036
1331.712891	-11.769108
1332.304716	-11.769889
1332.897068	-11.746944
1333.489946	-11.740207
1334.083352	-11.732183
1334.677287	-11.712876
1335.271750	-11.713045
1335.866744	-11.696322
1336.462268	-11.682952
1337.058323	-11.686331
1337.654910	-11.663694
1338.252029	-11.656645
1338.849682	-11.659695
1339.447869	-11.635266
1340.046591	-11.633304
1340.645848	-11.633630
1341.245641	-11.611192
1341.845972	-11.612278
1342.446840	-11.608730
1343.048246	-11.590970
1343.650191	-11.593058
1344.252677	-11.585634
1344.855702	-11.573997
1345.459269	-11.575434
1346.063379	-11.565018
1346.668030	-11.559537
1347.273226	-11.559418
1347.878965	-11.547102
1348.485250	-11.547011
1349.092080	-11.545007
1349.699456	-11.532000
1350.307380	-11.536030
1350.915851	-11.532336
1351.524871	-11.519556
1352.134441	-11.526351
1352.744560	-11.521330
1353.355231	-11.509446
1353.966453	-11.517804
1354.578227	-11.511899
1355.190555	-11.501316
1355.803436	-11.510258
1356.416872	-11.503963
1357.030863	-11.494815
1357.645411	-11.503776
1358.260515	-11.497496
1358.876177	-11.489741
1359.492397	-11.498363
1360.109176	-11.492377
1360.726516	-11.485798
1361.344416	-11.493920
1361.962877	-11.488370
1362.581901	-11.482731
1363.201487	-11.490254
1363.821637	-11.485254
1364.442352	-11.480332
1365.063632	-11.487270
1365.685478	-11.482834
1366.307891	-11.478393
1366.930871	-11.484828
1367.554420	-11.480924
1368.178538	-11.476751
1368.803226	-11.482828
1369.428485	-11.479460
1370.054315	-11.475479
1370.680717	-11.481448
1371.307693	-11.478613
1371.935242	-11.474757
1372.563366	-11.480746
1373.192065	-11.478419
1373.821341	-11.474461
1374.451193	-11.480569
1375.081623	-11.478549
1375.712632	-11.474379
1376.344221	-11.480565
1376.976389	-11.478804
1377.609139	-11.474287
1378.242470	-11.480536
1378.876384	-11.478925
1379.510881	-11.474008
1380.145963	-11.480209
1380.781629	-11.478571
1381.417881	-11.473287
1382.054720	-11.479330
1382.692147	-11.477621
1383.330161	-11.472149
1383.968765	-11.478023
1384.607959	-11.476333
1385.247743	-11.471103
1385.888119	-11.476790
1386.529087	-11.475252
1387.170648	-11.470656
1387.812804	-11.475885
1388.455554	-11.474466
1389.098899	-11.470822
1389.742842	-11.475192
1390.387381	-11.473846
1391.032519	-11.471582
1391.678256	-11.474779
1392.324592	-11.473632
1392.971529	-11.473218
1393.619068	-11.474923
1394.267208	-11.474071
1394.915952	-11.475680
1395.565300	-11.475603
1396.215253	-11.474919
1396.865812	-11.478308
1397.516977	-11.476288
1398.168749	-11.475830
1398.821130	-11.480480
1399.474120	-11.476953
1400.127719	-11.477040
1400.781930	-11.482375
1401.436752	-11.478155
1402.092186	-11.479141
1402.748234	-11.484224
1403.404897	-11.480296
1404.062174	-11.482233
1404.720067	-11.485861
1405.378577	-11.483207
1406.037705	-11.485839
1406.697451	-11.487181
1407.357817	-11.486870
1408.018803	-11.490033
1408.680410	-11.489212
1409.342639	-11.492078
1410.005492	-11.495672
1410.668968	-11.493624
1411.333068	-11.499493
1411.997795	-11.502904
1412.663147	-11.501036
1413.329127	-11.508388
1413.995736	-11.510927
1414.662973	-11.510894
1415.330840	-11.517964
1415.999339	-11.519753
1416.668469	-11.523421
1417.338232	-11.529038
1418.008628	-11.531251
1418.679659	-11.539435
1419.351325	-11.543400
1420.023628	-11.547390
1420.696568	-11.558546
1421.370145	-11.561307
1422.044362	-11.567649
1422.719219	-11.578250
1423.394717	-11.581095
1424.070856	-11.589705
1424.747638	-11.597033
1425.425064	-11.602407
1426.103134	-11.612972
1426.781850	-11.617606
1427.461212	-11.627758
1428.141221	-11.639426
1428.821878	-11.644718
1429.503185	-11.659379
1430.185141	-11.670361
1430.867749	-11.679411
1431.551008	-11.694727
1432.234920	-11.703465
1432.919486	-11.716654
1433.604707	-11.728013
1434.290583	-11.735480
1434.977116	-11.750468
1435.664307	-11.757355
1436.352156	-11.767153
1437.040664	-11.781203
1437.729833	-11.788589
1438.419663	-11.803701
1439.110156	-11.815786
1439.801312	-11.829356
1440.493132	-11.848101
1441.185617	-11.859402
1441.878768	-11.878932
1442.572586	-11.895242
1443.267072	-11.907458
1443.962228	-11.925420
1444.658053	-11.934684
1445.354549	-11.947574
1446.051717	-11.956595
1446.749558	-11.961035
1447.448073	-11.972162
1448.147263	-11.974085
1448.847128	-11.980906
1449.547671	-11.988871
1450.248891	-11.993993
1450.950789	-12.007420
1451.653368	-12.015191
1452.356627	-12.030550
1453.060568	-12.047044
1453.765192	-12.059386
1454.470500	-12.079373
1455.176492	-12.091724
1455.883170	-12.106935
1456.590534	-12.117950
1457.298586	-12.122049
1458.007327	-12.129428
1458.716758	-12.124609
1459.426880	-12.120924
1460.137693	-12.112375
1460.849199	-12.099340
1461.561398	-12.090340
1462.274293	-12.074044
1462.987883	-12.066044
1463.702170	-12.057921
1464.417155	-12.053008
1465.132838	-12.057013
1465.849222	-12.060661
1466.566306	-12.076560
1467.284093	-12.092060
1468.002582	-12.113397
1468.721775	-12.139486
1469.441674	-12.161851
1470.162278	-12.189085
1470.883590	-12.207134
1471.605609	-12.224962
1472.328338	-12.235238
1473.051777	-12.235776
1473.775928	-12.233365
1474.500790	-12.217994
1475.226367	-12.202159
1475.952657	-12.177374
1476.679663	-12.151676
1477.407386	-12.128136
1478.135826	-12.103508
1478.864985	-12.089557
1479.594863	-12.078237
1480.325463	-12.082144
1481.056784	-12.095851
1481.788828	-12.122349
1482.521597	-12.165422
1483.255090	-12.218195
1483.989309	-12.289368
1484.724256	-12.365985
1485.459931	-12.454666
1486.196336	-12.546778
1486.933471	-12.638970
1487.671337	-12.729371
1488.409937	-12.805155
1489.149270	-12.872006
1489.889337	-12.914767
1490.630141	-12.938471
1491.371682	-12.935137
1492.113961	-12.906185
1492.856979	-12.856662
1493.600738	-12.782040
1494.345238	-12.695840
1495.090481	-12.593289
1495.836467	-12.489424
1496.583198	-12.383299
1497.330675	-12.282762
1498.078899	-12.193567
1498.827872	-12.116079
1499.577593	-12.061131
1500.328065	-12.022615
1501.079289	-12.011619
1501.831265	-12.021615
1502.583995	-12.059368
1503.337480	-12.120519
1504.091721	-12.203053
1504.846719	-12.306314
1505.602475	-12.419482
1506.358991	-12.542804
1507.116268	-12.657735
1507.874306	-12.761595
1508.633108	-12.834433
1509.392673	-12.868687
1510.153004	-12.850488
1510.914101	-12.770856
1511.675965	-12.630783
1512.438599	-12.427075
1513.202002	-12.175502
1513.966176	-11.880076
1514.731122	-11.562754
1515.496842	-11.232322
1516.263336	-10.906831
1517.030607	-10.595412
1517.798654	-10.307708
1518.567479	-10.052406
1519.337083	-9.832089
1520.107468	-9.654208
1520.878634	-9.515980
1521.650584	-9.423758
1522.423317	-9.372648
1523.196836	-9.367983
1523.971141	-9.403692
1524.746233	-9.483181
1525.522115	-9.600642
1526.298786	-9.757282
1527.076249	-9.946936
1527.854504	-10.166369
1528.633553	-10.407275
1529.413397	-10.660623
1530.194037	-10.914040
1530.975474	-11.150697
1531.757709	-11.354054
1532.540745	-11.503993
1533.324581	-11.588386
1534.109220	-11.596013
1534.894662	-11.530423
1535.680909	-11.398541
1536.467961	-11.221659
1537.255821	-11.017920
1538.044489	-10.813270
1538.833967	-10.624311
1539.624256	-10.472523
1540.415357	-10.368214
1541.207271	-10.326700
1542.000000	-10.352594
1542.793545	-10.457581
1543.587907	-10.643445
1544.383087	-10.920855
1545.179088	-11.290659
1545.975909	-11.764605
1546.773552	-12.344642
1547.572019	-13.045643
1548.371311	-13.871296
1549.171428	-14.839774
1549.972373	-15.952775
1550.774147	-17.220087
1551.576751	-18.604591
1552.380185	-20.017014
1553.184453	-21.198557
1553.989554	-21.768690
1554.795490	-21.468605
1555.602263	-20.501810
1556.409873	-19.259822
1557.218322	-18.009762
1558.027612	-16.865015
1558.837743	-15.853743
1559.648717	-14.977107
1560.460536	-14.221224
1561.273200	-13.575215
1562.086710	-13.024276
1562.901069	-12.559758
1563.716278	-12.170559
1564.532337	-11.851140
1565.349249	-11.593519
1566.167014	-11.394200
1566.985634	-11.246986
1567.805111	-11.149566
1568.625444	-11.096910
1569.446637	-11.087522
1570.268690	-11.116804
1571.091605	-11.183444
1571.915382	-11.282914
1572.740024	-11.414106
1573.565532	-11.572477
1574.391907	-11.757068
1575.219150	-11.962991
1576.047262	-12.189173
1576.876246	-12.430328
1577.706103	-12.685657
1578.536833	-12.949317
1579.368439	-13.220610
1580.200922	-13.493068
1581.034282	-13.766031
1581.868522	-14.032464
1582.703643	-14.292285
1583.539646	-14.537805
1584.376532	-14.769633
1585.214304	-14.979858
1586.052962	-15.170198
1586.892508	-15.333048
1587.732943	-15.471974
1588.574269	-15.579879
1589.416487	-15.662195
1590.259599	-15.712524
1591.103605	-15.738093
1591.948508	-15.732835
1592.794309	-15.705469
1593.641009	-15.650070
1594.488609	-15.575853
1595.337112	-15.477283
1596.186518	-15.363851
1597.036829	-15.230541
1597.888047	-15.086611
1598.740172	-14.927870
1599.593207	-14.762675
1600.447153	-14.588248
1601.302010	-14.411431
1602.157782	-14.231030
1603.014469	-14.051613
1603.872072	-13.873789
1604.730593	-13.699693
1605.590034	-13.531790
1606.450397	-13.369804
1607.311681	-13.217630
1608.173890	-13.072796
1609.037024	-12.940241
1609.901085	-12.815989
1610.766075	-12.705286
1611.631995	-12.603479
1612.498846	-12.515148
1613.366630	-12.435752
1614.235349	-12.368425
1615.105004	-12.309735
1615.975596	-12.260760
1616.847128	-12.219687
1617.719600	-12.185269
1618.593014	-12.157625
1619.467372	-12.133263
1620.342675	-12.113996
1621.218924	-12.095019
1622.096122	-12.078964
1622.974270	-12.060905
1623.853369	-12.043383
1624.733420	-12.022829
1625.614427	-12.000699
1626.496389	-11.975822
1627.379308	-11.948085
1628.263187	-11.919004
1629.148026	-11.886900
1630.033828	-11.855239
1630.920593	-11.821611
1631.808324	-11.790020
1632.697022	-11.758320
1633.586688	-11.729472
1634.477324	-11.702618
1635.368932	-11.678619
1636.261514	-11.658355
1637.155070	-11.640433
1638.049602	-11.627037
1638.945113	-11.615341
1639.841603	-11.607727
1640.739075	-11.601248
1641.637529	-11.597214
1642.536968	-11.593963
1643.437393	-11.590981
1644.338806	-11.588466
1645.241209	-11.584268
1646.144602	-11.580188
1647.048988	-11.573521
1647.954368	-11.566429
1648.860744	-11.557238
1649.768118	-11.547167
1650.676491	-11.536482
1651.585865	-11.524797
1652.496241	-11.514215
1653.407621	-11.503202
1654.320008	-11.494367
1655.233401	-11.486153
1656.147804	-11.480036
1657.063218	-11.475662
1657.979645	-11.472457
1658.897085	-11.471556
1659.815542	-11.470797
1660.735016	-11.472018
1661.655509	-11.473088
1662.577023	-11.474918
1663.499560	-11.477014
1664.423121	-11.478541
1665.347709	-11.481045
1666.273324	-11.482462
1667.199969	-11.484881
1668.127645	-11.486932
1669.056353	-11.489357
1669.986097	-11.492743
1670.916877	-11.495761
1671.848695	-11.500628
1672.781553	-11.505394
1673.715452	-11.511603
1674.650395	-11.518750
1675.586383	-11.526184
1676.523418	-11.535452
1677.461501	-11.544310
1678.400635	-11.554570
1679.340821	-11.564940
1680.282061	-11.575392
1681.224357	-11.586986
1682.167710	-11.597721
1683.112122	-11.609708
1684.057595	-11.621380
1685.004132	-11.633177
1685.951732	-11.645840
1686.900400	-11.657674
1687.850135	-11.670906
1688.800940	-11.683978
1689.752818	-11.697713
1690.705768	-11.712833
1691.659795	-11.727747
1692.614898	-11.744418
1693.571081	-11.761043
1694.528345	-11.778109
1695.486691	-11.796029
1696.446122	-11.813049
1697.406640	-11.831124
1698.368245	-11.848868
1699.330941	-11.866875
1700.294729	-11.886103
1701.259611	-11.905024
1702.225588	-11.925628
1703.192664	-11.946749
1704.160838	-11.968316
1705.130114	-11.991346
1706.100493	-12.014051
1707.071977	-12.037862
1708.044568	-12.062001
1709.018268	-12.085942
1709.993079	-12.111089
1710.969003	-12.135882
1711.946041	-12.161335
1712.924196	-12.187526
1713.903469	-12.213511
1714.883862	-12.240758
1715.865378	-12.268178
1716.848017	-12.295945
1717.831783	-12.324667
1718.816677	-12.353122
1719.802701	-12.382285
1720.789857	-12.411611
1721.778147	-12.440674
1722.767573	-12.470344
1723.758136	-12.499697
1724.749840	-12.529350
1725.742685	-12.559535
1726.736673	-12.589638
1727.731808	-12.620557
1728.728090	-12.651760
1729.725521	-12.683091
1730.724105	-12.715017
1731.723842	-12.746612
1732.724735	-12.778292
1733.726785	-12.810022
1734.729995	-12.841307
1735.734366	-12.872951
1736.739902	-12.904632
1737.746603	-12.936511
1738.754472	-12.969155
1739.763510	-13.001915
1740.773721	-13.035174
1741.785105	-13.068883
1742.797665	-13.102352
1743.811403	-13.136149
1744.826321	-13.169767
1745.842422	-13.203022
1746.859706	-13.236535
1747.878177	-13.269670
1748.897835	-13.302784
1749.918685	-13.336354
1750.940726	-13.369741
1751.963963	-13.403540
1752.988395	-13.437721
1754.014027	-13.471592
1755.040860	-13.505797
1756.068895	-13.539825
1757.098135	-13.573201
1758.128583	-13.606730
1759.160240	-13.639809
1760.193109	-13.672569
1761.227191	-13.705968
1762.262488	-13.739308
1763.299004	-13.772944
1764.336740	-13.807434
1765.375697	-13.841770
1766.415880	-13.876389
1767.457288	-13.911562
1768.499926	-13.946165
1769.543794	-13.980959
1770.588895	-14.016225
1771.635231	-14.051079
1772.682805	-14.086555
1773.731619	-14.122746
1774.781674	-14.158638
1775.832973	-14.195136
1776.885519	-14.232049
1777.939312	-14.268267
1778.994357	-14.304701
1780.050654	-14.341215
1781.108207	-14.376831
1782.167017	-14.412524
1783.227087	-14.448244
1784.288418	-14.483060
1785.351013	-14.517821
1786.414875	-14.552406
1787.480006	-14.585755
1788.546407	-14.618505
1789.614082	-14.650639
1790.683032	-14.681232
1791.753259	-14.711002
1792.824767	-14.740365
1793.897557	-14.768743
1794.971632	-14.796786
1796.046994	-14.824814
1797.123645	-14.852010
1798.201588	-14.878576
1799.280824	-14.904729
1800.361357	-14.929710
1801.443188	-14.953713
1802.526320	-14.977362
1803.610756	-15.000398
1804.696497	-15.023061
1805.783546	-15.045829
1806.871906	-15.068190
1807.961578	-15.089852
1809.052565	-15.111028
1810.144870	-15.131406
1811.238494	-15.150885
1812.333441	-15.169937
1813.429713	-15.188525
1814.527311	-15.206490
1815.626239	-15.224106
1816.726499	-15.241256
1817.828094	-15.257662
1818.931025	-15.273599
1820.035295	-15.289240
1821.140906	-15.304429
1822.247862	-15.319159
1823.356165	-15.333225
1824.465816	-15.346202
1825.576819	-15.358113
1826.689175	-15.369240
1827.802888	-15.379794
1828.917960	-15.390230
1830.034394	-15.400841
1831.152191	-15.411296
1832.271354	-15.421237
1833.391887	-15.430344
1834.513790	-15.438100
1835.637068	-15.444468
1836.761722	-15.450019
1837.887755	-15.455021
1839.015169	-15.459517
1840.143968	-15.463832
1841.274153	-15.467727
1842.405727	-15.470378
1843.538693	-15.471611
1844.673053	-15.471608
1845.808810	-15.470037
1846.945966	-15.466915
1848.084525	-15.462971
1849.224488	-15.458359
1850.365858	-15.452661
1851.508638	-15.446095
1852.652831	-15.438978
1853.798438	-15.430910
1854.945463	-15.421728
1856.093909	-15.411892
1857.243777	-15.401382
1858.395071	-15.389827
1859.547794	-15.377451
1860.701947	-15.364710
1861.857533	-15.351606
1863.014556	-15.338127
1864.173018	-15.324449
1865.332922	-15.310257
1866.494270	-15.294962
1867.657065	-15.278538
1868.821309	-15.261294
1869.987006	-15.243390
1871.154158	-15.225065
1872.322768	-15.206664
1873.492839	-15.188106
1874.664373	-15.168975
1875.837373	-15.149057
1877.011841	-15.128324
1878.187782	-15.106668
1879.365197	-15.084264
1880.544089	-15.061685
1881.724460	-15.039235
1882.906315	-15.016748
1884.089655	-14.994096
1885.274483	-14.971282
1886.460803	-14.948176
1887.648616	-14.924663
1888.837927	-14.900970
1890.028736	-14.877433
1891.221049	-14.854130
1892.414866	-14.830944
1893.610192	-14.807868
1894.807028	-14.784893
1896.005379	-14.761864
1897.205246	-14.738680
1898.406633	-14.715492
1899.609542	-14.692355
1900.813977	-14.669094
1902.019940	-14.645588
1903.227434	-14.621946
1904.436462	-14.598375
1905.647028	-14.574926
1906.859133	-14.551408
1908.072781	-14.527564
1909.287976	-14.503318
1910.504719	-14.478751
1911.723013	-14.453975
1912.942863	-14.429004
1914.164270	-14.403785
1915.387238	-14.378331
1916.611770	-14.352543
1917.837868	-14.326235
1919.065536	-14.299450
1920.294777	-14.272407
1921.525594	-14.245343
1922.757989	-14.218339
1923.991967	-14.191316
1925.227529	-14.164284
1926.464679	-14.137240
1927.703420	-14.110057
1928.943755	-14.082645
1930.185688	-14.055132
1931.429221	-14.027788
1932.674356	-14.000776
1933.921099	-13.973972
1935.169451	-13.947149
1936.419415	-13.920192
1937.670996	-13.893114
1938.924195	-13.866031
1940.179017	-13.839141
1941.435463	-13.812584
1942.693538	-13.786329
1943.953245	-13.760260
1945.214586	-13.734402
1946.477566	-13.708990
1947.742186	-13.684176
1949.008451	-13.659933
1950.276363	-13.636222
1951.545926	-13.613068
1952.817143	-13.590569
1954.090017	-13.568816
1955.364551	-13.547867
1956.640749	-13.527554
1957.918615	-13.507430
1959.198150	-13.487131
1960.479359	-13.466626
1961.762244	-13.446229
1963.046810	-13.426344
1964.333059	-13.407122
1965.620995	-13.388391
1966.910621	-13.369772
1968.201940	-13.350880
1969.494956	-13.331701
1970.789672	-13.312570
1972.086091	-13.293869
1973.384217	-13.275684
1974.684053	-13.257764
1975.985602	-13.239790
1977.288869	-13.221578
1978.593855	-13.203045
1979.900566	-13.184139
1981.209003	-13.164883
1982.519171	-13.145503
1983.831073	-13.126393
1985.144712	-13.107837
1986.460093	-13.089721
1987.777217	-13.071495
1989.096089	-13.052621
1990.416713	-13.033126
1991.739092	-13.013708
1993.063228	-12.995205
1994.389127	-12.977899
1995.716791	-12.961289
1997.046223	-12.944546
1998.377428	-12.927206
1999.710409	-12.909555
2001.045169	-12.892360
2002.381713	-12.876217
2003.720043	-12.861123
2005.060163	-12.846577
2006.402077	-12.832088
2007.745788	-12.817487
2009.091301	-12.803024
2010.438618	-12.789125
2011.787743	-12.776095
2013.138680	-12.764126
2014.491433	-12.753376
2015.846005	-12.743712
2017.202399	-12.734549
2018.560621	-12.725250
2019.920673	-12.715812
2021.282558	-12.706914
2022.646281	-12.699207
2024.011846	-12.692562
2025.379256	-12.686134
2026.748515	-12.679129
2028.119626	-12.671546
2029.492594	-12.664175
2030.867422	-12.657908
2032.244114	-12.653037
2033.622673	-12.648995
2035.003104	-12.644822
2036.385411	-12.639969
2037.769597	-12.634579
2039.155665	-12.629010
2040.543621	-12.623318
2041.933467	-12.617277
2043.325208	-12.610668
2044.718847	-12.603415
2046.114389	-12.595588
2047.511837	-12.587327
2048.911195	-12.578900
2050.312467	-12.570884
2051.715657	-12.563934
2053.120769	-12.558179
2054.527807	-12.552934
2055.936775	-12.547352
2057.347677	-12.541480
2058.760516	-12.536365
2060.175297	-12.532823
2061.592025	-12.530478
2063.010701	-12.528214
2064.431332	-12.525510
2065.853921	-12.522961
2067.278472	-12.521633
2068.704988	-12.522037
2070.133475	-12.523930
2071.563936	-12.526884
2072.996375	-12.530883
2074.430796	-12.536252
2075.867204	-12.543050
2077.305603	-12.550924
2078.745996	-12.559476
2080.188389	-12.568260
2081.632784	-12.576486
2083.079187	-12.583287
2084.527601	-12.588330
2085.978030	-12.591899
2087.430480	-12.594410
2088.884954	-12.596031
2090.341455	-12.596852
2091.799990	-12.597148
2093.260561	-12.597660
2094.723173	-12.599518
2096.187831	-12.603675
2097.654538	-12.610207
2099.123300	-12.618561
2100.594119	-12.628487
2102.067001	-12.640331
2103.541950	-12.654267
2105.018971	-12.669725
2106.498067	-12.685861
2107.979243	-12.702125
2109.462503	-12.718211
2110.947853	-12.733641
2112.435295	-12.747926
2113.924836	-12.761111
2115.416478	-12.773746
2116.910227	-12.785885
2118.406087	-12.796710
2119.904063	-12.805516
2121.404158	-12.812933
2122.906378	-12.820598
2124.410727	-12.829524
2125.917210	-12.839180
2127.425831	-12.848735
2128.936594	-12.858431
2130.449505	-12.869283
2131.964567	-12.882103
2133.481786	-12.897070
2135.001166	-12.913850
2136.522711	-12.931771
2138.046427	-12.950374
2139.572317	-12.970065
2141.100388	-12.991964
2142.630642	-13.016717
2144.163085	-13.043551
2145.697722	-13.071108
2147.234558	-13.099353
2148.773596	-13.129900
2150.314842	-13.164015
2151.858301	-13.201031
2153.403977	-13.239113
2154.951875	-13.276908
2156.502000	-13.314185
2158.054357	-13.351063
2159.608950	-13.387111
2161.165785	-13.421312
2162.724866	-13.452516
2164.286198	-13.479754
2165.849786	-13.502736
2167.415635	-13.522454
2168.983749	-13.540528
2170.554134	-13.557593
2172.126795	-13.572995
2173.701737	-13.586634
2175.278964	-13.600445
2176.858481	-13.617240
2178.440294	-13.638105
2180.024408	-13.661901
2181.610827	-13.687562
2183.199557	-13.715816
2184.790602	-13.748069
2186.383968	-13.784384
2187.979660	-13.823432
2189.577683	-13.864215
2191.178041	-13.906486
2192.780741	-13.950053
2194.385787	-13.994977
2195.993185	-14.041287
2197.602939	-14.088190
2199.215054	-14.134801
2200.829537	-14.181587
2202.446392	-14.229762
2204.065624	-14.279720
2205.687239	-14.330639
2207.311242	-14.382024
2208.937638	-14.434241
2210.566433	-14.487076
2212.197631	-14.539869
2213.831239	-14.593192
2215.467261	-14.647690
2217.105703	-14.702161
2218.746570	-14.755153
2220.389867	-14.807572
2222.035601	-14.861148
2223.683776	-14.914751
2225.334398	-14.965877
2226.987472	-15.015144
2228.643004	-15.065364
2230.300999	-15.116668
2231.961463	-15.166814
2233.624402	-15.215828
2235.289820	-15.265652
2236.957723	-15.316352
2238.628118	-15.366947
2240.301009	-15.418611
2241.976402	-15.473206
2243.654303	-15.529465
2245.334717	-15.585021
2247.017650	-15.641411
2248.703108	-15.701828
2250.391096	-15.765116
2252.081620	-15.828369
2253.774686	-15.893452
2255.470300	-15.963223
2257.168467	-16.034939
2258.869193	-16.105556
2260.572484	-16.177627
2262.278345	-16.253639
2263.986783	-16.331498
2265.697804	-16.409791
2267.411412	-16.489816
2269.127615	-16.571075
2270.846417	-16.651900
2272.567826	-16.733705
2274.291846	-16.818537
2276.018484	-16.904901
2277.747745	-16.990417
2279.479637	-17.075469
2281.214164	-17.161468
2282.951333	-17.248009
2284.691149	-17.334086
2286.433619	-17.420083
2288.178750	-17.505319
2289.926546	-17.587514
2291.677014	-17.667231
2293.430161	-17.746843
2295.185992	-17.825818
2296.944513	-17.903221
2298.705732	-17.980860
2300.469653	-18.059963
2302.236283	-18.139312
2304.005629	-18.218450
2305.777696	-18.299066
2307.552492	-18.382042
2309.330022	-18.466812
2311.110292	-18.554467
2312.893310	-18.645999
2314.679080	-18.739622
2316.467611	-18.835390
2318.258907	-18.936022
2320.052976	-19.040266
2321.849824	-19.144592
2323.649457	-19.249605
2325.451883	-19.358218
2327.257106	-19.471139
2329.065135	-19.586599
2330.875975	-19.702202
2332.689633	-19.817564
2334.506116	-19.934605
2336.325430	-20.054177
2338.147581	-20.174232
2339.972578	-20.293520
2341.800425	-20.414696
2343.631130	-20.539977
2345.464700	-20.665410
2347.301141	-20.785495
2349.140461	-20.902948
2350.982665	-21.023489
2352.827760	-21.144585
2354.675754	-21.260599
2356.526653	-21.371624
2358.380464	-21.481117
2360.237195	-21.591096
2362.096851	-21.697656
2363.959440	-21.796862
2365.824968	-21.895210
2367.693444	-22.000882
2369.564873	-22.109100
2371.439263	-22.211901
2373.316620	-22.316500
2375.196953	-22.432047
2377.080267	-22.552035
2378.966570	-22.668981
2380.855869	-22.788695
2382.748171	-22.919314
2384.643484	-23.057061
2386.541815	-23.192591
2388.443170	-23.328284
2390.347557	-23.472964
2392.254984	-23.624949
2394.165457	-23.774732
2396.078984	-23.922135
2397.995572	-24.076014
2399.915229	-24.236450
2401.837961	-24.392548
2403.763777	-24.544104
2405.692684	-24.703355
2407.624689	-24.867971
2409.559800	-25.027229
2411.498023	-25.182611
2413.439368	-25.340421
2415.383840	-25.500545
2417.331449	-25.656197
2419.282201	-25.805455
2421.236104	-25.954747
2423.193165	-26.101516
2425.153393	-26.232651
2427.116795	-26.352736
2429.083378	-26.476354
2431.053151	-26.596051
2433.026121	-26.704397
2435.002297	-26.812775
2436.981685	-26.923105
2438.964293	-27.031881
2440.950131	-27.152229
2442.939204	-27.283029
2444.931522	-27.412455
2446.927092	-27.552576
2448.925923	-27.707757
2450.928022	-27.862612
2452.933397	-28.025863
2454.942056	-28.203104
2456.954008	-28.373897
2458.969260	-28.548911
2460.987821	-28.742412
2463.009699	-28.934650
2465.034902	-29.128353
2467.063437	-29.330910
2469.095315	-29.526344
2471.130542	-29.728223
2473.169127	-29.935497
2475.211078	-30.126244
2477.256404	-30.327598
2479.305112	-30.541059
2481.357212	-30.729900
2483.412713	-30.919323
2485.471621	-31.126145
2487.533946	-31.304879
2489.599696	-31.469993
2491.668880	-31.644111
2493.741507	-31.789166
2495.817585	-31.917420
2497.897122	-32.042885
2499.980127	-32.142369
2502.066609	-32.234615
2504.156578	-32.322562
2506.250040	-32.399693
2508.347006	-32.483494
2510.447483	-32.572044
2512.551482	-32.677240
2514.659010	-32.815428
2516.770076	-32.962645
2518.884690	-33.114624
2521.002861	-33.293145
2523.124597	-33.478913
2525.249907	-33.677891
2527.378801	-33.902818
2529.511287	-34.125212
2531.647375	-34.355413
2533.787074	-34.597524
2535.930393	-34.837565
2538.077340	-35.100857
2540.227927	-35.374393
2542.382160	-35.637311
2544.540051	-35.911841
2546.701608	-36.188476
2548.866840	-36.451740
2551.035757	-36.730464
2553.208369	-37.011953
2555.384684	-37.271803
2557.564713	-37.526759
2559.748465	-37.772834
2561.935948	-37.976398
2564.127174	-38.159236
2566.322152	-38.315104
2568.520890	-38.412411
2570.723399	-38.464637
2572.929689	-38.501979
2575.139769	-38.527206
2577.353649	-38.517561
2579.571340	-38.483366
2581.792849	-38.463553
2584.018189	-38.486350
2586.247368	-38.550400
2588.480396	-38.649242
2590.717284	-38.754571
2592.958041	-38.883245
2595.202678	-39.042159
2597.451204	-39.249033
2599.703630	-39.485926
2601.959966	-39.674195
2604.220222	-39.886197
2606.484408	-40.145580
2608.752535	-40.468122
2611.024612	-40.802849
2613.300651	-41.084319
2615.580661	-41.434175
2617.864653	-41.849089
2620.152638	-42.269593
2622.444625	-42.714464
2624.740626	-43.143569
2627.040651	-43.550833
2629.344710	-44.097080
2631.652814	-44.697834
2633.964974	-45.100465
2636.281200	-45.473731
2638.601504	-45.922335
2640.925896	-46.276019
2643.254386	-46.417974
2645.586987	-46.443366
2647.923707	-46.294539
2650.264559	-46.161751
2652.609554	-46.013534
2654.958702	-45.627332
2657.312015	-45.371841
2659.669503	-45.285438
2662.031178	-45.115923
2664.397051	-44.986422
2666.767132	-45.036200
2669.141434	-45.010900
2671.519968	-45.095482
2673.902745	-45.241677
2676.289776	-45.160439
2678.681072	-45.255300
2681.076646	-45.480357
2683.476508	-45.527038
2685.880671	-45.702725
2688.289145	-46.029809
2690.701942	-46.306456
2693.119075	-46.567449
2695.540554	-46.985983
2697.966391	-47.342556
2700.396599	-47.824585
2702.831189	-48.534062
2705.270172	-48.914401
2707.713561	-49.679851
2710.161368	-50.646098
2712.613605	-51.401894
2715.070283	-52.790358
2717.531416	-53.861850
2719.997014	-55.118896
2722.467090	-56.408263
2724.941657	-57.192863
2727.420726	-57.426885
2729.904310	-57.176354
2732.392421	-56.332825
2734.885072	-55.601176
2737.382275	-54.990300
2739.884042	-54.048760
2742.390387	-54.115967
2744.901321	-53.563704
2747.416857	-53.250234
2749.937008	-53.250599
2752.461787	-52.922351
2754.991206	-52.796829
2757.525279	-52.259994
2760.064017	-52.029744
2762.607434	-51.985891
2765.155544	-51.804837
2767.708358	-51.518750
2770.265890	-51.706133
2772.828153	-51.711150
2775.395160	-51.533008
2777.966924	-51.834344
2780.543459	-51.951846
2783.124778	-52.157917
2785.710894	-52.438010
2788.301821	-52.788850
2790.897572	-53.517234
2793.498160	-54.226497
2796.103599	-54.853167
2798.713903	-56.254601
2801.329085	-57.714116
2803.949159	-58.501963
2806.574139	-60.730307
2809.204038	-63.111173
2811.838871	-63.591906
2814.478650	-66.074593
2817.123391	-67.044186
2819.773107	-66.842822
2822.427812	-66.348230
2825.087521	-67.666960
2827.752247	-68.203819
2830.422005	-67.901018
2833.096808	-70.597330
2835.776672	-68.087381
2838.461611	-65.967099
2841.151638	-65.848079
2843.846769	-63.291307
2846.547019	-62.338449
2849.252401	-61.729451
2851.962930	-60.545953
2854.678621	-59.718715
2857.399489	-59.282043
2860.125549	-58.770919
2862.856815	-57.833040
2865.593302	-57.674212
2868.335026	-57.784359
2871.082002	-57.364196
2873.834244	-57.652335
2876.591767	-58.294751
2879.354588	-58.418890
2882.122721	-59.241820
2884.896181	-60.365990
2887.674984	-61.419888
2890.459146	-62.283632
2893.248681	-63.906888
2896.043606	-65.019157
2898.843937	-65.610893
2901.649687	-67.087562
2904.460875	-66.774314
2907.277515	-65.812594
2910.099623	-66.095818
2912.927215	-65.972201
2915.760308	-66.448709
2918.598916	-67.448969
2921.443057	-68.464557
2924.292747	-69.611132
2927.148002	-71.881542
2930.008837	-73.415746
2932.875270	-75.204213
2935.747318	-77.637662
2938.624995	-76.985095
2941.508320	-73.594579
2944.397308	-72.176678
2947.291977	-69.885659
2950.192343	-68.149755
2953.098423	-66.715238
2956.010234	-66.067409
2958.927792	-64.971015
2961.851116	-64.750867
2964.780221	-64.818632
2967.715126	-64.791432
2970.655847	-65.185459
2973.602402	-66.259732
2976.554808	-66.678408
2979.513083	-68.871606
2982.477243	-69.793900
2985.447308	-71.279756
2988.423293	-75.540566
2991.405218	-74.344847
2994.393099	-75.287570
2997.386955	-72.627370
