# 2022-03-22_11.27.53
# shape = sech2
# FWHM_ps = 0.11
# carrier_nm = 1542
# frep_MHz = 12126
# pow_mW = 8000
# GDD = 0.0
# propa_len = 0.13933333333333334
# untap_len = 0.01
# taper_len = 0.07933333333333334
# waist_len = 0.02
# uptap_len = 0.02
# untap_scale = 1.0
# waist_scale = 0.1631578947368421
# workingDir = NL_20110305_12 (Spirou)
# axis = slow
# window_ps = 10.0
# steps = 200
# points = 21700
# 
# wavelength [nm]	 power spectral density [dB]
600.043425	-90.632733
600.163550	-91.977596
600.283723	-92.245991
600.403943	-90.119842
600.524212	-88.547516
600.644529	-88.603327
600.764895	-90.099542
600.885308	-91.859287
601.005770	-90.802589
601.126280	-88.145839
601.246839	-86.668864
601.367446	-86.516597
601.488101	-87.571081
601.608804	-88.281222
601.729557	-87.037781
601.850357	-85.643850
601.971206	-85.875229
602.092104	-87.537840
602.213050	-89.093238
602.334045	-88.653789
602.455089	-87.498748
602.576181	-86.963813
602.697322	-87.472078
602.818511	-88.705058
602.939749	-88.860170
603.061036	-87.172191
603.182372	-85.508753
603.303757	-85.397281
603.425191	-85.941456
603.546673	-86.171521
603.668204	-85.171297
603.789785	-84.494869
603.911414	-84.615436
604.033092	-85.817454
604.154820	-86.858543
604.276596	-86.970831
604.398422	-86.783067
604.520297	-86.905871
604.642220	-87.208727
604.764193	-87.214021
604.886216	-86.840319
605.008287	-86.350894
605.130408	-85.981280
605.252578	-86.084031
605.374798	-86.954535
605.497066	-88.019998
605.619385	-88.224117
605.741752	-88.525404
605.864169	-89.557043
605.986636	-90.937592
606.109152	-91.852908
606.231718	-90.689661
606.354333	-88.869701
606.476998	-87.153963
606.599712	-87.605701
606.722476	-89.422580
606.845290	-89.756506
606.968154	-87.734746
607.091067	-87.431164
607.214030	-89.452746
607.337043	-94.562142
607.460106	-97.476713
607.583219	-92.925829
607.706381	-90.521493
607.829594	-89.525373
607.952856	-91.076639
608.076169	-96.795363
608.199531	-94.121253
608.322944	-88.280097
608.446407	-86.749668
608.569920	-88.345871
608.693483	-92.028356
608.817096	-89.877364
608.940759	-86.557790
609.064473	-86.435622
609.188237	-89.371643
609.312051	-93.466456
609.435916	-92.004469
609.559831	-89.904163
609.683796	-89.710321
609.807812	-90.736088
609.931878	-94.076783
610.055995	-94.301085
610.180162	-90.705776
610.304380	-89.234078
610.428648	-90.999736
610.552967	-93.932489
610.677337	-92.962710
610.801757	-91.577299
610.926228	-94.083532
611.050750	-100.348572
611.175323	-100.300818
611.299946	-96.388984
611.424620	-97.953448
611.549345	-106.269739
611.674121	-105.947828
611.798948	-96.968069
611.923826	-93.646030
612.048755	-92.847469
612.173734	-95.104701
612.298765	-96.992959
612.423847	-91.767538
612.548980	-89.254980
612.674165	-90.000946
612.799400	-95.265090
612.924687	-94.734248
613.050025	-89.482320
613.175414	-87.850554
613.300854	-90.097906
613.426346	-97.225978
613.551889	-98.138648
613.677484	-91.754479
613.803130	-90.669791
613.928827	-92.897351
614.054576	-102.201986
614.180377	-103.146985
614.306229	-97.398538
614.432132	-95.917021
614.558087	-93.205984
614.684094	-91.825762
614.810153	-93.326062
614.936263	-93.295824
615.062425	-88.132949
615.188639	-85.599374
615.314904	-85.395748
615.441222	-86.423156
615.567591	-85.238321
615.694012	-83.782718
615.820486	-84.247356
615.947011	-87.125458
616.073588	-89.462457
616.200217	-89.874177
616.326898	-91.649767
616.453632	-99.427837
616.580417	-106.642235
616.707255	-100.073453
616.834144	-108.420758
616.961086	-95.863586
617.088081	-90.591218
617.215127	-89.883579
617.342226	-91.535898
617.469378	-90.285290
617.596581	-87.665582
617.723837	-86.441945
617.851146	-86.836984
617.978507	-88.178593
618.105920	-87.673344
618.233386	-85.580402
618.360905	-84.524079
618.488476	-85.483896
618.616100	-86.696991
618.743777	-85.578820
618.871506	-84.354993
618.999288	-84.973901
619.127123	-86.991415
619.255011	-88.618989
619.382951	-88.174566
619.510945	-88.015774
619.638991	-89.436940
619.767090	-92.562748
619.895243	-92.286139
620.023448	-88.904196
620.151706	-87.592968
620.280017	-88.953140
620.408382	-93.080504
620.536799	-94.714460
620.665270	-93.822316
620.793794	-96.919218
620.922371	-111.067655
621.051002	-96.701605
621.179686	-95.661686
621.308423	-105.227015
621.437213	-97.507343
621.566057	-93.205865
621.694954	-94.269516
621.823905	-100.096434
621.952909	-96.231058
622.081967	-94.591979
622.211079	-98.111683
622.340244	-104.306415
622.469462	-95.379919
622.598735	-94.925697
622.728061	-101.409779
622.857441	-107.330061
622.986874	-99.507143
623.116361	-97.059259
623.245903	-96.781197
623.375498	-97.109658
623.505147	-96.657740
623.634850	-92.612396
623.764606	-90.798554
623.894417	-91.134171
624.024282	-89.720298
624.154201	-87.290896
624.284174	-86.936621
624.414202	-87.041531
624.544283	-86.158411
624.674419	-85.638794
624.804609	-86.793912
624.934853	-88.076262
625.065151	-87.283054
625.195504	-87.146877
625.325911	-88.773734
625.456373	-92.065107
625.586889	-92.048596
625.717460	-90.645062
625.848085	-90.093952
625.978764	-90.531651
626.109498	-91.329407
626.240287	-90.524608
626.371131	-89.728722
626.502029	-90.217978
626.632982	-92.684927
626.763989	-95.068878
626.895052	-96.437135
627.026169	-96.873832
627.157341	-92.978566
627.288568	-89.291535
627.419850	-86.445530
627.551187	-84.106109
627.682579	-82.963130
627.814026	-82.523030
627.945528	-82.145796
628.077085	-81.798154
628.208697	-81.873836
628.340364	-82.611749
628.472087	-83.632127
628.603865	-84.662390
628.735698	-85.597356
628.867586	-85.443840
628.999530	-84.624308
629.131529	-82.622690
629.263584	-81.255244
629.395694	-80.514459
629.527859	-79.622644
629.660080	-79.075847
629.792357	-79.368223
629.924689	-80.854930
630.057077	-81.501560
630.189520	-81.522061
630.322019	-82.338400
630.454574	-84.358634
630.587184	-85.371501
630.719851	-85.689114
630.852573	-88.697634
630.985351	-93.175693
631.118185	-94.074655
631.251075	-88.512888
631.384021	-85.916924
631.517023	-84.997016
631.650081	-85.043627
631.783195	-83.294045
631.916365	-82.308986
632.049592	-82.950142
632.182874	-83.661461
632.316213	-83.103321
632.449608	-83.694095
632.583059	-86.503467
632.716567	-89.982063
632.850131	-90.864590
632.983751	-88.762211
633.117428	-86.334845
633.251161	-86.003417
633.384951	-85.317293
633.518797	-83.467376
633.652700	-82.467720
633.786660	-84.430751
633.920676	-87.404129
634.054749	-87.425980
634.188879	-89.918361
634.323065	-93.829980
634.457308	-92.597566
634.591608	-91.225047
634.725965	-87.207240
634.860379	-84.153642
634.994850	-84.101861
635.129377	-86.177975
635.263962	-86.338954
635.398604	-85.984346
635.533303	-88.788219
635.668058	-96.356159
635.802872	-103.357704
635.937742	-94.679634
636.072669	-88.881386
636.207654	-88.580067
636.342696	-90.293834
636.477796	-87.152293
636.612953	-84.569372
636.748167	-85.582068
636.883439	-86.580012
637.018768	-84.639881
637.154155	-84.436866
637.289599	-83.927045
637.425101	-81.098640
637.560660	-80.538360
637.696277	-82.211121
637.831952	-83.482435
637.967685	-83.295466
638.103475	-85.292088
638.239324	-88.756862
638.375230	-91.248476
638.511194	-96.153475
638.647215	-91.319445
638.783295	-87.318689
638.919433	-86.712112
639.055629	-84.605284
639.191883	-82.945896
639.328195	-84.174280
639.464565	-86.524288
639.600994	-87.355760
639.737481	-90.902042
639.874025	-97.540663
640.010629	-88.783662
640.147290	-87.267206
640.284010	-87.741767
640.420789	-85.329945
640.557625	-85.529589
640.694521	-88.324086
640.831474	-91.585557
640.968487	-96.894699
641.105558	-93.997423
641.242687	-87.346288
641.379876	-84.944566
641.517123	-83.255452
641.654429	-82.068347
641.791793	-82.147706
641.929216	-82.667368
642.066699	-83.143553
642.204240	-85.920738
642.341840	-88.435261
642.479499	-86.638696
642.617217	-86.089526
642.754994	-85.355215
642.892830	-84.416562
643.030726	-86.192890
643.168680	-87.041977
643.306694	-85.307247
643.444767	-85.112976
643.582899	-84.234708
643.721091	-82.086823
643.859342	-83.153300
643.997652	-85.072233
644.136022	-84.435961
644.274451	-85.779999
644.412940	-89.397252
644.551488	-86.614406
644.690096	-88.885366
644.828763	-91.541374
644.967490	-87.121511
645.106277	-87.712251
645.245124	-86.706223
645.384030	-84.580681
645.522997	-85.723064
645.662023	-86.813326
645.801109	-84.132340
645.940255	-85.789743
646.079460	-87.531939
646.218726	-84.876237
646.358052	-86.011266
646.497438	-87.467608
646.636884	-85.394062
646.776391	-89.245047
646.915957	-89.596845
647.055584	-84.236770
647.195271	-84.921604
647.335019	-85.236862
647.474826	-84.496101
647.614695	-86.586748
647.754623	-91.807177
647.894612	-91.710797
648.034662	-101.981773
648.174772	-90.533768
648.314943	-85.208440
648.455174	-85.072910
648.595466	-83.075392
648.735819	-82.134846
648.876233	-81.619015
649.016707	-80.119714
649.157242	-79.742023
649.297838	-80.794025
649.438495	-83.023312
649.579213	-86.087750
649.719992	-87.480144
649.860832	-87.544275
650.001733	-87.883281
650.142695	-89.636278
650.283718	-96.622513
650.424803	-97.849249
650.565949	-89.115302
650.707156	-85.334545
650.848424	-82.772583
650.989754	-81.335494
651.131145	-82.069902
651.272597	-84.449414
651.414111	-85.013449
651.555687	-84.658448
651.697324	-82.236204
651.839022	-80.448938
651.980782	-80.975221
652.122604	-81.758395
652.264488	-82.477809
652.406433	-85.826633
652.548441	-89.170878
652.690510	-90.101911
652.832640	-88.777233
652.974833	-84.045385
653.117088	-81.383678
653.259405	-80.501526
653.401784	-79.147401
653.544224	-79.390030
653.686727	-81.669835
653.829293	-85.338995
653.971920	-91.862655
654.114609	-98.252949
654.257361	-88.266430
654.400175	-86.202385
654.543052	-85.430100
654.685991	-85.024683
654.828992	-88.553537
654.972056	-93.499479
655.115183	-88.323684
655.258372	-84.168867
655.401623	-80.666413
655.544937	-79.977926
655.688314	-80.328872
655.831754	-80.098117
655.975256	-81.958162
656.118822	-84.292718
656.262450	-87.198912
656.406141	-94.209735
656.549894	-83.717319
656.693711	-80.650890
656.837591	-80.495803
656.981534	-80.110643
657.125540	-81.000319
657.269610	-83.540513
657.413742	-84.085383
657.557938	-84.145907
657.702196	-91.683815
657.846519	-91.530047
657.990904	-92.097581
658.135353	-96.613237
658.279866	-90.967808
658.424441	-98.638909
658.569081	-86.890789
658.713784	-84.478493
658.858550	-86.500254
659.003381	-81.230034
659.148274	-79.189473
659.293232	-78.991278
659.438253	-77.201964
659.583339	-77.307554
659.728488	-80.303303
659.873701	-80.870570
660.018978	-80.170783
660.164318	-83.347287
660.309723	-87.713637
660.455192	-85.735617
660.600725	-81.007727
660.746323	-79.595611
660.891984	-80.147289
661.037710	-78.963850
661.183500	-77.515343
661.329354	-79.529762
661.475272	-81.280352
661.621255	-80.498202
661.767303	-84.199701
661.913415	-91.367322
662.059591	-87.923897
662.205833	-97.221273
662.352138	-85.455500
662.498509	-83.615955
662.644944	-86.534521
662.791443	-84.124367
662.938008	-83.720283
663.084638	-90.683378
663.231332	-111.295235
663.378091	-95.778237
663.524915	-85.880620
663.671804	-83.529546
663.818759	-86.524780
663.965778	-87.156556
664.112863	-86.939426
664.260012	-91.429931
664.407227	-95.006298
664.554507	-89.429095
664.701853	-82.794372
664.849264	-79.830401
664.996740	-79.879270
665.144282	-80.685440
665.291889	-80.639388
665.439561	-83.759313
665.587300	-91.430134
665.735103	-90.097319
665.882973	-107.294056
666.030908	-87.007097
666.178909	-83.849142
666.326976	-83.644741
666.475109	-83.001759
666.623307	-84.696505
666.771571	-88.877776
666.919902	-89.196791
667.068298	-89.884938
667.216761	-94.928186
667.365289	-93.486219
667.513884	-87.368278
667.662545	-85.504778
667.811272	-84.840466
667.960065	-83.838695
668.108925	-83.340622
668.257851	-82.735598
668.406843	-84.484269
668.555902	-83.408659
668.705027	-80.505505
668.854219	-79.558402
669.003478	-79.524332
669.152803	-79.627867
669.302195	-81.136703
669.451653	-85.789305
669.601179	-84.523336
669.750771	-83.688295
669.900430	-86.045335
670.050156	-86.805469
670.199949	-85.349176
670.349808	-88.413235
670.499735	-90.343412
670.649729	-82.462804
670.799790	-80.959839
670.949918	-81.781375
671.100114	-80.415691
671.250377	-81.636007
671.400707	-87.509508
671.551104	-88.517692
671.701569	-93.699174
671.852101	-94.332584
672.002700	-88.167022
672.153368	-88.550745
672.304102	-84.183604
672.454905	-81.802146
672.605775	-82.396652
672.756713	-82.425923
672.907718	-82.001807
673.058791	-83.827028
673.209933	-86.136222
673.361142	-85.485275
673.512419	-83.192071
673.663764	-83.003577
673.815177	-82.423021
673.966658	-80.084929
674.118207	-80.793111
674.269825	-82.246408
674.421510	-81.820029
674.573264	-83.622488
674.725086	-89.440520
674.876977	-91.677673
675.028936	-87.791067
675.180963	-87.430350
675.333059	-90.706478
675.485224	-87.245130
675.637457	-86.486274
675.789758	-92.002255
675.942129	-87.776440
676.094568	-85.266750
676.247075	-89.060600
676.399652	-95.817003
676.552298	-89.183568
676.705012	-85.893846
676.857795	-87.036343
677.010648	-80.505348
677.163569	-77.612988
677.316560	-78.592112
677.469619	-78.228607
677.622748	-77.048447
677.775946	-77.305669
677.929214	-76.900310
678.082551	-76.857543
678.235957	-79.246300
678.389432	-85.017300
678.542977	-89.728890
678.696592	-92.712695
678.850276	-90.257776
679.004030	-87.353869
679.157853	-90.120993
679.311746	-89.353498
679.465709	-84.073313
679.619742	-81.936491
679.773844	-78.173600
679.928017	-76.381827
680.082259	-77.411898
680.236571	-79.130688
680.390954	-79.265897
680.545406	-80.742656
680.699929	-83.732364
680.854522	-84.440543
681.009185	-81.695656
681.163918	-79.891528
681.318722	-80.847180
681.473596	-82.010948
681.628540	-84.952071
681.783555	-95.606720
681.938641	-88.213707
682.093797	-83.230960
682.249023	-79.591388
682.404321	-78.707240
682.559689	-80.787885
682.715128	-80.671617
682.870637	-79.616042
683.026218	-82.777709
683.181869	-84.459289
683.337591	-85.243713
683.493385	-87.241053
683.649249	-88.593059
683.805185	-81.948645
683.961191	-79.698425
684.117269	-81.098937
684.273418	-78.121482
684.429639	-76.738431
684.585930	-79.167399
684.742294	-82.055287
684.898728	-82.206830
685.055234	-82.177235
685.211812	-83.934678
685.368461	-82.467079
685.525182	-77.858779
685.681975	-80.365719
685.838839	-96.315619
685.995775	-89.155045
686.152783	-93.148526
686.309863	-81.858986
686.467014	-85.622175
686.624238	-80.634127
686.781534	-76.954385
686.938902	-81.119757
687.096342	-86.662600
687.253854	-86.820763
687.411438	-79.749801
687.569095	-77.720461
687.726824	-81.389079
687.884626	-74.690598
688.042499	-73.166356
688.200446	-77.500349
688.358465	-85.503641
688.516556	-84.530015
688.674720	-87.463744
688.832957	-85.952270
688.991266	-76.141227
689.149649	-75.653674
689.308104	-82.712466
689.466632	-81.466905
689.625233	-80.790196
689.783906	-80.686427
689.942653	-80.693141
690.101473	-95.069160
690.260367	-78.085049
690.419333	-77.168179
690.578372	-80.552279
690.737485	-81.245910
690.896672	-84.562325
691.055931	-88.204714
691.215264	-81.844038
691.374671	-77.752559
691.534151	-77.571967
691.693704	-78.875392
691.853332	-78.607645
692.013033	-78.717154
692.172807	-79.903425
692.332656	-79.353726
692.492578	-78.101335
692.652575	-77.920731
692.812645	-79.925108
692.972789	-78.544978
693.133007	-78.588622
693.293300	-82.456350
693.453666	-86.472874
693.614107	-85.772496
693.774622	-80.184459
693.935211	-79.279426
694.095875	-80.991461
694.256613	-77.880349
694.417426	-77.919167
694.578313	-81.826672
694.739274	-80.562746
694.900311	-75.737899
695.061421	-76.572426
695.222607	-80.509176
695.383868	-75.912804
695.545203	-78.715455
695.706613	-78.972180
695.868098	-75.542890
696.029658	-80.750613
696.191293	-92.212565
696.353003	-84.172699
696.514789	-86.419420
696.676649	-87.136245
696.838585	-77.651315
697.000596	-78.365426
697.162682	-84.517210
697.324844	-77.045960
697.487081	-81.511414
697.649394	-84.205457
697.811782	-77.859153
697.974246	-81.346147
698.136786	-87.634164
698.299401	-80.728147
698.462092	-82.039797
698.624859	-85.903476
698.787702	-78.510477
698.950621	-91.261436
699.113616	-76.714953
699.276686	-77.107025
699.439833	-76.631928
699.603056	-71.306985
699.766355	-75.440459
699.929731	-76.367544
700.093183	-74.074273
700.256711	-85.843091
700.420315	-77.443963
700.583996	-80.955180
700.747754	-80.323456
700.911588	-84.618726
701.075499	-81.832412
701.239486	-80.503594
701.403550	-84.171983
701.567691	-75.593717
701.731909	-82.089449
701.896203	-85.497218
702.060575	-87.874802
702.225024	-78.986744
702.389549	-80.157439
702.554152	-80.083377
702.718832	-73.547505
702.883589	-78.923243
703.048424	-73.425441
703.213335	-74.762795
703.378324	-79.458012
703.543391	-73.930920
703.708535	-86.142755
703.873757	-77.623123
704.039056	-85.511750
704.204433	-76.578189
704.369887	-79.411575
704.535420	-76.289668
704.701030	-73.649827
704.866718	-87.167430
705.032484	-78.352958
705.198328	-84.873525
705.364250	-71.382176
705.530250	-71.663920
705.696328	-74.016290
705.862485	-71.289656
706.028720	-79.382709
706.195033	-76.423363
706.361424	-83.265264
706.527894	-77.197616
706.694442	-78.575648
706.861069	-71.402680
707.027775	-69.079118
707.194559	-70.290347
707.361422	-67.590437
707.528363	-70.666776
707.695384	-76.720906
707.862483	-78.129770
708.029661	-84.478353
708.196918	-79.460921
708.364254	-79.166506
708.531670	-70.978863
708.699164	-71.459118
708.866738	-67.389539
709.034391	-68.554439
709.202123	-71.226915
709.369935	-70.721996
709.537826	-89.959249
709.705796	-76.101473
709.873847	-75.333391
710.041976	-68.089470
710.210186	-70.977700
710.378475	-69.137123
710.546844	-69.874658
710.715292	-74.675101
710.883821	-73.586437
711.052429	-81.657445
711.221118	-71.320944
711.389887	-74.275422
711.558735	-68.670780
711.727664	-71.312586
711.896673	-68.785958
712.065763	-68.572918
712.234932	-71.467401
712.404183	-68.834522
712.573513	-73.257878
712.742924	-68.896739
712.912416	-74.175300
713.081988	-68.463606
713.251641	-68.897115
713.421375	-68.596444
713.591190	-69.141119
713.761085	-73.376829
713.931061	-69.945251
714.101119	-71.868396
714.271257	-69.028046
714.441476	-71.156559
714.611777	-72.233347
714.782159	-73.101666
714.952622	-71.910052
715.123166	-68.070527
715.293792	-68.884735
715.464499	-66.398913
715.635288	-69.599681
715.806158	-66.379010
715.977110	-67.823310
716.148143	-67.910867
716.319259	-67.688831
716.490456	-68.765864
716.661735	-66.851188
716.833096	-72.484342
717.004538	-67.271956
717.176063	-69.672855
717.347670	-65.730675
717.519359	-69.981146
717.691130	-68.040512
717.862984	-68.340990
718.034920	-65.200589
718.206938	-64.055666
718.379039	-66.468340
718.551222	-64.007071
718.723488	-70.026731
718.895836	-65.927331
719.068267	-73.359804
719.240781	-67.744846
719.413377	-74.432136
719.586057	-65.452701
719.758819	-66.619326
719.931664	-64.159990
720.104593	-64.710090
720.277604	-66.536678
720.450699	-65.022743
720.623876	-68.692293
720.797137	-65.489352
720.970482	-69.661323
721.143910	-65.928933
721.317421	-69.404214
721.491016	-64.268909
721.664694	-64.390750
721.838456	-63.258355
722.012302	-64.728530
722.186231	-67.861903
722.360244	-67.860383
722.534342	-70.731956
722.708523	-68.504603
722.882788	-65.966874
723.057137	-62.244457
723.231570	-61.916591
723.406088	-62.929227
723.580689	-65.388932
723.755375	-69.748892
723.930146	-66.252505
724.105000	-65.308880
724.279940	-62.699703
724.454963	-64.864478
724.630072	-63.203644
724.805265	-65.702726
724.980543	-64.801953
725.155905	-68.877274
725.331353	-67.850975
725.506885	-67.587385
725.682503	-62.429671
725.858205	-61.876613
726.033993	-61.764773
726.209865	-61.145766
726.385823	-66.369686
726.561866	-64.847116
726.737995	-67.197103
726.914209	-61.709115
727.090508	-64.814229
727.266893	-61.813072
727.443364	-66.968690
727.619920	-63.599119
727.796562	-69.477641
727.973290	-63.984074
728.150103	-65.530592
728.327003	-61.293965
728.503988	-63.049298
728.681060	-62.654486
728.858218	-63.490859
729.035461	-64.472836
729.212791	-64.909457
729.390208	-65.473042
729.567710	-63.616533
729.745299	-64.370995
729.922975	-63.415108
730.100737	-65.600511
730.278586	-62.923565
730.456521	-63.470216
730.634543	-61.799527
730.812652	-64.086038
730.990848	-62.681661
731.169130	-62.569854
731.347500	-60.996935
731.525957	-62.182581
731.704500	-65.466831
731.883131	-67.316706
732.061850	-65.213416
732.240655	-62.519229
732.419548	-62.435874
732.598528	-61.096656
732.777596	-64.229473
732.956751	-64.190712
733.135994	-67.794228
733.315325	-61.890127
733.494744	-63.077957
733.674250	-61.036909
733.853844	-65.068481
734.033526	-62.102261
734.213296	-64.269600
734.393154	-61.495158
734.573101	-65.107706
734.753135	-64.320057
734.933258	-67.041888
735.113469	-60.371293
735.293769	-61.357116
735.474157	-60.573057
735.654633	-63.037116
735.835198	-63.426876
736.015852	-64.604986
736.196594	-62.600418
736.377426	-62.783436
736.558346	-62.131984
736.739355	-63.675722
736.920453	-65.884520
737.101640	-64.295797
737.282916	-60.054404
737.464282	-59.852812
737.645736	-62.058273
737.827280	-62.410231
738.008914	-65.182669
738.190637	-64.695186
738.372449	-65.531307
738.554351	-63.660944
738.736342	-63.012770
738.918424	-62.322265
739.100595	-63.690782
739.282855	-63.407189
739.465206	-64.624592
739.647647	-62.831779
739.830178	-62.104466
740.012799	-61.286845
740.195510	-62.830275
740.378311	-63.400960
740.561203	-65.235054
740.744185	-64.875116
740.927258	-64.258051
741.110421	-62.307616
741.293674	-62.792989
741.477018	-63.855579
741.660453	-65.044917
741.843979	-64.391654
742.027596	-65.047456
742.211303	-63.683843
742.395102	-63.806277
742.578991	-61.561338
742.762972	-62.185924
742.947044	-63.310050
743.131207	-66.367958
743.315461	-65.006748
743.499807	-65.101655
743.684244	-60.688199
743.868773	-62.806033
744.053394	-62.948123
744.238106	-65.794371
744.422910	-63.245107
744.607805	-66.799015
744.792793	-64.114179
744.977872	-68.184238
745.163044	-63.304373
745.348307	-66.733949
745.533663	-61.682707
745.719111	-64.491035
745.904651	-63.416756
746.090283	-68.799938
746.276008	-65.554512
746.461826	-70.005557
746.647735	-64.216542
746.833738	-64.643684
747.019833	-61.989205
747.206021	-65.949317
747.392302	-68.214911
747.578676	-69.695604
747.765143	-63.980473
747.951703	-64.509368
748.138356	-63.527624
748.325102	-66.284066
748.511941	-67.143951
748.698874	-67.148039
748.885900	-63.854444
749.073019	-63.949425
749.260232	-66.535429
749.447539	-72.870247
749.634939	-70.980033
749.822433	-67.808321
750.010021	-64.347444
750.197703	-66.632584
750.385479	-65.598222
750.573348	-66.894368
750.761312	-66.892481
750.949370	-74.127948
751.137523	-67.904483
751.325769	-63.859288
751.514110	-59.586369
751.702545	-62.409373
751.891075	-63.194338
752.079700	-69.692786
752.268419	-77.298875
752.457233	-72.177770
752.646142	-67.052452
752.835145	-66.176565
753.024244	-64.262996
753.213437	-70.417603
753.402726	-69.816178
753.592110	-83.042331
753.781589	-72.834660
753.971163	-70.955929
754.160833	-69.187790
754.350598	-74.410744
754.540459	-71.738836
754.730415	-71.578333
754.920467	-70.734178
755.110615	-76.303397
755.300858	-75.657936
755.491198	-78.098221
755.681633	-82.763592
755.872164	-70.223420
756.062792	-70.601187
756.253515	-68.281632
756.444335	-68.141520
756.635252	-71.176094
756.826264	-69.524768
757.017373	-74.422243
757.208579	-76.135117
757.399881	-71.985170
757.591280	-80.409957
757.782776	-73.608642
757.974368	-76.427844
758.166058	-71.434401
758.357844	-75.215927
758.549728	-75.340662
758.741708	-78.264052
758.933786	-72.157959
759.125961	-75.474947
759.318233	-90.601591
759.510603	-74.686031
759.703071	-66.807479
759.895635	-66.440453
760.088298	-64.913614
760.281058	-70.720930
760.473916	-72.498947
760.666872	-76.189872
760.859926	-73.841413
761.053078	-79.783310
761.246328	-69.824733
761.439676	-65.963517
761.633122	-65.226007
761.826667	-67.363870
762.020310	-69.479588
762.214052	-86.277142
762.407892	-73.178182
762.601831	-65.573252
762.795868	-65.092883
762.990004	-65.953543
763.184239	-69.103239
763.378573	-66.337265
763.573006	-66.314188
763.767538	-63.933669
763.962169	-66.475753
764.156900	-64.428407
764.351729	-65.874516
764.546658	-66.345248
764.741687	-81.455415
764.936815	-66.801041
765.132042	-61.384344
765.327370	-60.754102
765.522797	-61.953451
765.718324	-63.551064
765.913950	-64.524843
766.109677	-68.146775
766.305504	-65.746173
766.501431	-63.409046
766.697458	-59.919634
766.893586	-60.923274
767.089814	-62.328058
767.286142	-67.263898
767.482571	-63.461403
767.679100	-59.767426
767.875730	-61.161939
768.072461	-62.988991
768.269293	-65.855666
768.466225	-62.266973
768.663259	-60.791565
768.860393	-58.902574
769.057629	-58.204808
769.254966	-60.253208
769.452404	-62.222915
769.649944	-62.180760
769.847585	-60.697947
770.045328	-60.140868
770.243172	-59.674367
770.441118	-59.654300
770.639166	-62.195020
770.837315	-61.185927
771.035567	-59.133625
771.233920	-58.473750
771.432376	-58.167421
771.630934	-58.769060
771.829594	-59.845108
772.028356	-61.390386
772.227220	-58.844436
772.426188	-57.181132
772.625257	-56.932136
772.824430	-58.097157
773.023705	-58.962106
773.223083	-58.791914
773.422563	-58.887353
773.622147	-57.920455
773.821834	-57.646429
774.021624	-56.480773
774.221517	-58.196382
774.421513	-58.940042
774.621613	-57.241461
774.821816	-56.503705
775.022122	-55.721551
775.222532	-57.187833
775.423046	-56.839300
775.623664	-58.257949
775.824385	-57.746620
776.025211	-56.933832
776.226140	-57.707730
776.427173	-56.393885
776.628311	-55.805918
776.829553	-54.775974
777.030899	-55.586879
777.232350	-55.970524
777.433905	-56.614358
777.635564	-56.839332
777.837328	-55.007479
778.039197	-54.613080
778.241171	-54.825617
778.443250	-56.448040
778.645433	-56.467717
778.847722	-56.768489
779.050116	-55.860272
779.252615	-54.054506
779.455219	-54.075836
779.657929	-54.562280
779.860744	-55.672096
780.063665	-55.248974
780.266691	-55.237255
780.469823	-54.486072
780.673061	-53.703284
780.876405	-53.944936
781.079855	-54.761490
781.283410	-56.097485
781.487072	-55.381303
781.690840	-54.352490
781.894715	-52.982982
782.098695	-53.097651
782.302783	-53.821111
782.506976	-54.147636
782.711277	-54.335652
782.915684	-53.252806
783.120198	-53.931142
783.324818	-54.137204
783.529546	-54.366542
783.734381	-54.024710
783.939322	-53.014907
784.144372	-53.406922
784.349528	-52.816090
784.554792	-53.026689
784.760163	-52.601227
784.965642	-52.460353
785.171228	-53.683520
785.376922	-54.634484
785.582724	-54.578009
785.788634	-52.613345
785.994651	-52.401546
786.200777	-52.630959
786.407011	-52.474977
786.613353	-52.748130
786.819804	-52.426354
787.026363	-53.036552
787.233030	-52.852430
787.439806	-52.978007
787.646691	-52.573312
787.853684	-52.063771
788.060786	-52.734291
788.267997	-51.952580
788.475317	-51.953840
788.682746	-52.202992
788.890285	-52.708028
789.097932	-52.094900
789.305689	-50.998834
789.513555	-52.554843
789.721531	-52.892703
789.929617	-52.230403
790.137812	-51.837192
790.346117	-51.382027
790.554531	-51.902240
790.763056	-51.327281
790.971691	-51.982355
791.180436	-52.404108
791.389291	-51.916806
791.598256	-51.729635
791.807332	-50.999558
792.016518	-51.716530
792.225815	-52.100905
792.435222	-52.450280
792.644740	-51.755263
792.854369	-50.292301
793.064109	-51.216394
793.273960	-52.046549
793.483922	-52.461014
793.693995	-51.155383
793.904180	-50.175020
794.114475	-51.845125
794.324882	-51.435621
794.535401	-51.098065
794.746031	-50.713199
794.956774	-50.375834
795.167627	-52.340940
795.378593	-51.922374
795.589671	-51.432787
795.800861	-50.824364
796.012162	-49.958161
796.223577	-51.720496
796.435103	-51.707094
796.646742	-50.937103
796.858493	-50.340701
797.070357	-50.058101
797.282334	-51.758831
797.494423	-51.334740
797.706626	-51.248755
797.918941	-51.072548
798.131369	-49.739221
798.343911	-50.154567
798.556566	-50.662960
798.769334	-52.100187
798.982215	-51.862907
799.195210	-50.430244
799.408319	-50.266944
799.621541	-49.476702
799.834877	-51.058593
800.048327	-52.451224
800.261890	-50.714594
800.475568	-50.284118
800.689360	-49.381378
800.903266	-50.241979
801.117287	-52.054943
801.331422	-51.412604
801.545671	-50.926230
801.760036	-49.724828
801.974514	-49.746580
802.189108	-51.080294
802.403816	-50.813393
802.618640	-51.428150
802.833578	-50.727524
803.048632	-49.820734
803.263800	-50.459827
803.479085	-50.074219
803.694484	-50.885784
803.909999	-51.447294
804.125630	-51.043184
804.341376	-50.892285
804.557239	-49.631911
804.773217	-50.293649
804.989311	-51.418711
805.205521	-51.046808
805.421847	-50.954998
805.638290	-49.265352
805.854849	-49.359873
806.071524	-51.682839
806.288316	-51.166276
806.505225	-50.959841
806.722250	-50.686271
806.939393	-49.715630
807.156652	-50.607000
807.374028	-50.626136
807.591521	-50.947080
807.809132	-51.132435
808.026859	-50.273905
808.244705	-51.165151
808.462667	-50.575504
808.680748	-49.574048
808.898946	-50.668032
809.117261	-51.010304
809.335695	-51.646479
809.554246	-51.168848
809.772916	-49.918740
809.991704	-50.796818
810.210610	-50.484096
810.429634	-50.166175
810.648777	-51.123134
810.868039	-50.586692
811.087419	-51.278652
811.306918	-51.260337
811.526535	-49.956127
811.746272	-50.993954
811.966127	-50.966916
812.186102	-50.908599
812.406196	-52.062146
812.626409	-50.405467
812.846742	-50.287537
813.067194	-51.221134
813.287766	-50.032609
813.508457	-51.051122
813.729269	-51.893150
813.950200	-51.594193
814.171251	-52.094040
814.392422	-49.617108
814.613714	-48.648631
814.835126	-51.479267
815.056658	-52.358151
815.278311	-52.372088
815.500084	-52.073298
815.721978	-49.275971
815.943993	-50.314174
816.166128	-52.883214
816.388385	-51.135701
816.610762	-51.337023
816.833261	-51.648967
817.055881	-50.254486
817.278623	-51.238018
817.501486	-51.139191
817.724471	-51.123771
817.947577	-53.297745
818.170805	-51.123072
818.394155	-49.588069
818.617627	-51.335777
818.841221	-52.411364
819.064937	-53.244472
819.288775	-52.115161
819.512736	-48.986500
819.736819	-50.194337
819.961025	-54.277870
820.185354	-53.084171
820.409805	-51.313697
820.634379	-50.384380
820.859076	-50.211470
821.083897	-53.153589
821.308840	-52.478388
821.533907	-50.605200
821.759097	-53.006087
821.984411	-52.719636
822.209848	-50.535735
822.435409	-51.133349
822.661093	-51.222486
822.886902	-53.558724
823.112834	-54.347256
823.338891	-50.019789
823.565072	-50.328929
823.791377	-53.199456
824.017807	-53.112451
824.244361	-52.085149
824.471039	-50.566008
824.697843	-49.947936
824.924771	-55.018545
825.151824	-54.421069
825.379002	-50.030346
825.606306	-51.159348
825.833734	-53.310150
826.061288	-53.844482
826.288967	-51.838281
826.516772	-50.300487
826.744703	-51.934839
826.972759	-55.163174
827.200941	-52.379827
827.429249	-50.475069
827.657683	-50.973459
827.886243	-52.428493
828.114930	-54.189354
828.343743	-51.786522
828.572682	-50.912248
828.801748	-52.707917
829.030941	-53.662099
829.260260	-51.956489
829.489706	-50.515573
829.719280	-51.994478
829.948980	-53.951399
830.178808	-51.939151
830.408763	-51.543624
830.638845	-51.873518
830.869055	-51.442193
831.099393	-52.300376
831.329858	-51.485978
831.560451	-51.393100
831.791173	-55.327490
832.022022	-52.818861
832.252999	-49.750725
832.484105	-51.074718
832.715339	-52.387331
832.946702	-53.258073
833.178193	-52.504701
833.409813	-50.194224
833.641561	-50.660040
833.873439	-53.562001
834.105445	-52.376689
834.337581	-50.646640
834.569846	-51.076553
834.802241	-52.192152
835.034764	-52.194854
835.267418	-51.136682
835.500201	-50.965957
835.733114	-50.396994
835.966157	-51.227668
836.199329	-51.978765
836.432632	-49.751200
836.666065	-50.306397
836.899629	-53.259542
837.133323	-50.923857
837.367147	-49.407793
837.601102	-50.242017
837.835188	-50.014544
838.069405	-51.239331
838.303752	-51.760019
838.538231	-49.185549
838.772841	-48.607146
839.007582	-51.078518
839.242455	-51.453047
839.477459	-49.373244
839.712595	-49.305511
839.947863	-50.600871
840.183263	-50.684827
840.418794	-49.302307
840.654458	-48.741275
840.890254	-48.403449
841.126182	-49.510996
841.362242	-50.754070
841.598435	-48.952984
841.834761	-48.199099
842.071220	-49.976149
842.307811	-49.754715
842.544536	-48.575953
842.781393	-48.342166
843.018384	-47.994184
843.255508	-48.263168
843.492765	-48.369969
843.730156	-48.417188
843.967681	-49.244207
844.205339	-48.122860
844.443132	-47.607502
844.681058	-48.004592
844.919118	-47.255482
845.157313	-47.585557
845.395642	-48.142086
845.634105	-47.681193
845.872703	-47.731056
846.111436	-47.375981
846.350303	-47.149174
846.589306	-47.186030
846.828443	-47.117456
847.067716	-47.388160
847.307124	-46.754489
847.546667	-46.781018
847.786345	-47.137128
848.026160	-46.349924
848.266110	-46.732365
848.506195	-46.583681
848.746417	-45.815079
848.986775	-46.466959
849.227269	-46.324682
849.467899	-45.959485
849.708666	-45.885895
849.949569	-45.676351
850.190609	-46.197769
850.431785	-45.635912
850.673099	-45.047008
850.914549	-45.569865
851.156137	-45.595073
851.397861	-45.518518
851.639723	-45.036108
851.881723	-44.844049
852.123860	-45.366572
852.366135	-44.964419
852.608547	-44.693081
852.851098	-44.503170
853.093786	-44.438799
853.336613	-45.221414
853.579578	-44.595137
853.822681	-43.897928
854.065923	-44.317950
854.309304	-44.399416
854.552823	-44.403813
854.796481	-43.963907
855.040278	-43.733963
855.284215	-44.153010
855.528290	-43.764613
855.772505	-43.539791
856.016859	-43.688692
856.261353	-43.615815
856.505987	-43.572952
856.750760	-43.265157
856.995673	-43.265535
857.240727	-43.292107
857.485920	-43.155068
857.731254	-43.159817
857.976729	-42.919871
858.222343	-42.938769
858.468099	-42.943525
858.713995	-42.810404
858.960032	-42.759193
859.206211	-42.519179
859.452530	-42.579909
859.698991	-42.509418
859.945593	-42.446011
860.192336	-42.401758
860.439222	-42.180523
860.686248	-42.386923
860.933417	-41.918848
861.180728	-41.886726
861.428181	-42.511677
861.675776	-41.829078
861.923514	-41.603499
862.171394	-41.695353
862.419417	-41.694697
862.667582	-41.854839
862.915890	-41.290096
863.164342	-41.383746
863.412936	-41.548217
863.661674	-41.258793
863.910555	-41.161243
864.159579	-40.937175
864.408747	-41.333877
864.658059	-41.198958
864.907515	-40.787509
865.157114	-40.868467
865.406858	-40.594907
865.656746	-40.914085
865.906778	-40.858774
866.156955	-40.379247
866.407277	-40.550703
866.657743	-40.554192
866.908354	-40.590894
867.159110	-40.272528
867.410011	-40.065541
867.661057	-40.454719
867.912249	-40.428943
868.163586	-40.165485
868.415069	-39.942075
868.666697	-39.930770
868.918472	-39.986672
869.170392	-40.120426
869.422458	-40.040980
869.674671	-39.492004
869.927030	-39.649726
870.179536	-40.010378
870.432188	-39.834576
870.684987	-39.437328
870.937933	-39.259432
871.191026	-39.681733
871.444266	-39.618701
871.697653	-39.394084
871.951188	-39.218868
872.204870	-38.990115
872.458700	-39.352432
872.712677	-39.338052
872.966803	-39.161852
873.221076	-38.962624
873.475498	-38.917379
873.730068	-39.261911
873.984787	-38.760541
874.239654	-38.692671
874.494669	-38.798847
874.749834	-38.668902
875.005147	-38.999991
875.260610	-38.488797
875.516222	-38.446951
875.771983	-38.807435
876.027894	-38.442029
876.283954	-38.343998
876.540164	-38.204857
876.796524	-38.463119
877.053033	-38.554797
877.309693	-38.056916
877.566503	-38.059806
877.823464	-38.194474
878.080575	-38.225225
878.337837	-38.014203
878.595249	-37.918088
878.852813	-37.976915
879.110528	-37.839826
879.368393	-37.918773
879.626410	-37.824811
879.884579	-37.709596
880.142899	-37.803049
880.401371	-37.596894
880.659994	-37.521984
880.918770	-37.681486
881.177698	-37.589262
881.436778	-37.453992
881.696010	-37.340558
881.955395	-37.378273
882.214933	-37.515789
882.474623	-37.207401
882.734467	-37.224180
882.994463	-37.308756
883.254613	-37.049788
883.514916	-37.162853
883.775372	-37.044700
884.035982	-37.077186
884.296746	-37.154102
884.557664	-36.732963
884.818735	-36.789748
885.079961	-37.074258
885.341341	-36.924550
885.602876	-36.504371
885.864565	-36.589902
886.126409	-36.997953
886.388407	-36.636153
886.650561	-36.296076
886.912870	-36.663814
887.175334	-36.759462
887.437953	-36.230103
887.700728	-36.339091
887.963658	-36.614152
888.226745	-36.394897
888.489987	-36.173617
888.753385	-36.119999
889.016940	-36.429709
889.280651	-36.297799
889.544518	-36.034474
889.808543	-36.029288
890.072723	-36.077134
890.337061	-36.211804
890.601556	-35.910916
890.866208	-35.911487
891.131017	-36.053433
891.395984	-35.899450
891.661109	-35.594783
891.926391	-35.695610
892.191831	-36.330607
892.457429	-35.669445
892.723186	-35.216213
892.989100	-35.737611
893.255173	-35.923085
893.521405	-35.629165
893.787796	-35.297789
894.054345	-35.545322
894.321053	-35.692990
894.587921	-35.330860
894.854948	-35.226809
895.122134	-35.595513
895.389480	-35.712062
895.656986	-34.946341
895.924651	-34.978113
896.192477	-35.703617
896.460463	-35.359132
896.728609	-34.839262
896.996915	-35.082608
897.265382	-35.541427
897.534010	-34.979738
897.802799	-34.604220
898.071749	-35.288714
898.340860	-35.382174
898.610132	-34.763267
898.879566	-34.570402
899.149162	-35.043927
899.418919	-35.264535
899.688838	-34.482040
899.958919	-34.547827
900.229162	-35.250496
900.499568	-34.711163
900.770136	-34.235529
901.040867	-34.685139
901.311761	-35.101718
901.582817	-34.428386
901.854037	-34.095519
902.125420	-34.868323
902.396966	-34.734499
902.668676	-34.101625
902.940550	-34.199972
903.212587	-34.672352
903.484788	-34.514739
903.757153	-34.006937
904.029683	-34.299913
904.302377	-34.373036
904.575236	-34.178955
904.848259	-34.002591
905.121447	-34.307001
905.394800	-34.490788
905.668319	-33.816403
905.942002	-33.866834
906.215852	-34.356307
906.489866	-34.100117
906.764047	-33.605595
907.038393	-34.140988
907.312906	-34.130316
907.587584	-33.591587
907.862429	-33.747708
908.137441	-33.999271
908.412619	-33.825329
908.687964	-33.516002
908.963476	-33.807999
909.239155	-33.815752
909.515002	-33.672790
909.791015	-33.438686
910.067197	-33.606326
910.343546	-33.676900
910.620063	-33.534791
910.896748	-33.300991
911.173601	-33.556616
911.450623	-33.903336
911.727813	-33.095857
912.005171	-33.352781
912.282699	-33.437004
912.560395	-33.357033
912.838261	-33.199768
913.116296	-33.297626
913.394500	-33.288370
913.672874	-33.052528
913.951418	-33.238892
914.230131	-33.046758
914.509015	-33.119708
914.788068	-32.955738
915.067292	-33.107578
915.346687	-32.735838
915.626252	-33.105771
915.905988	-32.898225
916.185895	-32.681565
916.465973	-33.007224
916.746223	-32.772127
917.026644	-32.811811
917.307236	-32.549604
917.588000	-32.983608
917.868937	-32.500143
918.150045	-32.738988
918.431325	-32.651764
918.712778	-32.546034
918.994404	-32.563443
919.276202	-32.467241
919.558173	-32.632674
919.840317	-32.235036
920.122634	-32.446913
920.405125	-32.348378
920.687789	-32.392973
920.970627	-32.055862
921.253639	-32.372882
921.536824	-32.129358
921.820184	-32.145685
922.103718	-32.100860
922.387427	-32.022531
922.671310	-32.129941
922.955368	-31.833007
923.239601	-32.129525
923.524009	-31.932744
923.808592	-31.891453
924.093351	-31.929043
924.378285	-32.053533
924.663396	-31.712892
924.948682	-31.858625
925.234144	-31.965109
925.519782	-31.879105
925.805597	-31.565113
926.091589	-32.050575
926.377757	-31.751723
926.664102	-31.610679
926.950624	-31.842638
927.237323	-31.657381
927.524200	-31.600319
927.811255	-31.648531
928.098487	-31.847259
928.385897	-31.208674
928.673485	-31.804977
928.961251	-31.420542
929.249196	-31.564467
929.537319	-31.321002
929.825621	-31.658451
930.114102	-31.407781
930.402762	-31.270129
930.691601	-31.535612
930.980620	-31.312215
931.269818	-31.483143
931.559196	-31.217226
931.848753	-31.379644
932.138491	-31.354664
932.428409	-31.329321
932.718508	-31.079419
933.008787	-31.519275
933.299246	-31.001890
933.589887	-31.244176
933.880709	-31.204546
934.171712	-31.053875
934.462896	-31.037453
934.754262	-31.139311
935.045810	-30.945553
935.337539	-30.866638
935.629451	-30.948744
935.921545	-31.004691
936.213822	-30.639538
936.506281	-30.865147
936.798922	-30.845039
937.091747	-30.615585
937.384755	-30.713008
937.677946	-30.710384
937.971321	-30.647169
938.264879	-30.517213
938.558621	-30.766087
938.852547	-30.464247
939.146657	-30.593527
939.440952	-30.568694
939.735431	-30.668268
940.030095	-30.246003
940.324943	-30.822554
940.619977	-30.377863
940.915196	-30.405607
941.210600	-30.555472
941.506189	-30.408524
941.801965	-30.460777
942.097926	-30.397339
942.394074	-30.278320
942.690407	-30.368623
942.986927	-30.296801
943.283634	-30.254110
943.580527	-30.059472
943.877608	-30.306776
944.174875	-30.108891
944.472330	-29.989933
944.769972	-30.054494
945.067802	-30.001300
945.365820	-29.922678
945.664026	-29.940226
945.962420	-29.775939
946.261002	-29.971356
946.559773	-29.722714
946.858733	-29.679033
947.157881	-29.977281
947.457219	-29.565716
947.756746	-29.749700
948.056462	-29.723707
948.356368	-29.667095
948.656464	-29.593239
948.956749	-29.753867
949.257225	-29.536384
949.557891	-29.744335
949.858748	-29.464748
950.159796	-29.820644
950.461034	-29.433570
950.762463	-29.660966
951.064084	-29.601939
951.365896	-29.489047
951.667900	-29.685648
951.970095	-29.455292
952.272483	-29.547662
952.575063	-29.590591
952.877835	-29.431762
953.180799	-29.546800
953.483956	-29.389976
953.787307	-29.524857
954.090850	-29.424468
954.394586	-29.341627
954.698516	-29.547759
955.002640	-29.211340
955.306957	-29.414088
955.611469	-29.374287
955.916174	-29.201878
956.221074	-29.367317
956.526169	-29.250727
956.831458	-29.198674
957.136942	-29.299199
957.442622	-29.188053
957.748496	-29.166868
958.054567	-29.163132
958.360833	-29.199439
958.667294	-29.091600
958.973952	-29.122971
959.280806	-29.120643
959.587857	-29.056697
959.895104	-29.058503
960.202548	-29.126809
960.510189	-28.972150
960.818027	-29.056564
961.126062	-28.971403
961.434295	-29.040332
961.742726	-28.934794
962.051355	-29.034473
962.360182	-28.838976
962.669207	-28.975398
962.978431	-28.909750
963.287854	-28.936656
963.597475	-28.779376
963.907296	-28.963204
964.217315	-28.713122
964.527535	-28.928858
964.837954	-28.783007
965.148573	-28.702527
965.459392	-28.823076
965.770411	-28.721776
966.081630	-28.636125
966.393051	-28.805978
966.704672	-28.523764
967.016494	-28.777255
967.328517	-28.448481
967.640742	-28.744576
967.953169	-28.444084
968.265797	-28.633057
968.578627	-28.471487
968.891660	-28.502442
969.204895	-28.420280
969.518332	-28.547939
969.831972	-28.342906
970.145816	-28.479631
970.459862	-28.305162
970.774112	-28.465636
971.088565	-28.241870
971.403223	-28.464980
971.718084	-28.202280
972.033149	-28.350026
972.348419	-28.325880
972.663893	-28.154835
972.979572	-28.359619
973.295456	-28.186275
973.611546	-28.227229
973.927840	-28.200472
974.244340	-28.269737
974.561046	-27.970345
974.877958	-28.424701
975.195076	-27.945596
975.512401	-28.209004
975.829932	-28.088588
976.147670	-28.115893
976.465615	-27.910571
976.783767	-28.358353
977.102126	-27.711900
977.420693	-28.211573
977.739468	-27.969322
978.058451	-27.921236
978.377642	-27.965056
978.697041	-28.052481
979.016649	-27.744539
979.336466	-28.135160
979.656492	-27.708650
979.976727	-28.029239
980.297171	-27.818537
980.617825	-27.913973
980.938689	-27.822475
981.259763	-27.939127
981.581048	-27.727221
981.902542	-27.960111
982.224248	-27.794697
982.546164	-27.816215
982.868291	-27.890993
983.190630	-27.769900
983.513180	-27.885672
983.835942	-27.732247
984.158916	-27.917518
984.482101	-27.679792
984.805500	-27.956006
985.129110	-27.655294
985.452934	-27.855625
985.776970	-27.761147
986.101220	-27.695800
986.425683	-27.838195
986.750359	-27.651758
987.075250	-27.727069
987.400354	-27.687126
987.725673	-27.688350
988.051206	-27.566123
988.376954	-27.752716
988.702916	-27.465563
989.029094	-27.731082
989.355487	-27.373338
989.682095	-27.748034
990.008919	-27.243544
990.335959	-27.793665
990.663216	-27.156050
990.990688	-27.679243
991.318377	-27.303367
991.646283	-27.355213
991.974406	-27.484531
992.302746	-27.243770
992.631304	-27.356036
992.960079	-27.387107
993.289072	-27.160706
993.618283	-27.394581
993.947713	-27.198598
994.277361	-27.158594
994.607227	-27.460571
994.937313	-26.833465
995.267618	-27.592567
995.598142	-26.869652
995.928886	-27.284527
996.259849	-27.134185
996.591033	-27.022544
996.922437	-27.198722
997.254061	-26.933601
997.585906	-27.197334
997.917972	-26.831131
998.250260	-27.218610
998.582768	-26.678907
998.915498	-27.275956
999.248450	-26.603420
999.581624	-27.148139
999.915020	-26.669782
1000.248639	-26.961413
1000.582480	-26.723358
1000.916545	-26.854049
1001.250832	-26.658210
1001.585343	-26.831000
1001.920077	-26.652707
1002.255035	-26.650665
1002.590218	-26.788485
1002.925624	-26.465627
1003.261255	-26.770898
1003.597111	-26.522006
1003.933192	-26.549454
1004.269497	-26.689586
1004.606029	-26.360482
1004.942785	-26.709391
1005.279768	-26.367641
1005.616977	-26.575767
1005.954412	-26.406811
1006.292074	-26.515806
1006.629962	-26.366222
1006.968077	-26.496620
1007.306420	-26.310714
1007.644990	-26.436072
1007.983787	-26.375246
1008.322813	-26.239959
1008.662067	-26.467256
1009.001549	-26.157334
1009.341259	-26.362710
1009.681199	-26.274828
1010.021367	-26.113945
1010.361765	-26.432691
1010.702392	-25.968261
1011.043250	-26.409826
1011.384337	-26.003155
1011.725654	-26.233227
1012.067202	-26.118324
1012.408980	-26.064870
1012.750989	-26.174673
1013.093230	-25.989714
1013.435702	-26.133273
1013.778405	-25.964384
1014.121341	-26.108687
1014.464508	-25.861413
1014.807908	-26.118504
1015.151540	-25.789681
1015.495405	-26.049106
1015.839503	-25.770482
1016.183835	-25.908673
1016.528400	-25.819384
1016.873198	-25.736161
1017.218231	-25.800626
1017.563498	-25.673884
1017.908999	-25.687411
1018.254735	-25.635336
1018.600707	-25.587456
1018.946913	-25.562243
1019.293354	-25.535166
1019.640032	-25.428890
1019.986945	-25.525546
1020.334094	-25.307694
1020.681480	-25.444830
1021.029102	-25.275085
1021.376961	-25.319524
1021.725058	-25.245334
1022.073391	-25.227557
1022.421962	-25.170448
1022.770772	-25.194829
1023.119819	-25.054853
1023.469104	-25.184627
1023.818628	-24.955776
1024.168391	-25.142572
1024.518393	-24.929796
1024.868634	-25.012184
1025.219115	-24.966138
1025.569836	-24.891563
1025.920796	-24.965695
1026.271997	-24.826971
1026.623438	-24.913340
1026.975121	-24.822579
1027.327044	-24.812710
1027.679208	-24.836854
1028.031614	-24.717255
1028.384262	-24.833680
1028.737152	-24.694407
1029.090284	-24.741139
1029.443659	-24.703055
1029.797276	-24.673522
1030.151137	-24.670780
1030.505240	-24.645725
1030.859587	-24.607834
1031.214178	-24.640554
1031.569013	-24.545878
1031.924093	-24.614763
1032.279417	-24.506184
1032.634985	-24.550290
1032.990799	-24.520598
1033.346858	-24.445822
1033.703162	-24.523391
1034.059712	-24.367771
1034.416509	-24.489250
1034.773551	-24.320196
1035.130841	-24.408581
1035.488377	-24.295465
1035.846160	-24.321249
1036.204190	-24.252599
1036.562468	-24.225856
1036.920994	-24.200359
1037.279768	-24.159071
1037.638790	-24.099281
1037.998061	-24.113210
1038.357581	-23.991866
1038.717350	-24.063947
1039.077368	-23.889903
1039.437636	-23.983937
1039.798154	-23.811821
1040.158922	-23.898354
1040.519940	-23.730037
1040.881209	-23.806551
1041.242729	-23.640594
1041.604501	-23.738928
1041.966524	-23.527958
1042.328798	-23.676706
1042.691325	-23.416176
1043.054103	-23.612930
1043.417135	-23.312386
1043.780419	-23.535525
1044.143956	-23.224862
1044.507746	-23.456940
1044.871791	-23.132262
1045.236088	-23.371735
1045.600641	-23.066688
1045.965447	-23.278716
1046.330508	-23.012779
1046.695824	-23.163634
1047.061395	-22.984134
1047.427222	-23.050318
1047.793304	-22.950298
1048.159642	-22.960759
1048.526237	-22.896109
1048.893088	-22.906594
1049.260196	-22.803794
1049.627561	-22.891195
1049.995183	-22.711573
1050.363063	-22.869543
1050.731201	-22.634912
1051.099597	-22.837267
1051.468251	-22.593739
1051.837164	-22.767625
1052.206336	-22.572216
1052.575767	-22.712710
1052.945458	-22.551468
1053.315409	-22.646158
1053.685619	-22.533012
1054.056090	-22.588262
1054.426821	-22.544294
1054.797814	-22.472787
1055.169067	-22.604665
1055.540582	-22.334894
1055.912359	-22.674726
1056.284398	-22.226084
1056.656698	-22.663561
1057.029262	-22.231398
1057.402088	-22.524869
1057.775177	-22.335643
1058.148530	-22.328415
1058.522146	-22.458986
1058.896027	-22.169787
1059.270171	-22.485514
1059.644580	-22.136206
1060.019254	-22.406010
1060.394193	-22.150475
1060.769397	-22.294365
1061.144867	-22.165928
1061.520602	-22.222601
1061.896604	-22.113355
1062.272872	-22.187365
1062.649407	-22.069166
1063.026210	-22.102198
1063.403279	-22.079189
1063.780616	-21.981120
1064.158221	-22.093657
1064.536094	-21.881612
1064.914235	-22.047371
1065.292645	-21.875257
1065.671325	-21.905511
1066.050273	-21.916443
1066.429491	-21.759606
1066.808979	-21.919385
1067.188738	-21.694325
1067.568766	-21.804053
1067.949066	-21.728678
1068.329636	-21.630456
1068.710478	-21.761987
1069.091592	-21.515399
1069.472977	-21.690081
1069.854635	-21.510749
1070.236565	-21.536696
1070.618768	-21.540385
1071.001243	-21.420484
1071.383993	-21.480349
1071.767016	-21.411103
1072.150313	-21.355524
1072.533884	-21.423212
1072.917730	-21.262988
1073.301850	-21.342938
1073.686246	-21.314844
1074.070917	-21.143321
1074.455864	-21.374689
1074.841087	-21.061330
1075.226586	-21.244780
1075.612362	-21.150087
1075.998415	-20.997845
1076.384745	-21.242981
1076.771353	-20.885650
1077.158238	-21.103006
1077.545401	-20.969573
1077.932843	-20.877974
1078.320564	-21.006708
1078.708564	-20.792426
1079.096842	-20.881429
1079.485401	-20.832576
1079.874240	-20.701905
1080.263358	-20.822573
1080.652757	-20.673077
1081.042438	-20.635477
1081.432399	-20.719156
1081.822641	-20.518825
1082.213166	-20.588030
1082.603972	-20.551759
1082.995061	-20.395583
1083.386433	-20.523865
1083.778087	-20.328282
1084.170025	-20.334794
1084.562246	-20.366296
1084.954751	-20.144213
1085.347541	-20.290314
1085.740615	-20.118033
1086.133973	-20.088836
1086.527617	-20.122216
1086.921546	-19.966728
1087.315761	-20.019990
1087.710262	-19.943501
1088.105050	-19.881008
1088.500124	-19.924628
1088.895485	-19.799722
1089.291134	-19.835481
1089.687070	-19.793116
1090.083294	-19.725319
1090.479806	-19.774146
1090.876607	-19.649920
1091.273696	-19.734975
1091.671075	-19.597444
1092.068744	-19.653245
1092.466702	-19.610376
1092.864950	-19.515509
1093.263489	-19.639000
1093.662319	-19.432191
1094.061440	-19.569766
1094.460852	-19.463792
1094.860555	-19.424790
1095.260551	-19.527993
1095.660840	-19.348548
1096.061421	-19.471598
1096.462295	-19.429451
1096.863462	-19.335441
1097.264923	-19.504459
1097.666678	-19.332317
1098.068727	-19.425852
1098.471071	-19.444336
1098.873710	-19.343996
1099.276644	-19.474310
1099.679874	-19.390405
1100.083400	-19.385069
1100.487222	-19.472349
1100.891340	-19.342965
1101.295756	-19.411797
1101.700468	-19.417045
1102.105478	-19.289263
1102.510787	-19.408025
1102.916393	-19.293384
1103.322298	-19.262553
1103.728502	-19.309427
1104.135005	-19.190583
1104.541807	-19.195754
1104.948909	-19.190478
1105.356312	-19.095317
1105.764015	-19.107749
1106.172019	-19.084897
1106.580324	-19.002760
1106.988931	-19.039220
1107.397840	-18.986368
1107.807051	-18.937034
1108.216564	-18.981715
1108.626380	-18.907408
1109.036500	-18.891525
1109.446923	-18.925204
1109.857649	-18.838025
1110.268680	-18.847209
1110.680016	-18.850919
1111.091657	-18.766629
1111.503602	-18.767299
1111.915854	-18.761180
1112.328411	-18.649162
1112.741275	-18.663800
1113.154445	-18.619581
1113.567922	-18.502651
1113.981706	-18.520949
1114.395798	-18.440893
1114.810198	-18.332434
1115.224906	-18.365265
1115.639923	-18.229355
1116.055249	-18.192479
1116.470884	-18.183525
1116.886829	-18.055812
1117.303084	-18.073868
1117.719650	-18.024346
1118.136526	-17.941824
1118.553713	-17.991630
1118.971212	-17.911767
1119.389022	-17.902040
1119.807145	-17.938259
1120.225580	-17.880990
1120.644328	-17.895365
1121.063389	-17.949552
1121.482763	-17.885150
1121.902452	-17.932552
1122.322454	-17.984984
1122.742771	-17.911003
1123.163404	-17.981197
1123.584351	-18.019197
1124.005614	-17.921550
1124.427193	-18.021768
1124.849089	-18.001288
1125.271301	-17.915258
1125.693830	-17.995766
1126.116677	-17.945670
1126.539842	-17.845583
1126.963324	-17.919386
1127.387126	-17.826670
1127.811246	-17.734517
1128.235685	-17.780798
1128.660444	-17.679281
1129.085522	-17.578977
1129.510922	-17.626860
1129.936641	-17.505139
1130.362682	-17.426010
1130.789044	-17.464305
1131.215728	-17.349770
1131.642734	-17.284372
1132.070063	-17.333066
1132.497714	-17.213984
1132.925689	-17.192740
1133.353987	-17.217174
1133.782610	-17.141488
1134.211556	-17.119620
1134.640827	-17.155082
1135.070424	-17.104917
1135.500345	-17.072248
1135.930593	-17.142329
1136.361166	-17.077065
1136.792067	-17.059716
1137.223294	-17.146318
1137.654848	-17.044373
1138.086730	-17.082074
1138.518940	-17.114143
1138.951479	-17.037271
1139.384346	-17.075235
1139.817543	-17.067504
1140.251069	-17.023921
1140.684925	-17.024933
1141.119111	-17.014398
1141.553628	-16.976483
1141.988475	-16.942148
1142.423655	-16.948514
1142.859166	-16.892457
1143.295009	-16.842698
1143.731185	-16.861486
1144.167694	-16.791825
1144.604536	-16.728470
1145.041711	-16.764923
1145.479221	-16.684226
1145.917065	-16.611511
1146.355245	-16.671038
1146.793759	-16.577749
1147.232609	-16.505756
1147.671795	-16.583272
1148.111317	-16.484993
1148.551177	-16.413655
1148.991373	-16.509423
1149.431907	-16.401315
1149.872779	-16.348217
1150.313989	-16.437054
1150.755538	-16.340751
1151.197426	-16.297083
1151.639653	-16.374638
1152.082220	-16.293365
1152.525128	-16.260932
1152.968376	-16.312475
1153.411966	-16.263186
1153.855897	-16.218790
1154.300169	-16.260830
1154.744784	-16.230674
1155.189742	-16.179461
1155.635042	-16.208614
1156.080687	-16.194837
1156.526674	-16.137715
1156.973007	-16.159657
1157.419683	-16.143596
1157.866705	-16.094912
1158.314072	-16.108177
1158.761786	-16.083307
1159.209845	-16.037188
1159.658251	-16.059443
1160.107004	-16.019377
1160.556104	-15.963170
1161.005553	-16.004538
1161.455349	-15.958642
1161.905494	-15.885566
1162.355989	-15.924033
1162.806832	-15.907773
1163.258026	-15.809785
1163.709570	-15.823594
1164.161464	-15.845200
1164.613710	-15.750964
1165.066307	-15.712550
1165.519256	-15.766365
1165.972558	-15.694454
1166.426212	-15.616604
1166.880219	-15.668712
1167.334580	-15.630288
1167.789295	-15.536913
1168.244364	-15.570094
1168.699788	-15.553739
1169.155567	-15.466400
1169.611702	-15.475871
1170.068193	-15.474556
1170.525041	-15.405319
1170.982245	-15.382220
1171.439807	-15.399467
1171.897726	-15.351936
1172.356004	-15.301709
1172.814640	-15.321632
1173.273635	-15.302959
1173.732989	-15.241708
1174.192703	-15.252377
1174.652778	-15.243616
1175.113213	-15.201313
1175.574009	-15.199158
1176.035167	-15.182272
1176.496687	-15.164801
1176.958569	-15.157943
1177.420814	-15.135944
1177.883422	-15.126133
1178.346394	-15.120056
1178.809730	-15.104657
1179.273430	-15.093064
1179.737496	-15.080109
1180.201927	-15.081681
1180.666723	-15.063145
1181.131886	-15.049098
1181.597416	-15.053703
1182.063312	-15.036513
1182.529576	-15.025446
1182.996209	-15.023640
1183.463209	-15.010597
1183.930579	-15.002741
1184.398317	-14.993689
1184.866426	-14.986285
1185.334904	-14.976033
1185.803754	-14.961834
1186.272974	-14.962544
1186.742566	-14.943901
1187.212529	-14.930863
1187.682865	-14.929085
1188.153574	-14.909355
1188.624656	-14.900668
1189.096112	-14.885073
1189.567942	-14.868223
1190.040147	-14.864273
1190.512726	-14.839199
1190.985681	-14.820267
1191.459012	-14.811043
1191.932720	-14.789095
1192.406804	-14.772987
1192.881265	-14.743198
1193.356104	-14.725025
1193.831322	-14.718082
1194.306918	-14.681329
1194.782893	-14.647643
1195.259248	-14.638922
1195.735982	-14.623463
1196.213097	-14.580062
1196.690593	-14.541611
1197.168471	-14.541781
1197.646730	-14.524177
1198.125371	-14.461778
1198.604395	-14.432220
1199.083803	-14.445949
1199.563594	-14.414099
1200.043769	-14.334642
1200.524329	-14.330453
1201.005273	-14.355264
1201.486604	-14.288910
1201.968320	-14.215980
1202.450422	-14.239758
1202.932912	-14.265291
1203.415789	-14.162444
1203.899054	-14.100340
1204.382707	-14.180580
1204.866748	-14.161570
1205.351179	-14.032291
1205.836000	-14.026396
1206.321211	-14.114725
1206.806812	-14.056455
1207.292805	-13.917288
1207.779189	-13.975923
1208.265965	-14.056158
1208.753134	-13.927999
1209.240696	-13.847316
1209.728651	-13.943426
1210.217000	-13.968887
1210.705744	-13.823596
1211.194883	-13.804794
1211.684417	-13.915130
1212.174347	-13.860378
1212.664673	-13.751667
1213.155396	-13.791519
1213.646516	-13.855671
1214.138034	-13.767247
1214.629951	-13.708056
1215.122266	-13.781457
1215.614980	-13.778129
1216.108095	-13.695209
1216.601609	-13.691771
1217.095524	-13.748712
1217.589841	-13.705392
1218.084559	-13.644291
1218.579679	-13.683759
1219.075202	-13.695498
1219.571128	-13.643071
1220.067458	-13.616537
1220.564191	-13.655453
1221.061330	-13.641212
1221.558874	-13.587393
1222.056823	-13.598533
1222.555178	-13.605347
1223.053940	-13.584438
1223.553109	-13.549588
1224.052686	-13.555162
1224.552671	-13.554768
1225.053065	-13.519625
1225.553867	-13.513339
1226.055079	-13.496838
1226.556702	-13.485503
1227.058735	-13.468837
1227.561179	-13.449701
1228.064035	-13.430304
1228.567303	-13.411100
1229.070983	-13.406400
1229.575077	-13.374654
1230.079585	-13.348993
1230.584506	-13.337147
1231.089842	-13.327898
1231.595594	-13.290345
1232.101761	-13.260307
1232.608345	-13.260994
1233.115345	-13.235545
1233.622762	-13.200665
1234.130597	-13.174329
1234.638851	-13.173098
1235.147523	-13.144709
1235.656615	-13.106685
1236.166126	-13.092225
1236.676058	-13.081350
1237.186411	-13.056414
1237.697185	-13.017742
1238.208381	-13.011555
1238.719999	-12.995960
1239.232040	-12.970407
1239.744505	-12.940685
1240.257394	-12.931080
1240.770708	-12.922759
1241.284446	-12.889707
1241.798610	-12.873256
1242.313201	-12.860762
1242.828218	-12.854905
1243.343662	-12.824149
1243.859534	-12.809903
1244.375834	-12.804862
1244.892563	-12.791856
1245.409721	-12.772029
1245.927309	-12.754546
1246.445327	-12.758535
1246.963777	-12.739144
1247.482657	-12.727058
1248.001970	-12.713179
1248.521716	-12.714393
1249.041894	-12.701468
1249.562506	-12.686566
1250.083553	-12.683148
1250.605034	-12.677095
1251.126950	-12.671729
1251.649302	-12.656105
1252.172091	-12.658483
1252.695316	-12.649942
1253.218979	-12.646453
1253.743079	-12.637038
1254.267619	-12.636681
1254.792597	-12.632695
1255.318015	-12.626671
1255.843874	-12.623892
1256.370173	-12.622695
1256.896913	-12.619417
1257.424095	-12.614142
1257.951720	-12.615421
1258.479787	-12.612790
1259.008298	-12.610687
1259.537254	-12.604752
1260.066654	-12.610154
1260.596499	-12.604526
1261.126790	-12.603540
1261.657527	-12.597673
1262.188711	-12.602734
1262.720342	-12.597564
1263.252422	-12.593209
1263.784950	-12.589684
1264.317928	-12.590663
1264.851355	-12.587565
1265.385232	-12.577406
1265.919560	-12.576498
1266.454340	-12.572055
1266.989572	-12.569855
1267.525256	-12.555446
1268.061394	-12.553472
1268.597985	-12.545918
1269.135031	-12.542905
1269.672531	-12.525222
1270.210487	-12.519354
1270.748899	-12.511603
1271.287768	-12.504627
1271.827094	-12.486775
1272.366877	-12.474349
1272.907119	-12.467990
1273.447820	-12.457757
1273.988981	-12.439268
1274.530601	-12.421109
1275.072683	-12.416549
1275.615226	-12.402691
1276.158230	-12.385060
1276.701697	-12.361305
1277.245627	-12.358641
1277.790021	-12.342134
1278.334879	-12.325254
1278.880202	-12.298626
1279.425991	-12.294287
1279.972245	-12.279447
1280.518966	-12.260984
1281.066155	-12.234483
1281.613811	-12.226757
1282.161936	-12.215328
1282.710529	-12.194762
1283.259593	-12.169641
1283.809126	-12.157655
1284.359131	-12.149437
1284.909607	-12.128891
1285.460555	-12.104468
1286.011976	-12.089099
1286.563870	-12.083173
1287.116237	-12.063878
1287.669080	-12.040962
1288.222397	-12.022031
1288.776191	-12.018145
1289.330460	-12.000592
1289.885207	-11.979890
1290.440431	-11.958142
1290.996133	-11.956120
1291.552314	-11.940886
1292.108975	-11.923266
1292.666115	-11.898615
1293.223737	-11.899153
1293.781839	-11.885821
1294.340424	-11.873358
1294.899491	-11.846142
1295.459041	-11.848644
1296.019075	-11.837612
1296.579593	-11.831019
1297.140597	-11.802762
1297.702086	-11.805466
1298.264061	-11.796984
1298.826524	-11.797130
1299.389474	-11.769230
1299.952912	-11.771380
1300.516839	-11.763571
1301.081255	-11.771863
1301.646162	-11.744408
1302.211559	-11.747054
1302.777448	-11.737448
1303.343829	-11.752849
1303.910702	-11.728196
1304.478069	-11.730415
1305.045930	-11.718231
1305.614285	-11.738014
1306.183136	-11.717856
1306.752483	-11.720219
1307.322326	-11.705462
1307.892666	-11.727215
1308.463504	-11.712195
1309.034841	-11.715586
1309.606677	-11.697762
1310.179012	-11.719058
1310.751849	-11.709784
1311.325186	-11.715152
1311.899025	-11.695723
1312.473366	-11.713734
1313.048211	-11.709892
1313.623559	-11.717536
1314.199412	-11.699539
1314.775770	-11.710429
1315.352634	-11.713095
1315.930004	-11.720836
1316.507881	-11.709629
1317.086266	-11.709476
1317.665159	-11.719211
1318.244562	-11.722997
1318.824474	-11.723671
1319.404897	-11.709695
1319.985831	-11.727361
1320.567276	-11.722026
1321.149234	-11.738687
1321.731706	-11.711097
1322.314691	-11.734577
1322.898190	-11.719187
1323.482205	-11.748664
1324.066736	-11.714267
1324.651783	-11.737591
1325.237347	-11.716161
1325.823430	-11.748992
1326.410031	-11.720386
1326.997151	-11.733789
1327.584791	-11.716416
1328.172952	-11.737315
1328.761634	-11.728285
1329.350839	-11.723509
1329.940566	-11.720026
1330.530817	-11.717535
1331.121592	-11.732688
1331.712891	-11.710097
1332.304716	-11.721738
1332.897068	-11.696915
1333.489946	-11.727317
1334.083352	-11.697759
1334.677287	-11.715291
1335.271750	-11.682585
1335.866744	-11.708241
1336.462268	-11.688730
1337.058323	-11.696919
1337.654910	-11.675378
1338.252029	-11.677964
1338.849682	-11.679794
1339.447869	-11.670194
1340.046591	-11.669578
1340.645848	-11.646402
1341.245641	-11.663510
1341.845972	-11.642328
1342.446840	-11.654416
1343.048246	-11.622731
1343.650191	-11.635175
1344.252677	-11.620022
1344.855702	-11.626223
1345.459269	-11.608477
1346.063379	-11.599739
1346.668030	-11.599749
1347.273226	-11.591140
1347.878965	-11.593114
1348.485250	-11.569318
1349.092080	-11.573754
1349.699456	-11.560873
1350.307380	-11.566347
1350.915851	-11.549467
1351.524871	-11.541935
1352.134441	-11.536602
1352.744560	-11.531949
1353.355231	-11.530416
1353.966453	-11.513299
1354.578227	-11.510324
1355.190555	-11.502102
1355.803436	-11.502455
1356.416872	-11.492690
1357.030863	-11.481706
1357.645411	-11.476999
1358.260515	-11.472240
1358.876177	-11.470420
1359.492397	-11.459418
1360.109176	-11.450532
1360.726516	-11.447610
1361.344416	-11.442505
1361.962877	-11.440671
1362.581901	-11.427100
1363.201487	-11.423336
1363.821637	-11.418645
1364.442352	-11.415721
1365.063632	-11.411852
1365.685478	-11.398218
1366.307891	-11.399543
1366.930871	-11.390172
1367.554420	-11.393429
1368.178538	-11.381386
1368.803226	-11.376043
1369.428485	-11.373267
1370.054315	-11.367545
1370.680717	-11.369687
1371.307693	-11.354792
1371.935242	-11.356292
1372.563366	-11.347362
1373.192065	-11.348818
1373.821341	-11.343603
1374.451193	-11.333232
1375.081623	-11.335035
1375.712632	-11.324680
1376.344221	-11.331103
1376.976389	-11.318154
1377.609139	-11.316663
1378.242470	-11.312471
1378.876384	-11.307644
1379.510881	-11.311944
1380.145963	-11.296381
1380.781629	-11.301533
1381.417881	-11.289569
1382.054720	-11.294555
1382.692147	-11.288168
1383.330161	-11.280193
1383.968765	-11.281248
1384.607959	-11.270205
1385.247743	-11.277319
1385.888119	-11.264394
1386.529087	-11.263710
1387.170648	-11.257898
1387.812804	-11.253109
1388.455554	-11.256725
1389.098899	-11.243425
1389.742842	-11.246444
1390.387381	-11.236178
1391.032519	-11.238668
1391.678256	-11.235660
1392.324592	-11.227719
1392.971529	-11.229501
1393.619068	-11.219576
1394.267208	-11.225689
1394.915952	-11.217617
1395.565300	-11.215564
1396.215253	-11.212159
1396.865812	-11.206716
1397.516977	-11.210184
1398.168749	-11.201423
1398.821130	-11.200749
1399.474120	-11.195290
1400.127719	-11.192494
1400.781930	-11.193846
1401.436752	-11.185794
1402.092186	-11.186029
1402.748234	-11.179690
1403.404897	-11.179331
1404.062174	-11.178854
1404.720067	-11.172306
1405.378577	-11.173244
1406.037705	-11.167527
1406.697451	-11.169885
1407.357817	-11.168950
1408.018803	-11.165031
1408.680410	-11.167034
1409.342639	-11.162353
1410.005492	-11.167364
1410.668968	-11.165068
1411.333068	-11.164319
1411.997795	-11.166073
1412.663147	-11.163317
1413.329127	-11.170075
1413.995736	-11.167136
1414.662973	-11.169958
1415.330840	-11.170738
1415.999339	-11.170888
1416.668469	-11.177754
1417.338232	-11.175197
1418.008628	-11.179984
1418.679659	-11.180220
1419.351325	-11.182795
1420.023628	-11.189598
1420.696568	-11.188439
1421.370145	-11.194402
1422.044362	-11.196301
1422.719219	-11.200150
1423.394717	-11.209007
1424.070856	-11.208073
1424.747638	-11.216079
1425.425064	-11.218939
1426.103134	-11.223052
1426.781850	-11.233771
1427.461212	-11.232022
1428.141221	-11.242663
1428.821878	-11.246416
1429.503185	-11.251952
1430.185141	-11.265582
1430.867749	-11.265113
1431.551008	-11.278987
1432.234920	-11.285119
1432.919486	-11.291773
1433.604707	-11.307554
1434.290583	-11.307869
1434.977116	-11.321293
1435.664307	-11.329841
1436.352156	-11.333992
1437.040664	-11.352193
1437.729833	-11.352875
1438.419663	-11.366819
1439.110156	-11.380505
1439.801312	-11.385219
1440.493132	-11.408359
1441.185617	-11.413623
1441.878768	-11.428790
1442.572586	-11.448434
1443.267072	-11.453497
1443.962228	-11.476491
1444.658053	-11.485231
1445.354549	-11.494761
1446.051717	-11.516978
1446.749558	-11.520492
1447.448073	-11.540384
1448.147263	-11.556212
1448.847128	-11.563866
1449.547671	-11.593674
1450.248891	-11.606666
1450.950789	-11.629277
1451.653368	-11.660114
1452.356627	-11.674104
1453.060568	-11.708559
1453.765192	-11.734686
1454.470500	-11.752180
1455.176492	-11.788043
1455.883170	-11.801737
1456.590534	-11.824923
1457.298586	-11.855082
1458.007327	-11.862996
1458.716758	-11.894167
1459.426880	-11.915563
1460.137693	-11.932941
1460.849199	-11.975277
1461.561398	-11.997230
1462.274293	-12.033292
1462.987883	-12.081009
1463.702170	-12.108950
1464.417155	-12.162400
1465.132838	-12.204080
1465.849222	-12.235478
1466.566306	-12.285026
1467.284093	-12.309230
1468.002582	-12.335189
1468.721775	-12.365498
1469.441674	-12.366834
1470.162278	-12.382295
1470.883590	-12.390031
1471.605609	-12.382845
1472.328338	-12.396270
1473.051777	-12.396384
1473.775928	-12.398875
1474.500790	-12.424118
1475.226367	-12.435149
1475.952657	-12.462979
1476.679663	-12.503063
1477.407386	-12.529379
1478.135826	-12.576699
1478.864985	-12.620697
1479.594863	-12.650990
1480.325463	-12.694219
1481.056784	-12.719798
1481.788828	-12.732837
1482.521597	-12.752211
1483.255090	-12.747752
1483.989309	-12.736715
1484.724256	-12.733296
1485.459931	-12.711607
1486.196336	-12.700440
1486.933471	-12.704462
1487.671337	-12.703312
1488.409937	-12.731916
1489.149270	-12.785885
1489.889337	-12.848390
1490.630141	-12.956527
1491.371682	-13.093371
1492.113961	-13.246971
1492.856979	-13.457630
1493.600738	-13.690966
1494.345238	-13.944896
1495.090481	-14.256777
1495.836467	-14.574799
1496.583198	-14.914227
1497.330675	-15.300771
1498.078899	-15.663389
1498.827872	-16.043192
1499.577593	-16.438791
1500.328065	-16.778111
1501.079289	-17.128756
1501.831265	-17.454515
1502.583995	-17.712888
1503.337480	-17.992680
1504.091721	-18.240140
1504.846719	-18.459503
1505.602475	-18.741388
1506.358991	-19.025267
1507.116268	-19.354708
1507.874306	-19.803899
1508.633108	-20.323275
1509.392673	-20.962918
1510.153004	-21.807444
1510.914101	-22.824130
1511.675965	-24.085534
1512.438599	-25.766688
1513.202002	-27.891436
1513.966176	-30.709924
1514.731122	-34.736212
1515.496842	-37.792960
1516.263336	-35.109424
1517.030607	-31.071793
1517.798654	-28.037448
1518.567479	-25.862627
1519.337083	-24.072294
1520.107468	-22.615820
1520.878634	-21.428340
1521.650584	-20.344288
1522.423317	-19.355412
1523.196836	-18.459480
1523.971141	-17.580371
1524.746233	-16.701501
1525.522115	-15.851065
1526.298786	-15.001572
1527.076249	-14.137813
1527.854504	-13.299628
1528.633553	-12.483072
1529.413397	-11.671653
1530.194037	-10.897397
1530.975474	-10.163737
1531.757709	-9.453306
1532.540745	-8.784393
1533.324581	-8.164327
1534.109220	-7.578287
1534.894662	-7.035091
1535.680909	-6.545129
1536.467961	-6.097236
1537.255821	-5.694568
1538.044489	-5.349804
1538.833967	-5.054340
1539.624256	-4.807840
1540.415357	-4.622496
1541.207271	-4.492229
1542.000000	-4.414051
1542.793545	-4.397771
1543.587907	-4.440024
1544.383087	-4.535130
1545.179088	-4.690995
1545.975909	-4.907291
1546.773552	-5.176374
1547.572019	-5.504715
1548.371311	-5.896164
1549.171428	-6.343349
1549.972373	-6.851790
1550.774147	-7.431225
1551.576751	-8.077043
1552.380185	-8.794761
1553.184453	-9.603110
1553.989554	-10.503699
1554.795490	-11.501555
1555.602263	-12.627926
1556.409873	-13.892160
1557.218322	-15.288627
1558.027612	-16.837834
1558.837743	-18.480698
1559.648717	-19.995415
1560.460536	-21.048520
1561.273200	-21.207612
1562.086710	-20.468974
1562.901069	-19.338034
1563.716278	-18.125789
1564.532337	-16.998272
1565.349249	-16.042770
1566.167014	-15.229723
1566.985634	-14.543120
1567.805111	-13.994692
1568.625444	-13.555692
1569.446637	-13.200865
1570.268690	-12.942184
1571.091605	-12.767604
1571.915382	-12.649690
1572.740024	-12.599148
1573.565532	-12.616791
1574.391907	-12.674467
1575.219150	-12.775808
1576.047262	-12.930749
1576.876246	-13.113368
1577.706103	-13.316283
1578.536833	-13.556208
1579.368439	-13.814411
1580.200922	-14.071376
1581.034282	-14.346415
1581.868522	-14.635519
1582.703643	-14.910730
1583.539646	-15.187367
1584.376532	-15.479542
1585.214304	-15.758438
1586.052962	-16.027219
1586.892508	-16.314194
1587.732943	-16.597721
1588.574269	-16.862096
1589.416487	-17.139836
1590.259599	-17.423317
1591.103605	-17.677658
1591.948508	-17.927890
1592.794309	-18.183874
1593.641009	-18.400944
1594.488609	-18.588510
1595.337112	-18.773330
1596.186518	-18.914661
1597.036829	-19.004381
1597.888047	-19.081869
1598.740172	-19.123075
1599.593207	-19.105612
1600.447153	-19.071727
1601.302010	-19.020509
1602.157782	-18.921671
1603.014469	-18.807733
1603.872072	-18.698170
1604.730593	-18.561777
1605.590034	-18.411219
1606.450397	-18.277463
1607.311681	-18.138231
1608.173890	-17.984005
1609.037024	-17.845432
1609.901085	-17.717033
1610.766075	-17.573983
1611.631995	-17.435862
1612.498846	-17.314390
1613.366630	-17.182233
1614.235349	-17.041185
1615.105004	-16.914008
1615.975596	-16.784159
1616.847128	-16.636851
1617.719600	-16.493735
1618.593014	-16.356814
1619.467372	-16.205128
1620.342675	-16.047403
1621.218924	-15.900410
1622.096122	-15.750362
1622.974270	-15.590616
1623.853369	-15.440847
1624.733420	-15.301565
1625.614427	-15.156840
1626.496389	-15.016468
1627.379308	-14.893042
1628.263187	-14.772939
1629.148026	-14.651269
1630.033828	-14.542857
1630.920593	-14.445316
1631.808324	-14.344980
1632.697022	-14.248880
1633.586688	-14.165258
1634.477324	-14.081999
1635.368932	-13.994456
1636.261514	-13.913852
1637.155070	-13.837976
1638.049602	-13.755543
1638.945113	-13.672160
1639.841603	-13.595674
1640.739075	-13.517443
1641.637529	-13.433717
1642.536968	-13.354941
1643.437393	-13.281497
1644.338806	-13.204461
1645.241209	-13.128249
1646.144602	-13.060829
1647.048988	-12.996128
1647.954368	-12.929888
1648.860744	-12.870032
1649.768118	-12.817524
1650.676491	-12.763937
1651.585865	-12.710521
1652.496241	-12.663635
1653.407621	-12.618699
1654.320008	-12.570472
1655.233401	-12.524491
1656.147804	-12.483261
1657.063218	-12.440622
1657.979645	-12.396491
1658.897085	-12.356668
1659.815542	-12.319519
1660.735016	-12.280535
1661.655509	-12.242991
1662.577023	-12.210505
1663.499560	-12.179424
1664.423121	-12.147858
1665.347709	-12.120184
1666.273324	-12.096930
1667.199969	-12.073444
1668.127645	-12.050282
1669.056353	-12.031266
1669.986097	-12.014007
1670.916877	-11.995145
1671.848695	-11.977760
1672.781553	-11.964120
1673.715452	-11.950810
1674.650395	-11.936814
1675.586383	-11.925858
1676.523418	-11.917928
1677.461501	-11.909286
1678.400635	-11.900754
1679.340821	-11.895642
1680.282061	-11.892074
1681.224357	-11.887313
1682.167710	-11.883995
1683.112122	-11.884092
1684.057595	-11.884484
1685.004132	-11.883952
1685.951732	-11.885568
1686.900400	-11.889430
1687.850135	-11.892209
1688.800940	-11.894440
1689.752818	-11.899242
1690.705768	-11.905423
1691.659795	-11.910304
1692.614898	-11.915743
1693.571081	-11.923928
1694.528345	-11.932406
1695.486691	-11.939329
1696.446122	-11.947187
1697.406640	-11.956985
1698.368245	-11.966035
1699.330941	-11.973939
1700.294729	-11.983564
1701.259611	-11.994780
1702.225588	-12.004852
1703.192664	-12.014389
1704.160838	-12.025900
1705.130114	-12.038206
1706.100493	-12.048973
1707.071977	-12.059799
1708.044568	-12.072581
1709.018268	-12.085298
1709.993079	-12.096714
1710.969003	-12.109190
1711.946041	-12.123304
1712.924196	-12.136648
1713.903469	-12.149107
1714.883862	-12.162968
1715.865378	-12.177867
1716.848017	-12.191592
1717.831783	-12.204866
1718.816677	-12.219828
1719.802701	-12.235138
1720.789857	-12.248935
1721.778147	-12.263121
1722.767573	-12.279087
1723.758136	-12.294704
1724.749840	-12.308899
1725.742685	-12.323563
1726.736673	-12.339663
1727.731808	-12.355219
1728.728090	-12.369540
1729.725521	-12.385167
1730.724105	-12.402393
1731.723842	-12.418515
1732.724735	-12.433921
1733.726785	-12.450792
1734.729995	-12.468522
1735.734366	-12.485214
1736.739902	-12.501446
1737.746603	-12.519482
1738.754472	-12.538476
1739.763510	-12.556141
1740.773721	-12.574202
1741.785105	-12.594182
1742.797665	-12.614129
1743.811403	-12.632762
1744.826321	-12.651513
1745.842422	-12.671988
1746.859706	-12.692370
1747.878177	-12.710987
1748.897835	-12.729900
1749.918685	-12.749722
1750.940726	-12.768425
1751.963963	-12.785540
1752.988395	-12.802901
1754.014027	-12.821618
1755.040860	-12.839676
1756.068895	-12.856446
1757.098135	-12.873790
1758.128583	-12.891432
1759.160240	-12.907835
1760.193109	-12.922934
1761.227191	-12.938427
1762.262488	-12.954650
1763.299004	-12.970158
1764.336740	-12.985649
1765.375697	-13.002392
1766.415880	-13.019739
1767.457288	-13.036245
1768.499926	-13.052130
1769.543794	-13.068926
1770.588895	-13.086120
1771.635231	-13.102788
1772.682805	-13.119801
1773.731619	-13.138002
1774.781674	-13.156609
1775.832973	-13.174501
1776.885519	-13.192683
1777.939312	-13.211879
1778.994357	-13.231009
1780.050654	-13.249344
1781.108207	-13.267671
1782.167017	-13.286637
1783.227087	-13.305177
1784.288418	-13.322963
1785.351013	-13.341101
1786.414875	-13.360159
1787.480006	-13.379175
1788.546407	-13.397487
1789.614082	-13.416073
1790.683032	-13.434929
1791.753259	-13.452944
1792.824767	-13.469787
1793.897557	-13.486734
1794.971632	-13.504328
1796.046994	-13.521636
1797.123645	-13.538416
1798.201588	-13.555575
1799.280824	-13.573203
1800.361357	-13.590151
1801.443188	-13.606207
1802.526320	-13.622345
1803.610756	-13.638857
1804.696497	-13.654758
1805.783546	-13.669963
1806.871906	-13.685327
1807.961578	-13.701056
1809.052565	-13.716206
1810.144870	-13.730792
1811.238494	-13.745787
1812.333441	-13.761421
1813.429713	-13.776851
1814.527311	-13.791710
1815.626239	-13.806553
1816.726499	-13.821308
1817.828094	-13.835581
1818.931025	-13.849389
1820.035295	-13.863595
1821.140906	-13.878126
1822.247862	-13.892431
1823.356165	-13.906300
1824.465816	-13.919885
1825.576819	-13.933025
1826.689175	-13.945181
1827.802888	-13.956935
1828.917960	-13.968686
1830.034394	-13.980715
1831.152191	-13.992156
1832.271354	-14.003374
1833.391887	-14.014151
1834.513790	-14.024564
1835.637068	-14.033986
1836.761722	-14.043233
1837.887755	-14.052725
1839.015169	-14.062516
1840.143968	-14.072131
1841.274153	-14.081432
1842.405727	-14.090599
1843.538693	-14.099024
1844.673053	-14.107159
1845.808810	-14.115588
1846.945966	-14.125147
1848.084525	-14.135120
1849.224488	-14.144978
1850.365858	-14.154606
1851.508638	-14.163835
1852.652831	-14.172385
1853.798438	-14.180015
1854.945463	-14.187632
1856.093909	-14.195549
1857.243777	-14.203247
1858.395071	-14.210287
1859.547794	-14.216834
1860.701947	-14.223276
1861.857533	-14.229143
1863.014556	-14.234167
1864.173018	-14.238791
1865.332922	-14.243219
1866.494270	-14.247034
1867.657065	-14.249900
1868.821309	-14.252211
1869.987006	-14.254453
1871.154158	-14.256405
1872.322768	-14.257725
1873.492839	-14.258226
1874.664373	-14.257919
1875.837373	-14.256658
1877.011841	-14.254690
1878.187782	-14.252626
1879.365197	-14.250784
1880.544089	-14.248799
1881.724460	-14.246136
1882.906315	-14.243048
1884.089655	-14.239863
1885.274483	-14.236488
1886.460803	-14.232769
1887.648616	-14.228785
1888.837927	-14.224780
1890.028736	-14.220851
1891.221049	-14.216863
1892.414866	-14.212778
1893.610192	-14.208364
1894.807028	-14.203235
1896.005379	-14.197342
1897.205246	-14.191232
1898.406633	-14.185339
1899.609542	-14.179918
1900.813977	-14.174897
1902.019940	-14.170056
1903.227434	-14.165027
1904.436462	-14.159505
1905.647028	-14.153760
1906.859133	-14.148344
1908.072781	-14.143341
1909.287976	-14.138667
1910.504719	-14.133703
1911.723013	-14.127830
1912.942863	-14.120734
1914.164270	-14.112775
1915.387238	-14.104590
1916.611770	-14.096604
1917.837868	-14.088676
1919.065536	-14.080296
1920.294777	-14.071069
1921.525594	-14.060957
1922.757989	-14.050397
1923.991967	-14.039844
1925.227529	-14.029384
1926.464679	-14.018791
1927.703420	-14.007729
1928.943755	-13.995943
1930.185688	-13.983865
1931.429221	-13.971800
1932.674356	-13.959553
1933.921099	-13.946573
1935.169451	-13.932921
1936.419415	-13.918766
1937.670996	-13.904499
1938.924195	-13.890494
1940.179017	-13.877127
1941.435463	-13.864047
1942.693538	-13.850647
1943.953245	-13.836732
1945.214586	-13.822860
1946.477566	-13.809499
1947.742186	-13.796793
1949.008451	-13.784563
1950.276363	-13.772440
1951.545926	-13.760079
1952.817143	-13.747474
1954.090017	-13.735220
1955.364551	-13.723685
1956.640749	-13.712933
1957.918615	-13.702529
1959.198150	-13.692128
1960.479359	-13.681393
1961.762244	-13.670661
1963.046810	-13.660567
1964.333059	-13.651495
1965.620995	-13.642946
1966.910621	-13.634031
1968.201940	-13.624483
1969.494956	-13.614723
1970.789672	-13.605529
1972.086091	-13.597099
1973.384217	-13.588964
1974.684053	-13.580276
1975.985602	-13.570621
1977.288869	-13.560273
1978.593855	-13.550210
1979.900566	-13.540907
1981.209003	-13.531553
1982.519171	-13.521127
1983.831073	-13.509482
1985.144712	-13.497461
1986.460093	-13.485658
1987.777217	-13.474086
1989.096089	-13.462470
1990.416713	-13.450533
1991.739092	-13.438322
1993.063228	-13.426239
1994.389127	-13.414796
1995.716791	-13.404144
1997.046223	-13.394215
1998.377428	-13.384548
1999.710409	-13.374731
2001.045169	-13.364625
2002.381713	-13.354682
2003.720043	-13.345471
2005.060163	-13.336942
2006.402077	-13.328713
2007.745788	-13.320463
2009.091301	-13.312507
2010.438618	-13.305054
2011.787743	-13.297834
2013.138680	-13.290444
2014.491433	-13.283120
2015.846005	-13.276530
2017.202399	-13.270868
2018.560621	-13.266017
2019.920673	-13.261809
2021.282558	-13.258104
2022.646281	-13.254551
2024.011846	-13.250894
2025.379256	-13.247382
2026.748515	-13.244202
2028.119626	-13.241283
2029.492594	-13.237941
2030.867422	-13.233575
2032.244114	-13.228459
2033.622673	-13.223325
2035.003104	-13.218615
2036.385411	-13.214021
2037.769597	-13.208887
2039.155665	-13.202779
2040.543621	-13.196077
2041.933467	-13.189290
2043.325208	-13.182546
2044.718847	-13.175988
2046.114389	-13.169514
2047.511837	-13.162912
2048.911195	-13.156264
2050.312467	-13.149880
2051.715657	-13.144265
2053.120769	-13.139743
2054.527807	-13.136088
2055.936775	-13.132697
2057.347677	-13.129145
2058.760516	-13.125535
2060.175297	-13.122420
2061.592025	-13.120200
2063.010701	-13.118668
2064.431332	-13.117438
2065.853921	-13.116398
2067.278472	-13.116019
2068.704988	-13.117051
2070.133475	-13.119586
2071.563936	-13.123295
2072.996375	-13.127851
2074.430796	-13.133297
2075.867204	-13.140121
2077.305603	-13.148393
2078.745996	-13.157557
2080.188389	-13.166748
2081.632784	-13.175258
2083.079187	-13.182649
2084.527601	-13.188885
2085.978030	-13.193959
2087.430480	-13.197505
2088.884954	-13.199429
2090.341455	-13.199677
2091.799990	-13.197673
2093.260561	-13.193333
2094.723173	-13.187427
2096.187831	-13.180401
2097.654538	-13.172050
2099.123300	-13.162322
2100.594119	-13.151964
2102.067001	-13.141928
2103.541950	-13.132955
2105.018971	-13.125999
2106.498067	-13.121761
2107.979243	-13.120807
2109.462503	-13.123709
2110.947853	-13.130970
2112.435295	-13.143415
2113.924836	-13.161762
2115.416478	-13.185493
2116.910227	-13.213759
2118.406087	-13.246030
2119.904063	-13.281635
2121.404158	-13.319757
2122.906378	-13.359987
2124.410727	-13.401957
2125.917210	-13.444365
2127.425831	-13.485339
2128.936594	-13.523865
2130.449505	-13.560045
2131.964567	-13.594029
2133.481786	-13.624708
2135.001166	-13.650327
2136.522711	-13.670780
2138.046427	-13.687564
2139.572317	-13.701776
2141.100388	-13.712719
2142.630642	-13.719038
2144.163085	-13.720914
2145.697722	-13.720059
2147.234558	-13.717587
2148.773596	-13.713721
2150.314842	-13.709378
2151.858301	-13.705302
2153.403977	-13.701740
2154.951875	-13.699041
2156.502000	-13.698193
2158.054357	-13.700754
2159.608950	-13.707108
2161.165785	-13.716111
2162.724866	-13.727508
2164.286198	-13.742486
2165.849786	-13.761609
2167.415635	-13.784080
2168.983749	-13.809088
2170.554134	-13.836468
2172.126795	-13.866285
2173.701737	-13.899219
2175.278964	-13.935043
2176.858481	-13.971222
2178.440294	-14.006351
2180.024408	-14.041700
2181.610827	-14.078216
2183.199557	-14.114478
2184.790602	-14.148877
2186.383968	-14.181601
2187.979660	-14.213014
2189.577683	-14.243077
2191.178041	-14.272225
2192.780741	-14.301654
2194.385787	-14.332221
2195.993185	-14.363660
2197.602939	-14.395637
2199.215054	-14.428745
2200.829537	-14.463794
2202.446392	-14.500356
2204.065624	-14.537522
2205.687239	-14.575611
2207.311242	-14.615587
2208.937638	-14.656568
2210.566433	-14.696115
2212.197631	-14.733862
2213.831239	-14.771589
2215.467261	-14.809457
2217.105703	-14.845547
2218.746570	-14.879633
2220.389867	-14.913519
2222.035601	-14.948243
2223.683776	-14.983088
2225.334398	-15.017996
2226.987472	-15.054669
2228.643004	-15.093082
2230.300999	-15.131053
2231.961463	-15.168522
2233.624402	-15.207982
2235.289820	-15.249815
2236.957723	-15.292202
2238.628118	-15.335831
2240.301009	-15.382135
2241.976402	-15.429407
2243.654303	-15.476728
2245.334717	-15.525826
2247.017650	-15.576899
2248.703108	-15.628469
2250.391096	-15.681721
2252.081620	-15.738066
2253.774686	-15.795724
2255.470300	-15.852926
2257.168467	-15.910010
2258.869193	-15.969135
2260.572484	-16.030875
2262.278345	-16.092241
2263.986783	-16.152550
2265.697804	-16.214503
2267.411412	-16.277221
2269.127615	-16.337545
2270.846417	-16.395993
2272.567826	-16.454521
2274.291846	-16.512450
2276.018484	-16.567909
2277.747745	-16.621980
2279.479637	-16.675586
2281.214164	-16.727458
2282.951333	-16.778308
2284.691149	-16.830191
2286.433619	-16.883635
2288.178750	-16.938619
2289.926546	-16.995382
2291.677014	-17.054536
2293.430161	-17.115188
2295.185992	-17.177188
2296.944513	-17.243082
2298.705732	-17.312365
2300.469653	-17.382347
2302.236283	-17.453022
2304.005629	-17.526719
2305.777696	-17.603715
2307.552492	-17.681348
2309.330022	-17.759687
2311.110292	-17.840226
2312.893310	-17.922566
2314.679080	-18.005489
2316.467611	-18.088891
2318.258907	-18.174612
2320.052976	-18.261769
2321.849824	-18.348549
2323.649457	-18.436757
2325.451883	-18.526078
2327.257106	-18.616316
2329.065135	-18.706778
2330.875975	-18.794605
2332.689633	-18.880619
2334.506116	-18.967286
2336.325430	-19.052926
2338.147581	-19.134578
2339.972578	-19.211868
2341.800425	-19.288286
2343.631130	-19.365148
2345.464700	-19.438103
2347.301141	-19.508676
2349.140461	-19.582084
2350.982665	-19.657442
2352.827760	-19.731794
2354.675754	-19.808211
2356.526653	-19.889737
2358.380464	-19.974774
2360.237195	-20.060851
2362.096851	-20.149886
2363.959440	-20.243733
2365.824968	-20.339507
2367.693444	-20.438001
2369.564873	-20.538500
2371.439263	-20.644055
2373.316620	-20.756152
2375.196953	-20.866106
2377.080267	-20.974938
2378.966570	-21.091941
2380.855869	-21.212111
2382.748171	-21.327616
2384.643484	-21.442439
2386.541815	-21.561525
2388.443170	-21.681640
2390.347557	-21.800300
2392.254984	-21.918264
2394.165457	-22.035682
2396.078984	-22.151350
2397.995572	-22.265336
2399.915229	-22.376848
2401.837961	-22.486935
2403.763777	-22.595700
2405.692684	-22.695772
2407.624689	-22.790789
2409.559800	-22.885044
2411.498023	-22.973376
2413.439368	-23.063362
2415.383840	-23.157084
2417.331449	-23.245272
2419.282201	-23.331826
2421.236104	-23.429741
2423.193165	-23.533575
2425.153393	-23.635590
2427.116795	-23.744052
2429.083378	-23.857347
2431.053151	-23.976366
2433.026121	-24.106552
2435.002297	-24.235687
2436.981685	-24.369003
2438.964293	-24.513370
2440.950131	-24.654301
2442.939204	-24.801110
2444.931522	-24.956096
2446.927092	-25.106250
2448.925923	-25.254664
2450.928022	-25.404641
2452.933397	-25.547764
2454.942056	-25.695751
2456.954008	-25.852662
2458.969260	-25.995523
2460.987821	-26.143487
2463.009699	-26.302138
2465.034902	-26.444993
2467.063437	-26.582300
2469.095315	-26.718627
2471.130542	-26.847254
2473.169127	-26.967839
2475.211078	-27.068660
2477.256404	-27.160932
2479.305112	-27.262857
2481.357212	-27.349936
2483.412713	-27.433342
2485.471621	-27.531936
2487.533946	-27.620154
2489.599696	-27.723753
2491.668880	-27.851069
2493.741507	-27.973768
2495.817585	-28.101759
2497.897122	-28.235453
2499.980127	-28.382226
2502.066609	-28.549149
2504.156578	-28.709118
2506.250040	-28.859018
2508.347006	-29.039155
2510.447483	-29.235384
2512.551482	-29.420567
2514.659010	-29.601691
2516.770076	-29.774549
2518.884690	-29.970987
2521.002861	-30.179845
2523.124597	-30.364353
2525.249907	-30.556712
2527.378801	-30.741114
2529.511287	-30.941290
2531.647375	-31.163245
2533.787074	-31.335809
2535.930393	-31.486044
2538.077340	-31.675387
2540.227927	-31.838987
2542.382160	-31.958450
2544.540051	-32.053356
2546.701608	-32.162455
2548.866840	-32.259688
2551.035757	-32.314022
2553.208369	-32.379389
2555.384684	-32.435841
2557.564713	-32.510347
2559.748465	-32.611979
2561.935948	-32.711644
2564.127174	-32.821687
2566.322152	-32.963904
2568.520890	-33.109568
2570.723399	-33.253574
2572.929689	-33.422112
2575.139769	-33.619498
2577.353649	-33.800776
2579.571340	-33.972354
2581.792849	-34.185807
2584.018189	-34.403298
2586.247368	-34.614498
2588.480396	-34.824426
2590.717284	-35.096700
2592.958041	-35.356740
2595.202678	-35.604150
2597.451204	-35.915054
2599.703630	-36.212825
2601.959966	-36.492760
2604.220222	-36.782555
2606.484408	-37.041617
2608.752535	-37.319816
2611.024612	-37.567680
2613.300651	-37.749857
2615.580661	-37.914965
2617.864653	-38.097340
2620.152638	-38.134396
2622.444625	-38.110381
2624.740626	-38.206566
2627.040651	-38.171038
2629.344710	-38.141846
2631.652814	-38.215989
2633.964974	-38.250409
2636.281200	-38.318862
2638.601504	-38.400338
2640.925896	-38.516566
2643.254386	-38.622078
2645.586987	-38.672327
2647.923707	-38.772948
2650.264559	-38.958113
2652.609554	-39.081857
2654.958702	-39.155474
2657.312015	-39.430934
2659.669503	-39.638221
2662.031178	-39.770882
2664.397051	-40.083491
2666.767132	-40.390457
2669.141434	-40.698917
2671.519968	-41.033978
2673.902745	-41.411855
2676.289776	-41.842653
2678.681072	-42.297185
2681.076646	-42.796042
2683.476508	-43.320837
2685.880671	-43.808357
2688.289145	-44.224646
2690.701942	-44.753429
2693.119075	-44.998213
2695.540554	-45.182984
2697.966391	-45.395368
2700.396599	-45.356532
2702.831189	-45.299206
2705.270172	-45.354996
2707.713561	-45.401456
2710.161368	-45.270896
2712.613605	-45.296084
2715.070283	-45.422422
2717.531416	-45.320681
2719.997014	-45.176421
2722.467090	-45.288443
2724.941657	-45.187313
2727.420726	-44.971740
2729.904310	-45.035928
2732.392421	-45.110418
2734.885072	-44.903761
2737.382275	-44.951320
2739.884042	-45.273445
2742.390387	-45.250392
2744.901321	-45.217019
2747.416857	-45.492401
2749.937008	-45.970325
2752.461787	-45.939029
2754.991206	-46.419151
2757.525279	-46.993619
2760.064017	-47.850746
2762.607434	-47.980583
2765.155544	-48.847297
2767.708358	-49.627652
2770.265890	-50.613630
2772.828153	-51.018378
2775.395160	-51.282932
2777.966924	-52.114817
2780.543459	-52.832868
2783.124778	-52.828225
2785.710894	-53.046344
2788.301821	-53.634029
2790.897572	-54.209646
2793.498160	-54.976159
2796.103599	-55.161057
2798.713903	-54.612867
2801.329085	-55.599783
2803.949159	-54.252910
2806.574139	-54.829969
2809.204038	-53.913139
2811.838871	-53.764384
2814.478650	-52.957272
2817.123391	-53.082012
2819.773107	-52.263840
2822.427812	-51.988294
2825.087521	-51.860795
2827.752247	-51.316700
2830.422005	-51.489368
2833.096808	-51.119985
2835.776672	-51.878400
2838.461611	-51.604190
2841.151638	-52.378292
2843.846769	-52.755556
2846.547019	-53.062628
2849.252401	-54.092866
2851.962930	-54.109547
2854.678621	-55.277199
2857.399489	-55.258963
2860.125549	-55.539558
2862.856815	-56.233460
2865.593302	-55.975171
2868.335026	-56.974627
2871.082002	-56.723928
2873.834244	-57.849550
2876.591767	-58.574563
2879.354588	-59.281706
2882.122721	-61.667050
2884.896181	-61.042966
2887.674984	-63.509166
2890.459146	-64.245347
2893.248681	-67.015330
2896.043606	-71.011563
2898.843937	-70.855913
2901.649687	-70.508211
2904.460875	-65.688724
2907.277515	-64.374257
2910.099623	-61.572712
2912.927215	-60.903490
2915.760308	-61.017202
2918.598916	-59.394898
2921.443057	-60.679238
2924.292747	-58.907559
2927.148002	-59.800550
2930.008837	-59.802992
2932.875270	-59.897985
2935.747318	-61.860238
2938.624995	-61.048272
2941.508320	-63.401976
2944.397308	-62.047746
2947.291977	-62.064797
2950.192343	-61.596134
2953.098423	-61.534392
2956.010234	-61.372954
2958.927792	-62.411520
2961.851116	-61.443539
2964.780221	-63.000796
2967.715126	-61.357919
2970.655847	-61.962682
2973.602402	-62.180567
2976.554808	-61.948191
2979.513083	-63.370084
2982.477243	-64.104378
2985.447308	-63.852349
2988.423293	-67.311767
2991.405218	-66.951628
2994.393099	-71.116334
2997.386955	-75.468388
