# 2022-03-22_12.47.27
# shape = sech2
# FWHM_ps = 0.11
# carrier_nm = 1542
# frep_MHz = 12126
# pow_mW = 8000
# GDD = 0.0
# propa_len = 0.15311111111111111
# untap_len = 0.01
# taper_len = 0.09311111111111112
# waist_len = 0.02
# uptap_len = 0.02
# untap_scale = 1.0
# waist_scale = 0.24210526315789477
# workingDir = NL_20110305_12 (Spirou)
# axis = slow
# window_ps = 10.0
# steps = 200
# points = 21700
# 
# wavelength [nm]	 power spectral density [dB]
600.043425	-117.403716
600.163550	-120.788353
600.283723	-119.832770
600.403943	-116.569157
600.524212	-114.127714
600.644529	-112.569963
600.764895	-111.598675
600.885308	-111.041888
601.005770	-110.863982
601.126280	-111.046612
601.246839	-111.519638
601.367446	-112.027689
601.488101	-112.202688
601.608804	-111.783601
601.729557	-110.665570
601.850357	-109.143171
601.971206	-107.552069
602.092104	-106.071608
602.213050	-104.815847
602.334045	-103.788392
602.455089	-102.977869
602.576181	-102.391239
602.697322	-101.992013
602.818511	-101.735705
602.939749	-101.599370
603.061036	-101.547956
603.182372	-101.546556
603.303757	-101.535856
603.425191	-101.435475
603.546673	-101.189307
603.668204	-100.789046
603.789785	-100.271518
603.911414	-99.710611
604.033092	-99.171423
604.154820	-98.717595
604.276596	-98.391849
604.398422	-98.194317
604.520297	-98.129747
604.642220	-98.192385
604.764193	-98.369435
604.886216	-98.622826
605.008287	-98.879411
605.130408	-99.079606
605.252578	-99.172068
605.374798	-99.119334
605.497066	-98.918599
605.619385	-98.588624
605.741752	-98.175783
605.864169	-97.718391
605.986636	-97.243019
606.109152	-96.786182
606.231718	-96.383818
606.354333	-96.072772
606.476998	-95.876846
606.599712	-95.803533
606.722476	-95.848592
606.845290	-95.995382
606.968154	-96.223609
607.091067	-96.494175
607.214030	-96.752735
607.337043	-96.931842
607.460106	-96.972651
607.583219	-96.847650
607.706381	-96.560391
607.829594	-96.171393
607.952856	-95.749383
608.076169	-95.346275
608.199531	-95.001818
608.322944	-94.733687
608.446407	-94.542250
608.569920	-94.433526
608.693483	-94.406273
608.817096	-94.446677
608.940759	-94.536573
609.064473	-94.652916
609.188237	-94.771015
609.312051	-94.873324
609.435916	-94.960883
609.559831	-95.023508
609.683796	-95.041359
609.807812	-94.998311
609.931878	-94.896925
610.055995	-94.756912
610.180162	-94.616199
610.304380	-94.517104
610.428648	-94.486106
610.552967	-94.548364
610.677337	-94.715418
610.801757	-94.975281
610.926228	-95.293830
611.050750	-95.609081
611.175323	-95.854274
611.299946	-95.983652
611.424620	-95.960032
611.549345	-95.780186
611.674121	-95.464013
611.798948	-95.065618
611.923826	-94.644977
612.048755	-94.255708
612.173734	-93.943713
612.298765	-93.722968
612.423847	-93.599421
612.548980	-93.579543
612.674165	-93.664140
612.799400	-93.844638
612.924687	-94.094623
613.050025	-94.385268
613.175414	-94.684111
613.300854	-94.957811
613.426346	-95.159344
613.551889	-95.249274
613.677484	-95.228375
613.803130	-95.118145
613.928827	-94.933497
614.054576	-94.714654
614.180377	-94.509057
614.306229	-94.349721
614.432132	-94.263800
614.558087	-94.263165
614.684094	-94.349314
614.810153	-94.529486
614.936263	-94.804435
615.062425	-95.170010
615.188639	-95.619453
615.314904	-96.122401
615.441222	-96.645958
615.567591	-97.132125
615.694012	-97.515971
615.820486	-97.737196
615.947011	-97.778502
616.073588	-97.683974
616.200217	-97.496193
616.326898	-97.268295
616.453632	-97.054837
616.580417	-96.896535
616.707255	-96.813279
616.834144	-96.814803
616.961086	-96.898960
617.088081	-97.064990
617.215127	-97.286267
617.342226	-97.510013
617.469378	-97.689209
617.596581	-97.782909
617.723837	-97.777933
617.851146	-97.664853
617.978507	-97.432132
618.105920	-97.100538
618.233386	-96.713503
618.360905	-96.338884
618.488476	-96.035700
618.616100	-95.822650
618.743777	-95.693490
618.871506	-95.614776
618.999288	-95.566910
619.127123	-95.529932
619.255011	-95.452154
619.382951	-95.295675
619.510945	-95.026001
619.638991	-94.628605
619.767090	-94.139298
619.895243	-93.597308
620.023448	-93.062210
620.151706	-92.572875
620.280017	-92.136622
620.408382	-91.769552
620.536799	-91.466143
620.665270	-91.219784
620.793794	-91.037173
620.922371	-90.913860
621.051002	-90.853687
621.179686	-90.858219
621.308423	-90.917458
621.437213	-91.031225
621.566057	-91.184150
621.694954	-91.361533
621.823905	-91.549088
621.952909	-91.704876
622.081967	-91.786286
622.211079	-91.757236
622.340244	-91.616313
622.469462	-91.389277
622.598735	-91.113921
622.728061	-90.838435
622.857441	-90.582128
622.986874	-90.353324
623.116361	-90.166865
623.245903	-90.031090
623.375498	-89.959806
623.505147	-89.953105
623.634850	-90.003374
623.764606	-90.111176
623.894417	-90.257319
624.024282	-90.432530
624.154201	-90.626944
624.284174	-90.818898
624.414202	-90.989782
624.544283	-91.093957
624.674419	-91.107185
624.804609	-91.043328
624.934853	-90.925178
625.065151	-90.779511
625.195504	-90.614476
625.325911	-90.446806
625.456373	-90.310995
625.586889	-90.221343
625.717460	-90.192716
625.848085	-90.213817
625.978764	-90.269784
626.109498	-90.378822
626.240287	-90.527461
626.371131	-90.703279
626.502029	-90.890439
626.632982	-91.062793
626.763989	-91.235624
626.895052	-91.402404
627.026169	-91.535520
627.157341	-91.608387
627.288568	-91.592517
627.419850	-91.500919
627.551187	-91.367302
627.682579	-91.208442
627.814026	-91.038513
627.945528	-90.860583
628.077085	-90.700452
628.208697	-90.599959
628.340364	-90.576317
628.472087	-90.631629
628.603865	-90.752444
628.735698	-90.935307
628.867586	-91.182851
628.999530	-91.467646
629.131529	-91.780976
629.263584	-92.100771
629.395694	-92.365544
629.527859	-92.541487
629.660080	-92.610616
629.792357	-92.585369
629.924689	-92.471268
630.057077	-92.254760
630.189520	-91.978141
630.322019	-91.675711
630.454574	-91.382536
630.587184	-91.113495
630.719851	-90.864917
630.852573	-90.654848
630.985351	-90.495006
631.118185	-90.390191
631.251075	-90.333471
631.384021	-90.311210
631.517023	-90.328238
631.650081	-90.383614
631.783195	-90.447384
631.916365	-90.477667
632.049592	-90.454977
632.182874	-90.381149
632.316213	-90.266527
632.449608	-90.113799
632.583059	-89.909350
632.716567	-89.666896
632.850131	-89.417370
632.983751	-89.185714
633.117428	-88.978765
633.251161	-88.789762
633.384951	-88.624053
633.518797	-88.476767
633.652700	-88.341331
633.786660	-88.230697
633.920676	-88.144984
634.054749	-88.077642
634.188879	-88.035494
634.323065	-88.023009
634.457308	-88.043541
634.591608	-88.093963
634.725965	-88.162671
634.860379	-88.235908
634.994850	-88.302956
635.129377	-88.357544
635.263962	-88.387391
635.398604	-88.376256
635.533303	-88.335167
635.668058	-88.273197
635.802872	-88.180962
635.937742	-88.068782
636.072669	-87.951988
636.207654	-87.834415
636.342696	-87.718975
636.477796	-87.613970
636.612953	-87.525331
636.748167	-87.453823
636.883439	-87.414938
637.018768	-87.417282
637.154155	-87.458788
637.289599	-87.546878
637.425101	-87.673205
637.560660	-87.822479
637.696277	-87.977717
637.831952	-88.115769
637.967685	-88.222023
638.103475	-88.270953
638.239324	-88.242035
638.375230	-88.132738
638.511194	-87.955949
638.647215	-87.728130
638.783295	-87.461410
638.919433	-87.189627
639.055629	-86.944355
639.191883	-86.728917
639.328195	-86.546198
639.464565	-86.405212
639.600994	-86.315783
639.737481	-86.267986
639.874025	-86.245379
640.010629	-86.242563
640.147290	-86.245049
640.284010	-86.241821
640.420789	-86.225707
640.557625	-86.182940
640.694521	-86.115197
640.831474	-86.030231
640.968487	-85.922913
641.105558	-85.786874
641.242687	-85.627171
641.379876	-85.453749
641.517123	-85.272625
641.654429	-85.082961
641.791793	-84.890086
641.929216	-84.705462
642.066699	-84.542293
642.204240	-84.394918
642.341840	-84.254632
642.479499	-84.128965
642.617217	-84.019672
642.754994	-83.918769
642.892830	-83.811474
643.030726	-83.691003
643.168680	-83.568644
643.306694	-83.449682
643.444767	-83.330516
643.582899	-83.215888
643.721091	-83.109435
643.859342	-83.006140
643.997652	-82.896594
644.136022	-82.776714
644.274451	-82.643578
644.412940	-82.488846
644.551488	-82.307098
644.690096	-82.103997
644.828763	-81.891248
644.967490	-81.679149
645.106277	-81.472152
645.245124	-81.276166
645.384030	-81.099059
645.522997	-80.940550
645.662023	-80.796211
645.801109	-80.669596
645.940255	-80.560943
646.079460	-80.463444
646.218726	-80.377664
646.358052	-80.301686
646.497438	-80.232213
646.636884	-80.167410
646.776391	-80.099610
646.915957	-80.026658
647.055584	-79.945796
647.195271	-79.851582
647.335019	-79.747947
647.474826	-79.641291
647.614695	-79.538623
647.754623	-79.447015
647.894612	-79.367992
648.034662	-79.303965
648.174772	-79.253718
648.314943	-79.206522
648.455174	-79.158398
648.595466	-79.106793
648.735819	-79.048103
648.876233	-78.983296
649.016707	-78.914496
649.157242	-78.848736
649.297838	-78.793016
649.438495	-78.748047
649.579213	-78.721181
649.719992	-78.716802
649.860832	-78.727707
650.001733	-78.754904
650.142695	-78.794141
650.283718	-78.839863
650.424803	-78.889389
650.565949	-78.933861
650.707156	-78.970754
650.848424	-79.001034
650.989754	-79.017720
651.131145	-79.020478
651.272597	-79.009380
651.414111	-78.982973
651.555687	-78.952373
651.697324	-78.921125
651.839022	-78.892063
651.980782	-78.869445
652.122604	-78.847204
652.264488	-78.824442
652.406433	-78.798305
652.548441	-78.761233
652.690510	-78.717415
652.832640	-78.662533
652.974833	-78.597789
653.117088	-78.531284
653.259405	-78.461052
653.401784	-78.390980
653.544224	-78.320405
653.686727	-78.247972
653.829293	-78.176954
653.971920	-78.107585
654.114609	-78.041002
654.257361	-77.978073
654.400175	-77.916772
654.543052	-77.857261
654.685991	-77.793434
654.828992	-77.722123
654.972056	-77.638721
655.115183	-77.535481
655.258372	-77.410927
655.401623	-77.268105
655.544937	-77.111880
655.688314	-76.949080
655.831754	-76.790016
655.975256	-76.643021
656.118822	-76.512434
656.262450	-76.400283
656.406141	-76.306489
656.549894	-76.228753
656.693711	-76.164561
656.837591	-76.106722
656.981534	-76.052738
657.125540	-76.000114
657.269610	-75.944736
657.413742	-75.888904
657.557938	-75.832726
657.702196	-75.775213
657.846519	-75.719883
657.990904	-75.667387
658.135353	-75.621339
658.279866	-75.586812
658.424441	-75.560107
658.569081	-75.542234
658.713784	-75.531332
658.858550	-75.521651
659.003381	-75.511511
659.148274	-75.496180
659.293232	-75.472970
659.438253	-75.443315
659.583339	-75.408047
659.728488	-75.374147
659.873701	-75.342223
660.018978	-75.317869
660.164318	-75.305213
660.309723	-75.297086
660.455192	-75.294505
660.600725	-75.296194
660.746323	-75.294656
660.891984	-75.289694
661.037710	-75.281006
661.183500	-75.269297
661.329354	-75.255407
661.475272	-75.241757
661.621255	-75.234962
661.767303	-75.237603
661.913415	-75.250619
662.059591	-75.275408
662.205833	-75.311295
662.352138	-75.357213
662.498509	-75.407964
662.644944	-75.456394
662.791443	-75.496050
662.938008	-75.519941
663.084638	-75.525610
663.231332	-75.512672
663.378091	-75.479019
663.524915	-75.430002
663.671804	-75.374456
663.818759	-75.316519
663.965778	-75.263476
664.112863	-75.220816
664.260012	-75.189432
664.407227	-75.170405
664.554507	-75.161223
664.701853	-75.155669
664.849264	-75.147725
664.996740	-75.132188
665.144282	-75.106633
665.291889	-75.068750
665.439561	-75.020188
665.587300	-74.967892
665.735103	-74.915344
665.882973	-74.867394
666.030908	-74.829159
666.178909	-74.798689
666.326976	-74.776559
666.475109	-74.763826
666.623307	-74.753125
666.771571	-74.743639
666.919902	-74.734585
667.068298	-74.720807
667.216761	-74.704533
667.365289	-74.683488
667.513884	-74.656167
667.662545	-74.627487
667.811272	-74.593547
667.960065	-74.557798
668.108925	-74.523229
668.257851	-74.487459
668.406843	-74.455334
668.555902	-74.423840
668.705027	-74.389913
668.854219	-74.355398
669.003478	-74.318234
669.152803	-74.278299
669.302195	-74.240048
669.451653	-74.201267
669.601179	-74.165138
669.750771	-74.135993
669.900430	-74.112316
670.050156	-74.097879
670.199949	-74.093396
670.349808	-74.096352
670.499735	-74.107269
670.649729	-74.122612
670.799790	-74.141410
670.949918	-74.164778
671.100114	-74.189879
671.250377	-74.216712
671.400707	-74.247104
671.551104	-74.278660
671.701569	-74.313570
671.852101	-74.354419
672.002700	-74.398084
672.153368	-74.448763
672.304102	-74.504865
672.454905	-74.558364
672.605775	-74.611781
672.756713	-74.656946
672.907718	-74.690150
673.058791	-74.716260
673.209933	-74.734051
673.361142	-74.751458
673.512419	-74.772700
673.663764	-74.798584
673.815177	-74.834011
673.966658	-74.873596
674.118207	-74.917876
674.269825	-74.962961
674.421510	-74.999821
674.573264	-75.031180
674.725086	-75.046929
674.876977	-75.046870
675.028936	-75.032503
675.180963	-75.000517
675.333059	-74.956378
675.485224	-74.905287
675.637457	-74.851401
675.789758	-74.800221
675.942129	-74.753610
676.094568	-74.708999
676.247075	-74.663903
676.399652	-74.615259
676.552298	-74.560774
676.705012	-74.499145
676.857795	-74.428111
677.010648	-74.353417
677.163569	-74.274238
677.316560	-74.193669
677.469619	-74.116054
677.622748	-74.039379
677.775946	-73.967054
677.929214	-73.899572
678.082551	-73.837090
678.235957	-73.783126
678.389432	-73.736017
678.542977	-73.694443
678.696592	-73.656458
678.850276	-73.622695
679.004030	-73.591682
679.157853	-73.564187
679.311746	-73.543780
679.465709	-73.526582
679.619742	-73.516558
679.773844	-73.515956
679.928017	-73.515921
680.082259	-73.521093
680.236571	-73.527819
680.390954	-73.535730
680.545406	-73.553475
680.699929	-73.583152
680.854522	-73.634107
681.009185	-73.710057
681.163918	-73.810807
681.318722	-73.937183
681.473596	-74.083738
681.628540	-74.245862
681.783555	-74.419299
681.938641	-74.593950
682.093797	-74.771120
682.249023	-74.946557
682.404321	-75.111698
682.559689	-75.274431
682.715128	-75.433625
682.870637	-75.589534
683.026218	-75.748203
683.181869	-75.906844
683.337591	-76.061888
683.493385	-76.213112
683.649249	-76.356435
683.805185	-76.490151
683.961191	-76.611842
684.117269	-76.717311
684.273418	-76.797168
684.429639	-76.847817
684.585930	-76.867415
684.742294	-76.854495
684.898728	-76.826998
685.055234	-76.796312
685.211812	-76.774197
685.368461	-76.772601
685.525182	-76.787452
685.681975	-76.814698
685.838839	-76.842854
685.995775	-76.865886
686.152783	-76.885140
686.309863	-76.893966
686.467014	-76.898340
686.624238	-76.906471
686.781534	-76.918916
686.938902	-76.942729
687.096342	-76.975798
687.253854	-77.010060
687.411438	-77.043721
687.569095	-77.068865
687.726824	-77.082078
687.884626	-77.088271
688.042499	-77.085644
688.200446	-77.073690
688.358465	-77.057081
688.516556	-77.033993
688.674720	-77.007894
688.832957	-76.983871
688.991266	-76.964956
689.149649	-76.952953
689.308104	-76.940906
689.466632	-76.919827
689.625233	-76.881038
689.783906	-76.811855
689.942653	-76.713517
690.101473	-76.594006
690.260367	-76.462880
690.419333	-76.337099
690.578372	-76.222750
690.737485	-76.124981
690.896672	-76.043244
691.055931	-75.967556
691.215264	-75.894728
691.374671	-75.816458
691.534151	-75.726409
691.693704	-75.629002
691.853332	-75.522029
692.013033	-75.404147
692.172807	-75.283719
692.332656	-75.159293
692.492578	-75.036249
692.652575	-74.924327
692.812645	-74.829896
692.972789	-74.757216
693.133007	-74.705241
693.293300	-74.667308
693.453666	-74.635377
693.614107	-74.599051
693.774622	-74.554491
693.935211	-74.497859
694.095875	-74.432133
694.256613	-74.366208
694.417426	-74.304468
694.578313	-74.253067
694.739274	-74.218618
694.900311	-74.200488
695.061421	-74.199780
695.222607	-74.212986
695.383868	-74.236571
695.545203	-74.270136
695.706613	-74.308319
695.868098	-74.353593
696.029658	-74.403588
696.191293	-74.455552
696.353003	-74.512658
696.514789	-74.575637
696.676649	-74.646965
696.838585	-74.730187
697.000596	-74.826473
697.162682	-74.934032
697.324844	-75.048911
697.487081	-75.166735
697.649394	-75.286714
697.811782	-75.402055
697.974246	-75.514947
698.136786	-75.631266
698.299401	-75.747019
698.462092	-75.865217
698.624859	-75.979607
698.787702	-76.072403
698.950621	-76.135428
699.113616	-76.156852
699.276686	-76.133893
699.439833	-76.076128
699.603056	-75.992516
699.766355	-75.892243
699.929731	-75.783149
700.093183	-75.664987
700.256711	-75.540368
700.420315	-75.406622
700.583996	-75.265494
700.747754	-75.114197
700.911588	-74.947722
701.075499	-74.763901
701.239486	-74.551047
701.403550	-74.305898
701.567691	-74.034272
701.731909	-73.743820
701.896203	-73.449229
702.060575	-73.165988
702.225024	-72.901692
702.389549	-72.661049
702.554152	-72.442682
702.718832	-72.242649
702.883589	-72.060758
703.048424	-71.888881
703.213335	-71.723574
703.378324	-71.564407
703.543391	-71.406636
703.708535	-71.250708
703.873757	-71.100834
704.039056	-70.961200
704.204433	-70.839678
704.369887	-70.744635
704.535420	-70.677970
704.701030	-70.640920
704.866718	-70.629158
705.032484	-70.637411
705.198328	-70.660583
705.364250	-70.695855
705.530250	-70.741930
705.696328	-70.796319
705.862485	-70.859900
706.028720	-70.928337
706.195033	-70.995171
706.361424	-71.060154
706.527894	-71.121215
706.694442	-71.180814
706.861069	-71.248681
707.027775	-71.323861
707.194559	-71.403604
707.361422	-71.486898
707.528363	-71.563253
707.695384	-71.626225
707.862483	-71.672654
708.029661	-71.690582
708.196918	-71.677011
708.364254	-71.629810
708.531670	-71.543617
708.699164	-71.427983
708.866738	-71.292507
709.034391	-71.147152
709.202123	-71.002573
709.369935	-70.864672
709.537826	-70.733355
709.705796	-70.610549
709.873847	-70.493426
710.041976	-70.379523
710.210186	-70.266587
710.378475	-70.149965
710.546844	-70.028209
710.715292	-69.902414
710.883821	-69.777362
711.052429	-69.658714
711.221118	-69.553892
711.389887	-69.472360
711.558735	-69.419370
711.727664	-69.394490
711.896673	-69.395128
712.065763	-69.416820
712.234932	-69.456119
712.404183	-69.511208
712.573513	-69.578736
712.742924	-69.653346
712.912416	-69.728713
713.081988	-69.804111
713.251641	-69.881472
713.421375	-69.963800
713.591190	-70.061076
713.761085	-70.176556
713.931061	-70.308857
714.101119	-70.459691
714.271257	-70.619391
714.441476	-70.780788
714.611777	-70.940629
714.782159	-71.092158
714.952622	-71.233317
715.123166	-71.360874
715.293792	-71.466301
715.464499	-71.547236
715.635288	-71.606351
715.806158	-71.648958
715.977110	-71.683236
716.148143	-71.710805
716.319259	-71.731823
716.490456	-71.740041
716.661735	-71.729982
716.833096	-71.695347
717.004538	-71.625217
717.176063	-71.518967
717.347670	-71.378037
717.519359	-71.205267
717.691130	-71.012804
717.862984	-70.810904
718.034920	-70.607482
718.206938	-70.407916
718.379039	-70.212080
718.551222	-70.018877
718.723488	-69.829518
718.895836	-69.643426
719.068267	-69.462808
719.240781	-69.287237
719.413377	-69.116594
719.586057	-68.952750
719.758819	-68.796363
719.931664	-68.652251
720.104593	-68.525441
720.277604	-68.416813
720.450699	-68.326437
720.623876	-68.254249
720.797137	-68.197384
720.970482	-68.159353
721.143910	-68.141752
721.317421	-68.143388
721.491016	-68.164139
721.664694	-68.199338
721.838456	-68.249470
722.012302	-68.316782
722.186231	-68.401890
722.360244	-68.505648
722.534342	-68.627460
722.708523	-68.768211
722.882788	-68.931969
723.057137	-69.123941
723.231570	-69.349721
723.406088	-69.607483
723.580689	-69.893134
723.755375	-70.200932
723.930146	-70.521463
724.105000	-70.850598
724.279940	-71.192754
724.454963	-71.555663
724.630072	-71.946676
724.805265	-72.368351
724.980543	-72.815727
725.155905	-73.273660
725.331353	-73.723335
725.506885	-74.139313
725.682503	-74.492120
725.858205	-74.758347
726.033993	-74.923568
726.209865	-74.985779
726.385823	-74.955773
726.561866	-74.850215
726.737995	-74.688089
726.914209	-74.486775
727.090508	-74.253401
727.266893	-73.988314
727.443364	-73.689329
727.619920	-73.350073
727.796562	-72.973404
727.973290	-72.564905
728.150103	-72.135161
728.327003	-71.697763
728.503988	-71.267854
728.681060	-70.854307
728.858218	-70.458417
729.035461	-70.076596
729.212791	-69.706556
729.390208	-69.351076
729.567710	-69.012655
729.745299	-68.698833
729.922975	-68.413600
730.100737	-68.160538
730.278586	-67.943538
730.456521	-67.764389
730.634543	-67.626927
730.812652	-67.535282
730.990848	-67.493910
731.169130	-67.504207
731.347500	-67.566878
731.525957	-67.682479
731.704500	-67.848590
731.883131	-68.058147
732.061850	-68.306427
732.240655	-68.585592
732.419548	-68.892997
732.598528	-69.234203
732.777596	-69.617230
732.956751	-70.052844
733.135994	-70.549174
733.315325	-71.106249
733.494744	-71.724084
733.674250	-72.404287
733.853844	-73.149715
734.033526	-73.968355
734.213296	-74.876965
734.393154	-75.906601
734.573101	-77.103260
734.753135	-78.529354
734.933258	-80.258907
735.113469	-82.322354
735.293769	-84.440728
735.474157	-85.434970
735.654633	-84.218915
735.835198	-81.940102
736.015852	-79.724653
736.196594	-77.817698
736.377426	-76.199033
736.558346	-74.818683
736.739355	-73.636954
736.920453	-72.624652
737.101640	-71.757525
737.282916	-71.015564
737.464282	-70.384069
737.645736	-69.849677
737.827280	-69.401256
738.008914	-69.030593
738.190637	-68.726034
738.372449	-68.476202
738.554351	-68.271963
738.736342	-68.105448
738.918424	-67.976376
739.100595	-67.885903
739.282855	-67.838985
739.465206	-67.843455
739.647647	-67.909391
739.830178	-68.045124
740.012799	-68.256458
740.195510	-68.542767
740.378311	-68.903141
740.561203	-69.336828
740.744185	-69.842660
740.927258	-70.426591
741.110421	-71.098205
741.293674	-71.874035
741.477018	-72.773250
741.660453	-73.800686
741.843979	-74.930344
742.027596	-76.085320
742.211303	-77.088709
742.395102	-77.666392
742.578991	-77.596361
742.762972	-76.911007
742.947044	-75.861853
743.131207	-74.697034
743.315461	-73.559666
743.499807	-72.514326
743.684244	-71.583336
743.868773	-70.764282
744.053394	-70.046956
744.238106	-69.414785
744.422910	-68.857059
744.607805	-68.369912
744.792793	-67.954694
744.977872	-67.614255
745.163044	-67.346946
745.348307	-67.143297
745.533663	-66.995222
745.719111	-66.896583
745.904651	-66.844729
746.090283	-66.841236
746.276008	-66.887764
746.461826	-66.988032
746.647735	-67.150671
746.833738	-67.382782
747.019833	-67.684766
747.206021	-68.053812
747.392302	-68.482523
747.578676	-68.961557
747.765143	-69.480086
747.951703	-70.027802
748.138356	-70.601779
748.325102	-71.194481
748.511941	-71.777877
748.698874	-72.303661
748.885900	-72.697752
749.073019	-72.887466
749.260232	-72.829300
749.447539	-72.529774
749.634939	-72.044061
749.822433	-71.453074
750.010021	-70.830900
750.197703	-70.232028
750.385479	-69.684900
750.573348	-69.203573
750.761312	-68.789676
750.949370	-68.437497
751.137523	-68.143241
751.325769	-67.904812
751.514110	-67.728492
751.702545	-67.622014
751.891075	-67.586475
752.079700	-67.620194
752.268419	-67.719014
752.457233	-67.871802
752.646142	-68.061524
752.835145	-68.280132
753.024244	-68.525996
753.213437	-68.810965
753.402726	-69.148099
753.592110	-69.547938
753.781589	-70.023626
753.971163	-70.579209
754.160833	-71.219854
754.350598	-71.948523
754.540459	-72.757396
754.730415	-73.648045
754.920467	-74.626750
755.110615	-75.683558
755.300858	-76.777243
755.491198	-77.828175
755.681633	-78.725293
755.872164	-79.317411
756.062792	-79.464929
756.253515	-79.148322
756.444335	-78.472933
756.635252	-77.576194
756.826264	-76.557337
757.017373	-75.481892
757.208579	-74.401424
757.399881	-73.353236
757.591280	-72.365668
757.782776	-71.458165
757.974368	-70.638364
758.166058	-69.907138
758.357844	-69.260895
758.549728	-68.680586
758.741708	-68.143953
758.933786	-67.637918
759.125961	-67.162225
759.318233	-66.734310
759.510603	-66.372411
759.703071	-66.085716
759.895635	-65.877974
760.088298	-65.744575
760.281058	-65.678824
760.473916	-65.677726
760.666872	-65.738788
760.859926	-65.865927
761.053078	-66.068055
761.246328	-66.362072
761.439676	-66.767645
761.633122	-67.299927
761.826667	-67.966850
762.020310	-68.772118
762.214052	-69.700965
762.407892	-70.709205
762.601831	-71.684167
762.795868	-72.413703
762.990004	-72.635696
763.184239	-72.222876
763.378573	-71.312138
763.573006	-70.167170
763.767538	-68.995766
763.962169	-67.908749
764.156900	-66.946321
764.351729	-66.109044
764.546658	-65.388056
764.741687	-64.773485
764.936815	-64.258267
765.132042	-63.837607
765.327370	-63.509685
765.522797	-63.275740
765.718324	-63.142324
765.913950	-63.112434
766.109677	-63.187442
766.305504	-63.365898
766.501431	-63.644330
766.697458	-64.023142
766.893586	-64.506613
767.089814	-65.103063
767.286142	-65.828748
767.482571	-66.705269
767.679100	-67.768239
767.875730	-69.074244
768.072461	-70.707566
768.269293	-72.811108
768.466225	-75.652570
768.663259	-79.831834
768.860393	-86.285990
769.057629	-84.836705
769.254966	-78.891475
769.452404	-75.153010
769.649944	-72.597180
769.847585	-70.729897
770.045328	-69.334374
770.243172	-68.306379
770.441118	-67.585357
770.639166	-67.126179
770.837315	-66.889262
771.035567	-66.841653
771.233920	-66.958647
771.432376	-67.217496
771.630934	-67.584815
771.829594	-68.013037
772.028356	-68.427021
772.227220	-68.726902
772.426188	-68.802277
772.625257	-68.590575
772.824430	-68.136401
773.023705	-67.552710
773.223083	-66.947289
773.422563	-66.380658
773.622147	-65.880801
773.821834	-65.457228
774.021624	-65.108957
774.221517	-64.830593
774.421513	-64.619954
774.621613	-64.482020
774.821816	-64.429478
775.022122	-64.478530
775.222532	-64.642539
775.423046	-64.929304
775.623664	-65.351162
775.824385	-65.938393
776.025211	-66.737876
776.226140	-67.792908
776.427173	-69.143071
776.628311	-70.786604
776.829553	-72.530508
777.030899	-73.644625
777.232350	-73.178404
777.433905	-71.507480
777.635564	-69.621594
777.837328	-67.947377
778.039197	-66.547814
778.241171	-65.395178
778.443250	-64.455903
778.645433	-63.700223
778.847722	-63.109738
779.050116	-62.669693
779.252615	-62.365894
779.455219	-62.189711
779.657929	-62.139771
779.860744	-62.222881
780.063665	-62.453632
780.266691	-62.850950
780.469823	-63.436805
780.673061	-64.239576
780.876405	-65.282918
781.079855	-66.575795
781.283410	-68.062832
781.487072	-69.489486
781.690840	-70.268817
781.894715	-69.858617
782.098695	-68.572182
782.302783	-67.076710
782.506976	-65.720051
782.711277	-64.597698
782.915684	-63.701333
783.120198	-63.009441
783.324818	-62.508799
783.529546	-62.181811
783.734381	-62.007882
783.939322	-61.959325
784.144372	-62.007898
784.349528	-62.137343
784.554792	-62.339404
784.760163	-62.610919
784.965642	-62.949617
785.171228	-63.340144
785.376922	-63.748491
785.582724	-64.123365
785.788634	-64.407609
785.994651	-64.562582
786.200777	-64.568195
786.407011	-64.424965
786.613353	-64.159844
786.819804	-63.822938
787.026363	-63.467957
787.233030	-63.140759
787.439806	-62.872262
787.646691	-62.675664
787.853684	-62.562277
788.060786	-62.541381
788.267997	-62.622275
788.475317	-62.822240
788.682746	-63.146991
788.890285	-63.578468
789.097932	-64.069070
789.305689	-64.535149
789.513555	-64.850215
789.721531	-64.848666
789.929617	-64.404731
790.137812	-63.564065
790.346117	-62.520058
790.554531	-61.455900
790.763056	-60.480574
790.971691	-59.639364
791.180436	-58.945404
791.389291	-58.403298
791.598256	-58.012931
791.807332	-57.774107
792.016518	-57.687243
792.225815	-57.752189
792.435222	-57.969077
792.644740	-58.339860
792.854369	-58.877763
793.064109	-59.611543
793.273960	-60.588296
793.483922	-61.863074
793.693995	-63.485348
793.904180	-65.454495
794.114475	-67.507273
794.324882	-68.622595
794.535401	-67.703849
794.746031	-65.624969
794.956774	-63.552277
795.167627	-61.829630
795.378593	-60.468771
795.589671	-59.411895
795.800861	-58.598237
796.012162	-57.980328
796.223577	-57.524940
796.435103	-57.211356
796.646742	-57.025219
796.858493	-56.953685
797.070357	-56.985424
797.282334	-57.112591
797.494423	-57.333110
797.706626	-57.640511
797.918941	-58.014246
798.131369	-58.412951
798.343911	-58.773067
798.556566	-59.031085
798.769334	-59.151626
798.982215	-59.143075
799.195210	-59.056883
799.408319	-58.962481
799.621541	-58.927647
799.834877	-59.010398
800.048327	-59.248301
800.261890	-59.648315
800.475568	-60.177592
800.689360	-60.752606
800.903266	-61.234156
801.117287	-61.458982
801.331422	-61.314823
801.545671	-60.807235
801.760036	-60.054844
801.974514	-59.200687
802.189108	-58.348959
802.403816	-57.553134
802.618640	-56.831934
802.833578	-56.193038
803.048632	-55.645574
803.263800	-55.207082
803.479085	-54.899581
803.694484	-54.743001
803.909999	-54.753547
804.125630	-54.943328
804.341376	-55.325486
804.557239	-55.920599
804.773217	-56.749079
804.989311	-57.825797
805.205521	-59.140879
805.421847	-60.613264
805.638290	-62.001621
805.854849	-62.819198
806.071524	-62.605603
806.288316	-61.493318
806.505225	-60.027896
806.722250	-58.600756
806.939393	-57.363297
807.156652	-56.347700
807.374028	-55.548453
807.591521	-54.956121
807.809132	-54.567803
808.026859	-54.382662
808.244705	-54.397030
808.462667	-54.599863
808.680748	-54.971242
808.898946	-55.484627
809.117261	-56.099326
809.335695	-56.751177
809.554246	-57.356634
809.772916	-57.825546
809.991704	-58.102981
810.210610	-58.196153
810.429634	-58.155515
810.648777	-58.039520
810.868039	-57.883661
811.087419	-57.708948
811.306918	-57.536354
811.526535	-57.375411
811.746272	-57.226163
811.966127	-57.086948
812.186102	-56.957382
812.406196	-56.835778
812.626409	-56.712959
812.846742	-56.573972
813.067194	-56.400640
813.287766	-56.187218
813.508457	-55.949780
813.729269	-55.715065
813.950200	-55.513566
814.171251	-55.374717
814.392422	-55.328551
814.613714	-55.410156
814.835126	-55.651772
815.056658	-56.078941
815.278311	-56.709548
815.500084	-57.542933
815.721978	-58.544013
815.943993	-59.598086
816.166128	-60.422040
816.388385	-60.593798
816.610762	-59.935016
816.833261	-58.754957
817.055881	-57.463603
817.278623	-56.290763
817.501486	-55.319551
817.724471	-54.564923
817.947577	-54.024115
818.170805	-53.692109
818.394155	-53.563240
818.617627	-53.636660
818.841221	-53.917921
819.064937	-54.420764
819.288775	-55.171222
819.512736	-56.203617
819.736819	-57.543009
819.961025	-59.168237
820.185354	-60.894248
820.409805	-62.130275
820.634379	-62.079988
820.859076	-60.878674
821.083897	-59.360618
821.308840	-58.002911
821.533907	-56.926376
821.759097	-56.122663
821.984411	-55.547131
822.209848	-55.159628
822.435409	-54.941330
822.661093	-54.881060
822.886902	-54.961132
823.112834	-55.158660
823.338891	-55.449617
823.565072	-55.808550
823.791377	-56.195108
824.017807	-56.554620
824.244361	-56.842889
824.471039	-57.055517
824.697843	-57.251422
824.924771	-57.515092
825.151824	-57.911140
825.379002	-58.466559
825.606306	-59.145783
825.833734	-59.815272
826.061288	-60.201796
826.288967	-60.015431
826.516772	-59.258464
826.744703	-58.232184
826.972759	-57.219825
827.200941	-56.348484
827.429249	-55.651004
827.657683	-55.129784
827.886243	-54.781045
828.114930	-54.604267
828.343743	-54.600057
828.572682	-54.780879
828.801748	-55.180695
829.030941	-55.852152
829.260260	-56.845312
829.489706	-58.155036
829.719280	-59.617461
829.948980	-60.689524
830.178808	-60.582778
830.408763	-59.345286
830.638845	-57.771437
830.869055	-56.385215
831.099393	-55.351956
831.329858	-54.677919
831.560451	-54.324565
831.791173	-54.249194
832.022022	-54.415790
832.252999	-54.787562
832.484105	-55.311909
832.715339	-55.923335
832.946702	-56.540412
833.178193	-57.057219
833.409813	-57.353551
833.641561	-57.330470
833.873439	-56.981688
834.105445	-56.420342
834.337581	-55.793203
834.569846	-55.210704
834.802241	-54.739814
835.034764	-54.413124
835.267418	-54.232493
835.500201	-54.158799
835.733114	-54.132784
835.966157	-54.102253
836.199329	-54.043714
836.432632	-53.968755
836.666065	-53.899487
836.899629	-53.857800
837.133323	-53.860568
837.367147	-53.912895
837.601102	-54.002725
837.835188	-54.098865
838.069405	-54.184227
838.303752	-54.268300
838.538231	-54.356115
838.772841	-54.408101
839.007582	-54.334179
839.242455	-54.040984
839.477459	-53.501644
839.712595	-52.787012
839.947863	-52.029412
840.183263	-51.367524
840.418794	-50.901664
840.654458	-50.682633
840.890254	-50.715003
841.126182	-50.969784
841.362242	-51.396631
841.598435	-51.917997
841.834761	-52.428368
842.071220	-52.812084
842.307811	-52.982589
842.544536	-52.924792
842.781393	-52.661420
843.018384	-52.219344
843.255508	-51.644908
843.492765	-51.022555
843.730156	-50.447835
843.967681	-49.994788
844.205339	-49.709388
844.443132	-49.607680
844.681058	-49.678131
844.919118	-49.875206
845.157313	-50.114621
845.395642	-50.296635
845.634105	-50.350030
845.872703	-50.260742
846.111436	-50.060605
846.350303	-49.803930
846.589306	-49.545520
846.828443	-49.325070
847.067716	-49.163093
847.307124	-49.066492
847.546667	-49.035330
847.786345	-49.059065
848.026160	-49.108681
848.266110	-49.131551
848.506195	-49.075746
848.746417	-48.920479
848.986775	-48.686913
849.227269	-48.431277
849.467899	-48.219013
849.708666	-48.102748
849.949569	-48.102134
850.190609	-48.195136
850.431785	-48.325337
850.673099	-48.415322
850.914549	-48.402460
851.156137	-48.261666
851.397861	-48.006892
851.639723	-47.683987
851.881723	-47.346107
852.123860	-47.033108
852.366135	-46.767338
852.608547	-46.564247
852.851098	-46.446403
853.093786	-46.438052
853.336613	-46.554994
853.579578	-46.797146
853.822681	-47.132386
854.065923	-47.480926
854.309304	-47.717460
854.552823	-47.717563
854.796481	-47.448796
855.040278	-46.998549
855.284215	-46.502756
855.528290	-46.068484
855.772505	-45.752070
856.016859	-45.569265
856.261353	-45.503256
856.505987	-45.523274
856.750760	-45.604584
856.995673	-45.729460
857.240727	-45.874121
857.485920	-45.998042
857.731254	-46.054025
857.976729	-46.010875
858.222343	-45.870929
858.468099	-45.673271
858.713995	-45.475391
858.960032	-45.330289
859.206211	-45.259998
859.452530	-45.244660
859.698991	-45.245392
859.945593	-45.227514
860.192336	-45.176348
860.439222	-45.098738
860.686248	-45.011484
860.933417	-44.930687
861.180728	-44.858006
861.428181	-44.786939
861.675776	-44.722553
861.923514	-44.686612
862.171394	-44.708235
862.419417	-44.791416
862.667582	-44.897246
862.915890	-44.953028
863.164342	-44.879165
863.412936	-44.648292
863.661674	-44.310502
863.910555	-43.962387
864.159579	-43.693092
864.408747	-43.544358
864.658059	-43.518858
864.907515	-43.600753
865.157114	-43.766872
865.406858	-43.993892
865.656746	-44.247446
865.906778	-44.477054
866.156955	-44.616591
866.407277	-44.594262
866.657743	-44.387136
866.908354	-44.052083
867.159110	-43.693538
867.410011	-43.400472
867.661057	-43.216068
867.912249	-43.149073
868.163586	-43.182134
868.415069	-43.279375
868.666697	-43.402743
868.918472	-43.525988
869.170392	-43.626618
869.422458	-43.674168
869.674671	-43.645364
869.927030	-43.547257
870.179536	-43.419891
870.432188	-43.312416
870.684987	-43.257936
870.937933	-43.267218
871.191026	-43.318789
871.444266	-43.359199
871.697653	-43.335835
871.951188	-43.237797
872.204870	-43.091866
872.458700	-42.934813
872.712677	-42.804888
872.966803	-42.733507
873.221076	-42.729047
873.475498	-42.779617
873.730068	-42.870993
873.984787	-42.982966
874.239654	-43.080109
874.494669	-43.122682
874.749834	-43.087757
875.005147	-42.979707
875.260610	-42.823112
875.516222	-42.663323
875.771983	-42.551134
876.027894	-42.519274
876.283954	-42.577491
876.540164	-42.707472
876.796524	-42.867841
877.053033	-42.998133
877.309693	-43.038573
877.566503	-42.964128
877.823464	-42.796068
878.080575	-42.589823
878.337837	-42.403474
878.595249	-42.277856
878.852813	-42.236245
879.110528	-42.283478
879.368393	-42.402881
879.626410	-42.557169
879.884579	-42.697875
880.142899	-42.766684
880.401371	-42.727471
880.659994	-42.602228
880.918770	-42.448071
881.177698	-42.326001
881.436778	-42.271404
881.696010	-42.284966
881.955395	-42.343845
882.214933	-42.416507
882.474623	-42.480223
882.734467	-42.517345
882.994463	-42.504206
883.254613	-42.426718
883.514916	-42.296360
883.775372	-42.152628
884.035982	-42.053071
884.296746	-42.038079
884.557664	-42.105904
884.818735	-42.213256
885.079961	-42.287521
885.341341	-42.276397
885.602876	-42.189903
885.864565	-42.076727
886.126409	-41.986761
886.388407	-41.948682
886.650561	-41.970193
886.912870	-42.050274
887.175334	-42.180862
887.437953	-42.335886
887.700728	-42.459820
887.963658	-42.475691
888.226745	-42.339346
888.489987	-42.089633
888.753385	-41.823407
889.016940	-41.636551
889.280651	-41.579728
889.544518	-41.653253
889.808543	-41.822944
890.072723	-42.035929
890.337061	-42.237166
890.601556	-42.368962
890.866208	-42.380032
891.131017	-42.259100
891.395984	-42.053453
891.661109	-41.852601
891.926391	-41.738783
892.191831	-41.750370
892.457429	-41.864757
892.723186	-42.004409
892.989100	-42.084233
893.255173	-42.063920
893.521405	-41.962280
893.787796	-41.833212
894.054345	-41.729716
894.321053	-41.685432
894.587921	-41.718841
894.854948	-41.828113
895.122134	-41.983194
895.389480	-42.121550
895.656986	-42.159475
895.924651	-42.055552
896.192477	-41.844085
896.460463	-41.616678
896.728609	-41.472851
896.996915	-41.468068
897.265382	-41.604199
897.534010	-41.829485
897.802799	-42.051376
898.071749	-42.168786
898.340860	-42.115743
898.610132	-41.903814
898.879566	-41.619927
899.149162	-41.370411
899.418919	-41.239892
899.688838	-41.273399
899.958919	-41.460922
900.229162	-41.733920
900.499568	-41.974007
900.770136	-42.059967
901.040867	-41.948140
901.311761	-41.701090
901.582817	-41.436401
901.854037	-41.256125
902.125420	-41.206381
902.396966	-41.281647
902.668676	-41.431965
902.940550	-41.575930
903.212587	-41.623927
903.484788	-41.522686
903.757153	-41.301451
904.029683	-41.054752
904.302377	-40.887536
904.575236	-40.867861
904.848259	-40.994447
905.121447	-41.194067
905.394800	-41.354046
905.668319	-41.372542
905.942002	-41.230576
906.215852	-41.002112
906.489866	-40.785442
906.764047	-40.663148
907.038393	-40.679487
907.312906	-40.826370
907.587584	-41.037709
907.862429	-41.185622
908.137441	-41.141318
908.412619	-40.877469
908.687964	-40.497600
908.963476	-40.159049
909.239155	-39.978988
909.515002	-39.997294
909.791015	-40.191760
910.067197	-40.488734
910.343546	-40.763579
910.620063	-40.878220
910.896748	-40.756853
911.173601	-40.451067
911.450623	-40.100805
911.727813	-39.839285
912.005171	-39.730983
912.282699	-39.757698
912.560395	-39.838253
912.838261	-39.876019
913.116296	-39.817130
913.394500	-39.677741
913.672874	-39.525630
913.951418	-39.432062
914.230131	-39.435161
914.509015	-39.527694
914.788068	-39.645447
915.067292	-39.679585
915.346687	-39.544657
915.626252	-39.250104
915.905988	-38.906395
916.185895	-38.649710
916.465973	-38.572315
916.746223	-38.697533
917.026644	-38.972182
917.307236	-39.264989
917.588000	-39.401164
917.868937	-39.262132
918.150045	-38.887793
918.431325	-38.445038
918.712778	-38.101180
918.994404	-37.952658
919.276202	-38.014309
919.558173	-38.225176
919.840317	-38.463767
920.122634	-38.594334
920.405125	-38.543694
920.687789	-38.352733
920.970627	-38.133514
921.253639	-37.986278
921.536824	-37.946440
921.820184	-37.974428
922.103718	-37.980748
922.387427	-37.879603
922.671310	-37.656111
922.955368	-37.386631
923.239601	-37.182883
923.524009	-37.125863
923.808592	-37.234378
924.093351	-37.445274
924.378285	-37.616866
924.663396	-37.595154
924.948682	-37.332397
925.234144	-36.935753
925.519782	-36.576443
925.805597	-36.386774
926.091589	-36.417224
926.377757	-36.633594
926.664102	-36.919081
926.950624	-37.096480
927.237323	-37.024760
927.524200	-36.718972
927.811255	-36.335491
928.098487	-36.039547
928.385897	-35.913950
928.673485	-35.947104
928.961251	-36.049113
929.249196	-36.096864
929.537319	-36.009180
929.825621	-35.802479
930.114102	-35.576194
930.402762	-35.441162
930.691601	-35.454619
930.980620	-35.590084
931.269818	-35.736381
931.559196	-35.749230
931.848753	-35.560937
932.138491	-35.244337
932.428409	-34.948831
932.718508	-34.797620
933.008787	-34.837075
933.299246	-35.027179
933.589887	-35.243641
933.880709	-35.318498
934.171712	-35.153761
934.462896	-34.813488
934.754262	-34.468540
935.045810	-34.263255
935.337539	-34.250171
935.629451	-34.386426
935.921545	-34.554330
936.213822	-34.616613
936.506281	-34.502647
936.798922	-34.264012
937.091747	-34.030796
937.384755	-33.916452
937.677946	-33.960032
937.971321	-34.108284
938.264879	-34.237071
938.558621	-34.231292
938.852547	-34.074098
939.146657	-33.855962
939.440952	-33.695659
939.735431	-33.660665
940.030095	-33.736704
940.324943	-33.831863
940.619977	-33.822392
940.915196	-33.644740
941.210600	-33.359681
941.506189	-33.104146
941.801965	-32.990132
942.097926	-33.046170
942.394074	-33.209042
942.690407	-33.347801
942.986927	-33.335012
943.283634	-33.146033
943.580527	-32.879490
943.877608	-32.679529
944.174875	-32.642802
944.472330	-32.773183
944.769972	-32.979842
945.067802	-33.114597
945.365820	-33.069808
945.664026	-32.870761
945.962420	-32.645153
946.261002	-32.514677
946.559773	-32.525356
946.858733	-32.631245
947.157881	-32.720081
947.457219	-32.684187
947.756746	-32.508530
948.056462	-32.286932
948.356368	-32.139951
948.656464	-32.129390
948.956749	-32.224950
949.257225	-32.319594
949.557891	-32.295278
949.858748	-32.120158
950.159796	-31.880774
950.461034	-31.706501
950.762463	-31.681586
951.064084	-31.801429
951.365896	-31.967021
951.667900	-32.032556
951.970095	-31.912608
952.272483	-31.662375
952.575063	-31.425104
952.877835	-31.318280
953.180799	-31.368769
953.483956	-31.507176
953.787307	-31.605323
954.090850	-31.558448
954.394586	-31.370959
954.698516	-31.151181
955.002640	-31.014849
955.306957	-31.007996
955.611469	-31.084635
955.916174	-31.136639
956.221074	-31.079537
956.526169	-30.926860
956.831458	-30.776420
957.136942	-30.726389
957.442622	-30.805203
957.748496	-30.952112
958.054567	-31.043682
958.360833	-30.980067
958.667294	-30.781081
958.973952	-30.571935
959.280806	-30.481335
959.587857	-30.555323
959.895104	-30.730435
960.202548	-30.870110
960.510189	-30.852656
960.818027	-30.673582
961.126062	-30.450609
961.434295	-30.312194
961.742726	-30.317370
962.051355	-30.424879
962.360182	-30.510813
962.669207	-30.472195
962.978431	-30.314354
963.287854	-30.141219
963.597475	-30.063163
963.907296	-30.103332
964.217315	-30.201915
964.527535	-30.255020
964.837954	-30.185806
965.148573	-30.030089
965.459392	-29.896649
965.770411	-29.879905
966.081630	-29.992580
966.393051	-30.137081
966.704672	-30.186380
967.016494	-30.086735
967.328517	-29.905272
967.640742	-29.773960
967.953169	-29.768976
968.265797	-29.875886
968.578627	-29.993720
968.891660	-29.989699
969.204895	-29.838884
969.518332	-29.641150
969.831972	-29.521328
970.145816	-29.536268
970.459862	-29.625504
970.774112	-29.671052
971.088565	-29.587851
971.403223	-29.394023
971.718084	-29.208410
972.033149	-29.134837
972.348419	-29.190872
972.663893	-29.295903
972.979572	-29.318091
973.295456	-29.207624
973.611546	-29.036179
973.927840	-28.917786
974.244340	-28.920930
974.561046	-29.012068
974.877958	-29.088571
975.195076	-29.056197
975.512401	-28.915423
975.829932	-28.780880
976.147670	-28.758473
976.465615	-28.859596
976.783767	-28.992280
977.102126	-29.016433
977.420693	-28.883555
977.739468	-28.675833
978.058451	-28.530595
978.377642	-28.536644
978.697041	-28.660882
979.016649	-28.779404
979.336466	-28.767155
979.656492	-28.613624
979.976727	-28.437148
980.297171	-28.347031
980.617825	-28.368603
980.938689	-28.435709
981.259763	-28.443106
981.581048	-28.354977
981.902542	-28.233564
982.224248	-28.177785
982.546164	-28.226716
982.868291	-28.314660
983.190630	-28.330359
983.513180	-28.221390
983.835942	-28.055303
984.158916	-27.957766
984.482101	-27.999538
984.805500	-28.144349
985.129110	-28.264563
985.452934	-28.242594
985.776970	-28.088161
986.101220	-27.925941
986.425683	-27.869545
986.750359	-27.933874
987.075250	-28.031180
987.400354	-28.048931
987.725673	-27.958435
988.051206	-27.835426
988.376954	-27.776604
988.702916	-27.804419
989.029094	-27.848398
989.355487	-27.816528
989.682095	-27.690716
990.008919	-27.558201
990.335959	-27.517454
990.663216	-27.581249
990.990688	-27.665141
991.318377	-27.650298
991.646283	-27.508325
991.974406	-27.331447
992.302746	-27.241160
992.631304	-27.286248
992.960079	-27.394612
993.289072	-27.434806
993.618283	-27.340046
993.947713	-27.176332
994.277361	-27.067820
994.607227	-27.073124
994.937313	-27.150011
995.267618	-27.190690
995.598142	-27.123739
995.928886	-26.994268
996.259849	-26.904969
996.591033	-26.908346
996.922437	-26.956710
997.254061	-26.956948
997.585906	-26.870183
997.917972	-26.748882
998.250260	-26.686604
998.582768	-26.722721
998.915498	-26.797518
999.248450	-26.800135
999.581624	-26.689369
999.915020	-26.545379
1000.248639	-26.475144
1000.582480	-26.513268
1000.916545	-26.599871
1001.250832	-26.628883
1001.585343	-26.551151
1001.920077	-26.428559
1002.255035	-26.366025
1002.590218	-26.396996
1002.925624	-26.458138
1003.261255	-26.461970
1003.597111	-26.388807
1003.933192	-26.303170
1004.269497	-26.278806
1004.606029	-26.321705
1004.942785	-26.357851
1005.279768	-26.311789
1005.616977	-26.204473
1005.954412	-26.128192
1006.292074	-26.142631
1006.629962	-26.214450
1006.968077	-26.246410
1007.306420	-26.174146
1007.644990	-26.040672
1007.983787	-25.957058
1008.322813	-25.983721
1008.662067	-26.068874
1009.001549	-26.100100
1009.341259	-26.024820
1009.681199	-25.905979
1010.021367	-25.842924
1010.361765	-25.871220
1010.702392	-25.933732
1011.043250	-25.936684
1011.384337	-25.857657
1011.725654	-25.772728
1012.067202	-25.759013
1012.408980	-25.804685
1012.750989	-25.826034
1013.093230	-25.764553
1013.435702	-25.654578
1013.778405	-25.588782
1014.121341	-25.616270
1014.464508	-25.681755
1014.807908	-25.676939
1015.151540	-25.568269
1015.495405	-25.437891
1015.839503	-25.383517
1016.183835	-25.420911
1016.528400	-25.473534
1016.873198	-25.448356
1017.218231	-25.342987
1017.563498	-25.248427
1017.908999	-25.235463
1018.254735	-25.274873
1018.600707	-25.279567
1018.946913	-25.212286
1019.293354	-25.127553
1019.640032	-25.104682
1019.986945	-25.156009
1020.334094	-25.203294
1020.681480	-25.162981
1021.029102	-25.057929
1021.376961	-24.993095
1021.725058	-25.028771
1022.073391	-25.114384
1022.421962	-25.141351
1022.770772	-25.062663
1023.119819	-24.954183
1023.469104	-24.926528
1023.818628	-24.996176
1024.168391	-25.065902
1024.518393	-25.039089
1024.868634	-24.938585
1025.219115	-24.869158
1025.569836	-24.894247
1025.920796	-24.967969
1026.271997	-24.981537
1026.623438	-24.901190
1026.975121	-24.817559
1027.327044	-24.822432
1027.679208	-24.898363
1028.031614	-24.943294
1028.384262	-24.888997
1028.737152	-24.790267
1029.090284	-24.758671
1029.443659	-24.826731
1029.797276	-24.904345
1030.151137	-24.885466
1030.505240	-24.787965
1030.859587	-24.723840
1031.214178	-24.757630
1031.569013	-24.834598
1031.924093	-24.841051
1032.279417	-24.746476
1032.634985	-24.653588
1032.990799	-24.658519
1033.346858	-24.729599
1033.703162	-24.752756
1034.059712	-24.671294
1034.416509	-24.559217
1034.773551	-24.528322
1035.130841	-24.588081
1035.488377	-24.628843
1035.846160	-24.565894
1036.204190	-24.454931
1036.562468	-24.409619
1036.920994	-24.459082
1037.279768	-24.511484
1037.638790	-24.464176
1037.998061	-24.348494
1038.357581	-24.290159
1038.717350	-24.342631
1039.077368	-24.420447
1039.437636	-24.400774
1039.798154	-24.285684
1040.158922	-24.202054
1040.519940	-24.234532
1040.881209	-24.324347
1041.242729	-24.338453
1041.604501	-24.243081
1041.966524	-24.149812
1042.328798	-24.156371
1042.691325	-24.228264
1043.054103	-24.250701
1043.417135	-24.177562
1043.780419	-24.099045
1044.143956	-24.111434
1044.507746	-24.178726
1044.871791	-24.188650
1045.236088	-24.109576
1045.600641	-24.036032
1045.965447	-24.066328
1046.330508	-24.162921
1046.695824	-24.190892
1047.061395	-24.104972
1047.427222	-24.012330
1047.793304	-24.026604
1048.159642	-24.124509
1048.526237	-24.171107
1048.893088	-24.105811
1049.260196	-24.022810
1049.627561	-24.028057
1049.995183	-24.102482
1050.363063	-24.124326
1050.731201	-24.047003
1051.099597	-23.973429
1051.468251	-23.993761
1051.837164	-24.063964
1052.206336	-24.062344
1052.575767	-23.957217
1052.945458	-23.869737
1053.315409	-23.894457
1053.685619	-23.967350
1054.056090	-23.959317
1054.426821	-23.848977
1054.797814	-23.757522
1055.169067	-23.777618
1055.540582	-23.839620
1055.912359	-23.817525
1056.284398	-23.711226
1056.656698	-23.635498
1057.029262	-23.659368
1057.402088	-23.705831
1057.775177	-23.661182
1058.148530	-23.552999
1058.522146	-23.498641
1058.896027	-23.533032
1059.270171	-23.562407
1059.644580	-23.495187
1060.019254	-23.386844
1060.394193	-23.354277
1060.769397	-23.402470
1061.144867	-23.421227
1061.520602	-23.342215
1061.896604	-23.245466
1062.272872	-23.240531
1062.649407	-23.301772
1063.026210	-23.307822
1063.403279	-23.222036
1063.780616	-23.142974
1064.158221	-23.158869
1064.536094	-23.221157
1064.914235	-23.211509
1065.292645	-23.128276
1065.671325	-23.083532
1066.050273	-23.126378
1066.429491	-23.176081
1066.808979	-23.138544
1067.188738	-23.054895
1067.568766	-23.038451
1067.949066	-23.098247
1068.329636	-23.125626
1068.710478	-23.058024
1069.091592	-22.980613
1069.472977	-22.991799
1069.854635	-23.054654
1070.236565	-23.053193
1070.618768	-22.966589
1071.001243	-22.902415
1071.383993	-22.929542
1071.767016	-22.973755
1072.150313	-22.937540
1072.533884	-22.850407
1072.917730	-22.813388
1073.301850	-22.839336
1073.686246	-22.832965
1074.070917	-22.749878
1074.455864	-22.671377
1074.841087	-22.671107
1075.226586	-22.698490
1075.612362	-22.651390
1075.998415	-22.544255
1076.384745	-22.485992
1076.771353	-22.505753
1077.158238	-22.512006
1077.545401	-22.431578
1077.932843	-22.331430
1078.320564	-22.307802
1078.708564	-22.330643
1079.096842	-22.295442
1079.485401	-22.187847
1079.874240	-22.110020
1080.263358	-22.119697
1080.652757	-22.138224
1081.042438	-22.078479
1081.432399	-21.980415
1081.822641	-21.939125
1082.213166	-21.958621
1082.603972	-21.951825
1082.995061	-21.888998
1083.386433	-21.840604
1083.778087	-21.847768
1084.170025	-21.853431
1084.562246	-21.799012
1084.954751	-21.733440
1085.347541	-21.733163
1085.740615	-21.770801
1086.133973	-21.755448
1086.527617	-21.678517
1086.921546	-21.633664
1087.315761	-21.663568
1087.710262	-21.690644
1088.105050	-21.648390
1088.500124	-21.589166
1088.895485	-21.591441
1089.291134	-21.630731
1089.687070	-21.617327
1090.083294	-21.553056
1090.479806	-21.525217
1090.876607	-21.551958
1091.273696	-21.553917
1091.671075	-21.488218
1092.068744	-21.425290
1092.466702	-21.425910
1092.864950	-21.432707
1093.263489	-21.371110
1093.662319	-21.281789
1094.061440	-21.253021
1094.460852	-21.271444
1094.860555	-21.240990
1095.260551	-21.149983
1095.660840	-21.092862
1096.061421	-21.108207
1096.462295	-21.116956
1096.863462	-21.055279
1097.264923	-20.983919
1097.666678	-20.976975
1098.068727	-20.994061
1098.471071	-20.953585
1098.873710	-20.875290
1099.276644	-20.839620
1099.679874	-20.840924
1100.083400	-20.799267
1100.487222	-20.707063
1100.891340	-20.644364
1101.295756	-20.636709
1101.700468	-20.612275
1102.105478	-20.533551
1102.510787	-20.467774
1102.916393	-20.466556
1103.322298	-20.478989
1103.728502	-20.445630
1104.135005	-20.407804
1104.541807	-20.427359
1104.948909	-20.469726
1105.356312	-20.464407
1105.764015	-20.433954
1106.172019	-20.449447
1106.580324	-20.490876
1106.988931	-20.476804
1107.397840	-20.414165
1107.807051	-20.385133
1108.216564	-20.393925
1108.626380	-20.355473
1109.036500	-20.256445
1109.446923	-20.184828
1109.857649	-20.169215
1110.268680	-20.132751
1110.680016	-20.037056
1111.091657	-19.957294
1111.503602	-19.942871
1111.915854	-19.932275
1112.328411	-19.875082
1112.741275	-19.825569
1113.154445	-19.834901
1113.567922	-19.851908
1113.981706	-19.821195
1114.395798	-19.791178
1114.810198	-19.812219
1115.224906	-19.830394
1115.639923	-19.784384
1116.055249	-19.725673
1116.470884	-19.717094
1116.886829	-19.702537
1117.303084	-19.611775
1117.719650	-19.500208
1118.136526	-19.447296
1118.553713	-19.409529
1118.971212	-19.305772
1119.389022	-19.180354
1119.807145	-19.119786
1120.225580	-19.095720
1120.644328	-19.028562
1121.063389	-18.942890
1121.482763	-18.917799
1121.902452	-18.931840
1122.322454	-18.913946
1122.742771	-18.886525
1123.163404	-18.915757
1123.584351	-18.972514
1124.005614	-18.983260
1124.427193	-18.981639
1124.849089	-19.037838
1125.271301	-19.108262
1125.693830	-19.108890
1126.116677	-19.080604
1126.539842	-19.105678
1126.963324	-19.134938
1127.387126	-19.083715
1127.811246	-19.002282
1128.235685	-18.974030
1128.660444	-18.949387
1129.085522	-18.852565
1129.510922	-18.742429
1129.936641	-18.691457
1130.362682	-18.645639
1130.789044	-18.543392
1131.215728	-18.447454
1131.642734	-18.415161
1132.070063	-18.384264
1132.497714	-18.307006
1132.925689	-18.250454
1133.353987	-18.256526
1133.782610	-18.254505
1134.211556	-18.209307
1134.640827	-18.194522
1135.070424	-18.231843
1135.500345	-18.240405
1135.930593	-18.202616
1136.361166	-18.200836
1136.792067	-18.238937
1137.223294	-18.228024
1137.654848	-18.171179
1138.086730	-18.155471
1138.518940	-18.167756
1138.951479	-18.120621
1139.384346	-18.039109
1139.817543	-18.007495
1140.251069	-17.992664
1140.684925	-17.918133
1141.119111	-17.828319
1141.553628	-17.793085
1141.988475	-17.763484
1142.423655	-17.685571
1142.859166	-17.617456
1143.295009	-17.601953
1143.731185	-17.578919
1144.167694	-17.520233
1144.604536	-17.490531
1145.041711	-17.505701
1145.479221	-17.499929
1145.917065	-17.466067
1146.355245	-17.469530
1146.793759	-17.506961
1147.232609	-17.511680
1147.671795	-17.495044
1148.111317	-17.520009
1148.551177	-17.561661
1148.991373	-17.556700
1149.431907	-17.542963
1149.872779	-17.573348
1150.313989	-17.590754
1150.755538	-17.551867
1151.197426	-17.527551
1151.639653	-17.541952
1152.082220	-17.514528
1152.525128	-17.443665
1152.968376	-17.410807
1153.411966	-17.395749
1153.855897	-17.325426
1154.300169	-17.242223
1154.744784	-17.206518
1155.189742	-17.162753
1155.635042	-17.067875
1156.080687	-16.991377
1156.526674	-16.962023
1156.973007	-16.904072
1157.419683	-16.809270
1157.866705	-16.760890
1158.314072	-16.746618
1158.761786	-16.682246
1159.209845	-16.608250
1159.658251	-16.599912
1160.107004	-16.590286
1160.556104	-16.525999
1161.005553	-16.494663
1161.455349	-16.516407
1161.905494	-16.497417
1162.355989	-16.453297
1162.806832	-16.465978
1163.258026	-16.491130
1163.709570	-16.466053
1164.161464	-16.449851
1164.613710	-16.479854
1165.066307	-16.492017
1165.519256	-16.467917
1165.972558	-16.470346
1166.426212	-16.499477
1166.880219	-16.493649
1167.334580	-16.469405
1167.789295	-16.481383
1168.244364	-16.491912
1168.699788	-16.460428
1169.155567	-16.441821
1169.611702	-16.448950
1170.068193	-16.421232
1170.525041	-16.379787
1170.982245	-16.369925
1171.439807	-16.344100
1171.897726	-16.290687
1172.356004	-16.261396
1172.814640	-16.229367
1173.273635	-16.169741
1173.732989	-16.129587
1174.192703	-16.088724
1174.652778	-16.020751
1175.113213	-15.982816
1175.574009	-15.944949
1176.035167	-15.863623
1176.496687	-15.827716
1176.958569	-15.809337
1177.420814	-15.715774
1177.883422	-15.673162
1178.346394	-15.689433
1178.809730	-15.596672
1179.273430	-15.532758
1179.737496	-15.588025
1180.201927	-15.517380
1180.666723	-15.419857
1181.131886	-15.500814
1181.597416	-15.474534
1182.063312	-15.340640
1182.529576	-15.422904
1182.996209	-15.455885
1183.463209	-15.299744
1183.930579	-15.360171
1184.398317	-15.451741
1184.866426	-15.288971
1185.334904	-15.308370
1185.803754	-15.447329
1186.272974	-15.295402
1186.742566	-15.260678
1187.212529	-15.429279
1187.682865	-15.308734
1188.153574	-15.216831
1188.624656	-15.388827
1189.096112	-15.312756
1189.567942	-15.170815
1190.040147	-15.319937
1190.512726	-15.294328
1190.985681	-15.119521
1191.459012	-15.226478
1191.932720	-15.252180
1192.406804	-15.069116
1192.881265	-15.119214
1193.356104	-15.182937
1193.831322	-15.016348
1194.306918	-15.005888
1194.782893	-15.089588
1195.259248	-14.961679
1195.735982	-14.898249
1196.213097	-14.981614
1196.690593	-14.906924
1197.168471	-14.804551
1197.646730	-14.865039
1198.125371	-14.843092
1198.604395	-14.720906
1199.083803	-14.745284
1199.563594	-14.770287
1200.043769	-14.649007
1200.524329	-14.631010
1201.005273	-14.687453
1201.486604	-14.582694
1201.968320	-14.522893
1202.450422	-14.594506
1202.932912	-14.519233
1203.415789	-14.428289
1203.899054	-14.500459
1204.382707	-14.460186
1204.866748	-14.351438
1205.351179	-14.411854
1205.836000	-14.402771
1206.321211	-14.290673
1206.806812	-14.335442
1207.292805	-14.353094
1207.779189	-14.250975
1208.265965	-14.279861
1208.753134	-14.313006
1209.240696	-14.225855
1209.728651	-14.240103
1210.217000	-14.279413
1210.705744	-14.210476
1211.194883	-14.215454
1211.684417	-14.253279
1212.174347	-14.200342
1212.664673	-14.198543
1213.155396	-14.226824
1213.646516	-14.185147
1214.138034	-14.181437
1214.629951	-14.198474
1215.122266	-14.164087
1215.614980	-14.163497
1216.108095	-14.169060
1216.601609	-14.134176
1217.095524	-14.136339
1217.589841	-14.134267
1218.084559	-14.097490
1218.579679	-14.104118
1219.075202	-14.098466
1219.571128	-14.057618
1220.067458	-14.067655
1220.564191	-14.061085
1221.061330	-14.013221
1221.558874	-14.023208
1222.056823	-14.021558
1222.555178	-13.970762
1223.053940	-13.977791
1223.553109	-13.979339
1224.052686	-13.925637
1224.552671	-13.927537
1225.053065	-13.932941
1225.553867	-13.879007
1226.055079	-13.876044
1226.556702	-13.886894
1227.058735	-13.835197
1227.561179	-13.824128
1228.064035	-13.837028
1228.567303	-13.791170
1229.070983	-13.774798
1229.575077	-13.788609
1230.079585	-13.749774
1230.584506	-13.729151
1231.089842	-13.740174
1231.595594	-13.706875
1232.101761	-13.682796
1232.608345	-13.690361
1233.115345	-13.663220
1233.622762	-13.638295
1234.130597	-13.641771
1234.638851	-13.618662
1235.147523	-13.592233
1235.656615	-13.590869
1236.166126	-13.573335
1236.676058	-13.549299
1237.186411	-13.544072
1237.697185	-13.529564
1238.208381	-13.507123
1238.719999	-13.498510
1239.232040	-13.485549
1239.744505	-13.463914
1240.257394	-13.454067
1240.770708	-13.444501
1241.284446	-13.421562
1241.798610	-13.406827
1242.313201	-13.398856
1242.828218	-13.376376
1243.343662	-13.358544
1243.859534	-13.350503
1244.375834	-13.326875
1244.892563	-13.306705
1245.409721	-13.297585
1245.927309	-13.269434
1246.445327	-13.246201
1246.963777	-13.237975
1247.482657	-13.207447
1248.001970	-13.181170
1248.521716	-13.171197
1249.041894	-13.137559
1249.562506	-13.110625
1250.083553	-13.100858
1250.605034	-13.065318
1251.126950	-13.039385
1251.649302	-13.030395
1252.172091	-12.992836
1252.695316	-12.967449
1253.218979	-12.958485
1253.743079	-12.920765
1254.267619	-12.898443
1254.792597	-12.889148
1255.318015	-12.850044
1255.843874	-12.830083
1256.370173	-12.820993
1256.896913	-12.782251
1257.424095	-12.765346
1257.951720	-12.756267
1258.479787	-12.719252
1259.008298	-12.705545
1259.537254	-12.694283
1260.066654	-12.658544
1260.596499	-12.649116
1261.126790	-12.636808
1261.657527	-12.602566
1262.188711	-12.595269
1262.720342	-12.580770
1263.252422	-12.549347
1263.784950	-12.544742
1264.317928	-12.528272
1264.851355	-12.500714
1265.385232	-12.498320
1265.919560	-12.478787
1266.454340	-12.454268
1266.989572	-12.453183
1267.525256	-12.431696
1268.061394	-12.411285
1268.597985	-12.409883
1269.135031	-12.385864
1269.672531	-12.369551
1270.210487	-12.368042
1270.748899	-12.344325
1271.287768	-12.333601
1271.827094	-12.331034
1272.366877	-12.308232
1272.907119	-12.303220
1273.447820	-12.299215
1273.988981	-12.278485
1274.530601	-12.279057
1275.072683	-12.273855
1275.615226	-12.255912
1276.158230	-12.259360
1276.701697	-12.252616
1277.245627	-12.240882
1277.790021	-12.247200
1278.334879	-12.237624
1278.880202	-12.231126
1279.425991	-12.238482
1279.972245	-12.226624
1280.518966	-12.224148
1281.066155	-12.230001
1281.613811	-12.217614
1282.161936	-12.218324
1282.710529	-12.219390
1283.259593	-12.207696
1283.809126	-12.212763
1284.359131	-12.210070
1284.909607	-12.200063
1285.460555	-12.206298
1286.011976	-12.199683
1286.563870	-12.193202
1287.116237	-12.198858
1287.669080	-12.188762
1288.222397	-12.185608
1288.776191	-12.188256
1289.330460	-12.176558
1289.885207	-12.177314
1290.440431	-12.176832
1290.996133	-12.166298
1291.552314	-12.169375
1292.108975	-12.164021
1292.666115	-12.155954
1293.223737	-12.160101
1293.781839	-12.151082
1294.340424	-12.145838
1294.899491	-12.147441
1295.459041	-12.135930
1296.019075	-12.134931
1296.579593	-12.133786
1297.140597	-12.122174
1297.702086	-12.122771
1298.264061	-12.116174
1298.826524	-12.105874
1299.389474	-12.105855
1299.952912	-12.093592
1300.516839	-12.084745
1301.081255	-12.080540
1301.646162	-12.064045
1302.211559	-12.057896
1302.777448	-12.049748
1303.343829	-12.032902
1303.910702	-12.027758
1304.478069	-12.014405
1305.045930	-12.000409
1305.614285	-11.994929
1306.183136	-11.977489
1306.752483	-11.966837
1307.322326	-11.958019
1307.892666	-11.939989
1308.463504	-11.933479
1309.034841	-11.920203
1309.606677	-11.904221
1310.179012	-11.898830
1310.751849	-11.881277
1311.325186	-11.869239
1311.899025	-11.861018
1312.473366	-11.841667
1313.048211	-11.833919
1313.623559	-11.820613
1314.199412	-11.803667
1314.775770	-11.798768
1315.352634	-11.781532
1315.930004	-11.769385
1316.507881	-11.761393
1317.086266	-11.742207
1317.665159	-11.735131
1318.244562	-11.720664
1318.824474	-11.702794
1319.404897	-11.696971
1319.985831	-11.678027
1320.567276	-11.666733
1321.149234	-11.657988
1321.731706	-11.638933
1322.314691	-11.633826
1322.898190	-11.619853
1323.482205	-11.606358
1324.066736	-11.602274
1324.651783	-11.584990
1325.237347	-11.580298
1325.823430	-11.572797
1326.410031	-11.559059
1326.997151	-11.560395
1327.584791	-11.548045
1328.172952	-11.543192
1328.761634	-11.543126
1329.350839	-11.530345
1329.940566	-11.533622
1330.530817	-11.526828
1331.121592	-11.521198
1331.712891	-11.526247
1332.304716	-11.515431
1332.897068	-11.519265
1333.489946	-11.517111
1334.083352	-11.509655
1334.677287	-11.516902
1335.271750	-11.506629
1335.866744	-11.508210
1336.462268	-11.509895
1337.058323	-11.501536
1337.654910	-11.510383
1338.252029	-11.503760
1338.849682	-11.506077
1339.447869	-11.511658
1340.046591	-11.504169
1340.645848	-11.515318
1341.245641	-11.511359
1341.845972	-11.514362
1342.446840	-11.524359
1343.048246	-11.519125
1343.650191	-11.533711
1344.252677	-11.534253
1344.855702	-11.539606
1345.459269	-11.553087
1346.063379	-11.549423
1346.668030	-11.566264
1347.273226	-11.568511
1347.878965	-11.575147
1348.485250	-11.591277
1349.092080	-11.588994
1349.699456	-11.608193
1350.307380	-11.611889
1350.915851	-11.619618
1351.524871	-11.636195
1352.134441	-11.634147
1352.744560	-11.653804
1353.355231	-11.656397
1353.966453	-11.665506
1354.578227	-11.681087
1355.190555	-11.678643
1355.803436	-11.698426
1356.416872	-11.698131
1357.030863	-11.707784
1357.645411	-11.719979
1358.260515	-11.717205
1358.876177	-11.736946
1359.492397	-11.734273
1360.109176	-11.746738
1360.726516	-11.755679
1361.344416	-11.754502
1361.962877	-11.773395
1362.581901	-11.767765
1363.201487	-11.783630
1363.821637	-11.788408
1364.442352	-11.790867
1365.063632	-11.809390
1365.685478	-11.803657
1366.307891	-11.822793
1366.930871	-11.822936
1367.554420	-11.830459
1368.178538	-11.844586
1368.803226	-11.840223
1369.428485	-11.861781
1370.054315	-11.857653
1370.680717	-11.871936
1371.307693	-11.880025
1371.935242	-11.879133
1372.563366	-11.898142
1373.192065	-11.890588
1373.821341	-11.908946
1374.451193	-11.907941
1375.081623	-11.913884
1375.712632	-11.926250
1376.344221	-11.918857
1376.976389	-11.937572
1377.609139	-11.927580
1378.242470	-11.939725
1378.876384	-11.940649
1379.510881	-11.938480
1380.145963	-11.951987
1380.781629	-11.939452
1381.417881	-11.956031
1382.054720	-11.945176
1382.692147	-11.951328
1383.330161	-11.953163
1383.968765	-11.945161
1384.607959	-11.959116
1385.247743	-11.943586
1385.888119	-11.958129
1386.529087	-11.948110
1387.170648	-11.951566
1387.812804	-11.954669
1388.455554	-11.944810
1389.098899	-11.959962
1389.742842	-11.944797
1390.387381	-11.959892
1391.032519	-11.951161
1391.678256	-11.955781
1392.324592	-11.960365
1392.971529	-11.952080
1393.619068	-11.968328
1394.267208	-11.955332
1394.915952	-11.973461
1395.565300	-11.965773
1396.215253	-11.974946
1396.865812	-11.979871
1397.516977	-11.976045
1398.168749	-11.992601
1398.821130	-11.981147
1399.474120	-12.001256
1400.127719	-11.991692
1400.781930	-12.004303
1401.436752	-12.004687
1402.092186	-12.004776
1402.748234	-12.017495
1403.404897	-12.007621
1404.062174	-12.027428
1404.720067	-12.015924
1405.378577	-12.032432
1406.037705	-12.027113
1406.697451	-12.033158
1407.357817	-12.039005
1408.018803	-12.033124
1408.680410	-12.048072
1409.342639	-12.035138
1410.005492	-12.051531
1410.668968	-12.038791
1411.333068	-12.049103
1411.997795	-12.044510
1412.663147	-12.045549
1413.329127	-12.051958
1413.995736	-12.044004
1414.662973	-12.058217
1415.330840	-12.045366
1415.999339	-12.061019
1416.668469	-12.050711
1417.338232	-12.062369
1418.008628	-12.060478
1418.679659	-12.064220
1419.351325	-12.071443
1420.023628	-12.066437
1420.696568	-12.080590
1421.370145	-12.070581
1422.044362	-12.087623
1422.719219	-12.079093
1423.394717	-12.093612
1424.070856	-12.091134
1424.747638	-12.099612
1425.425064	-12.106098
1426.103134	-12.108097
1426.781850	-12.122941
1427.461212	-12.119800
1428.141221	-12.138811
1428.821878	-12.133267
1429.503185	-12.152055
1430.185141	-12.149780
1430.867749	-12.165943
1431.551008	-12.170618
1432.234920	-12.181666
1432.919486	-12.192702
1433.604707	-12.196259
1434.290583	-12.211128
1434.977116	-12.208727
1435.664307	-12.225616
1436.352156	-12.220681
1437.040664	-12.237377
1437.729833	-12.234042
1438.419663	-12.248811
1439.110156	-12.250680
1439.801312	-12.262241
1440.493132	-12.269349
1441.185617	-12.274330
1441.878768	-12.283319
1442.572586	-12.280550
1443.267072	-12.290784
1443.962228	-12.284231
1444.658053	-12.297566
1445.354549	-12.292857
1446.051717	-12.308732
1446.749558	-12.308359
1447.448073	-12.324532
1448.147263	-12.328026
1448.847128	-12.339732
1449.547671	-12.343598
1450.248891	-12.345813
1450.950789	-12.347250
1451.653368	-12.341058
1452.356627	-12.344048
1453.060568	-12.336340
1453.765192	-12.345351
1454.470500	-12.341353
1455.176492	-12.356352
1455.883170	-12.355942
1456.590534	-12.372433
1457.298586	-12.371221
1458.007327	-12.380266
1458.716758	-12.371073
1459.426880	-12.366728
1460.137693	-12.350097
1460.849199	-12.337582
1461.561398	-12.323646
1462.274293	-12.313734
1462.987883	-12.311837
1463.702170	-12.311959
1464.417155	-12.325783
1465.132838	-12.335968
1465.849222	-12.359075
1466.566306	-12.368077
1467.284093	-12.384339
1468.002582	-12.377510
1468.721775	-12.376025
1469.441674	-12.351408
1470.162278	-12.336049
1470.883590	-12.305687
1471.605609	-12.293491
1472.328338	-12.278958
1473.051777	-12.291751
1473.775928	-12.311818
1474.500790	-12.358045
1475.226367	-12.409563
1475.952657	-12.474564
1476.679663	-12.535106
1477.407386	-12.592516
1478.135826	-12.635569
1478.864985	-12.663077
1479.594863	-12.675687
1480.325463	-12.675347
1481.056784	-12.675546
1481.788828	-12.677601
1482.521597	-12.700432
1483.255090	-12.738267
1483.989309	-12.810776
1484.724256	-12.904159
1485.459931	-13.035621
1486.196336	-13.179262
1486.933471	-13.345269
1487.671337	-13.495244
1488.409937	-13.634377
1489.149270	-13.717932
1489.889337	-13.753776
1490.630141	-13.702878
1491.371682	-13.589699
1492.113961	-13.397764
1492.856979	-13.172671
1493.600738	-12.913461
1494.345238	-12.668740
1495.090481	-12.433589
1495.836467	-12.247462
1496.583198	-12.097023
1497.330675	-12.010965
1498.078899	-11.965861
1498.827872	-11.979208
1499.577593	-12.019714
1500.328065	-12.100168
1501.079289	-12.187843
1501.831265	-12.295475
1502.583995	-12.392847
1503.337480	-12.499820
1504.091721	-12.597071
1504.846719	-12.716786
1505.602475	-12.848569
1506.358991	-13.029080
1507.116268	-13.249414
1507.874306	-13.547370
1508.633108	-13.913223
1509.392673	-14.382379
1510.153004	-14.937135
1510.914101	-15.608777
1511.675965	-16.370829
1512.438599	-17.250698
1513.202002	-18.198746
1513.966176	-19.212589
1514.731122	-20.172960
1515.496842	-20.991067
1516.263336	-21.442409
1517.030607	-21.419834
1517.798654	-20.869137
1518.567479	-19.946969
1519.337083	-18.809603
1520.107468	-17.601433
1520.878634	-16.401022
1521.650584	-15.248537
1522.423317	-14.165673
1523.196836	-13.155735
1523.971141	-12.227765
1524.746233	-11.376710
1525.522115	-10.605615
1526.298786	-9.905313
1527.076249	-9.276346
1527.854504	-8.710849
1528.633553	-8.208306
1529.413397	-7.759597
1530.194037	-7.362462
1530.975474	-7.009562
1531.757709	-6.699588
1532.540745	-6.425854
1533.324581	-6.186702
1534.109220	-5.977524
1534.894662	-5.799176
1535.680909	-5.649534
1536.467961	-5.530008
1537.255821	-5.440380
1538.044489	-5.384947
1538.833967	-5.365603
1539.624256	-5.387073
1540.415357	-5.451751
1541.207271	-5.565830
1542.000000	-5.732957
1542.793545	-5.959442
1543.587907	-6.248072
1544.383087	-6.606525
1545.179088	-7.039114
1545.975909	-7.555220
1546.773552	-8.159306
1547.572019	-8.864874
1548.371311	-9.681399
1549.171428	-10.631101
1549.972373	-11.731363
1550.774147	-13.022712
1551.576751	-14.549020
1552.380185	-16.403918
1553.184453	-18.713197
1553.989554	-21.754435
1554.795490	-26.001359
1555.602263	-31.328941
1556.409873	-29.451924
1557.218322	-24.648289
1558.027612	-21.369527
1558.837743	-19.047720
1559.648717	-17.322513
1560.460536	-15.978522
1561.273200	-14.915708
1562.086710	-14.055329
1562.901069	-13.361794
1563.716278	-12.801084
1564.532337	-12.355487
1565.349249	-12.007015
1566.167014	-11.744623
1566.985634	-11.561990
1567.805111	-11.449453
1568.625444	-11.404783
1569.446637	-11.418244
1570.268690	-11.492289
1571.091605	-11.617397
1571.915382	-11.795722
1572.740024	-12.016425
1573.565532	-12.281604
1574.391907	-12.581364
1575.219150	-12.911999
1576.047262	-13.262722
1576.876246	-13.623453
1577.706103	-13.985811
1578.536833	-14.331965
1579.368439	-14.653803
1580.200922	-14.931227
1581.034282	-15.162735
1581.868522	-15.335129
1582.703643	-15.451317
1583.539646	-15.510787
1584.376532	-15.521436
1585.214304	-15.495352
1586.052962	-15.436233
1586.892508	-15.358471
1587.732943	-15.262101
1588.574269	-15.160324
1589.416487	-15.049342
1590.259599	-14.933990
1591.103605	-14.812519
1591.948508	-14.685403
1592.794309	-14.553449
1593.641009	-14.411429
1594.488609	-14.265143
1595.337112	-14.111321
1596.186518	-13.958009
1597.036829	-13.802756
1597.888047	-13.654147
1598.740172	-13.515221
1599.593207	-13.390417
1600.447153	-13.283841
1601.302010	-13.196143
1602.157782	-13.134412
1603.014469	-13.095042
1603.872072	-13.082173
1604.730593	-13.092282
1605.590034	-13.127330
1606.450397	-13.184138
1607.311681	-13.257774
1608.173890	-13.348324
1609.037024	-13.448601
1609.901085	-13.558204
1610.766075	-13.668306
1611.631995	-13.779544
1612.498846	-13.888345
1613.366630	-13.991927
1614.235349	-14.091118
1615.105004	-14.184030
1615.975596	-14.276091
1616.847128	-14.363437
1617.719600	-14.450685
1618.593014	-14.538384
1619.467372	-14.627152
1620.342675	-14.717361
1621.218924	-14.805707
1622.096122	-14.896586
1622.974270	-14.984566
1623.853369	-15.071381
1624.733420	-15.156554
1625.614427	-15.242067
1626.496389	-15.329683
1627.379308	-15.417816
1628.263187	-15.513219
1629.148026	-15.614397
1630.033828	-15.722951
1630.920593	-15.838113
1631.808324	-15.959896
1632.697022	-16.087798
1633.586688	-16.214891
1634.477324	-16.342572
1635.368932	-16.466567
1636.261514	-16.584197
1637.155070	-16.693682
1638.049602	-16.794245
1638.945113	-16.888836
1639.841603	-16.972741
1640.739075	-17.049848
1641.637529	-17.120969
1642.536968	-17.184882
1643.437393	-17.242546
1644.338806	-17.292995
1645.241209	-17.340238
1646.144602	-17.379929
1647.048988	-17.413482
1647.954368	-17.444229
1648.860744	-17.468280
1649.768118	-17.487361
1650.676491	-17.499763
1651.585865	-17.507047
1652.496241	-17.506917
1653.407621	-17.496206
1654.320008	-17.479955
1655.233401	-17.453683
1656.147804	-17.418226
1657.063218	-17.376518
1657.979645	-17.328552
1658.897085	-17.276642
1659.815542	-17.219078
1660.735016	-17.160015
1661.655509	-17.099009
1662.577023	-17.033329
1663.499560	-16.967911
1664.423121	-16.900050
1665.347709	-16.828820
1666.273324	-16.755403
1667.199969	-16.678869
1668.127645	-16.600663
1669.056353	-16.518594
1669.986097	-16.435890
1670.916877	-16.353081
1671.848695	-16.267473
1672.781553	-16.183068
1673.715452	-16.099322
1674.650395	-16.014944
1675.586383	-15.932060
1676.523418	-15.849846
1677.461501	-15.768849
1678.400635	-15.687200
1679.340821	-15.606107
1680.282061	-15.525806
1681.224357	-15.443952
1682.167710	-15.363518
1683.112122	-15.284540
1684.057595	-15.205490
1685.004132	-15.128714
1685.951732	-15.053647
1686.900400	-14.979746
1687.850135	-14.907091
1688.800940	-14.835460
1689.752818	-14.765080
1690.705768	-14.694371
1691.659795	-14.625238
1692.614898	-14.558217
1693.571081	-14.491130
1694.528345	-14.426936
1695.486691	-14.364534
1696.446122	-14.302466
1697.406640	-14.243284
1698.368245	-14.185539
1699.330941	-14.128608
1700.294729	-14.073666
1701.259611	-14.019539
1702.225588	-13.966998
1703.192664	-13.915728
1704.160838	-13.866017
1705.130114	-13.818288
1706.100493	-13.771280
1707.071977	-13.726228
1708.044568	-13.683120
1709.018268	-13.640291
1709.993079	-13.599850
1710.969003	-13.560646
1711.946041	-13.521690
1712.924196	-13.485194
1713.903469	-13.449883
1714.883862	-13.415053
1715.865378	-13.382554
1716.848017	-13.350661
1717.831783	-13.319109
1718.816677	-13.289440
1719.802701	-13.259667
1720.789857	-13.230616
1721.778147	-13.202485
1722.767573	-13.174514
1723.758136	-13.147234
1724.749840	-13.121137
1725.742685	-13.095161
1726.736673	-13.070148
1727.731808	-13.045166
1728.728090	-13.020851
1729.725521	-12.996860
1730.724105	-12.973168
1731.723842	-12.950557
1732.724735	-12.928562
1733.726785	-12.907779
1734.729995	-12.888351
1735.734366	-12.869526
1736.739902	-12.850764
1737.746603	-12.833025
1738.754472	-12.814788
1739.763510	-12.797777
1740.773721	-12.781971
1741.785105	-12.766242
1742.797665	-12.752041
1743.811403	-12.738582
1744.826321	-12.725485
1745.842422	-12.713200
1746.859706	-12.701346
1747.878177	-12.688662
1748.897835	-12.676978
1749.918685	-12.666379
1750.940726	-12.656055
1751.963963	-12.647694
1752.988395	-12.638643
1754.014027	-12.628977
1755.040860	-12.620397
1756.068895	-12.612377
1757.098135	-12.606237
1758.128583	-12.601268
1759.160240	-12.596200
1760.193109	-12.590258
1761.227191	-12.584796
1762.262488	-12.580208
1763.299004	-12.576542
1764.336740	-12.574436
1765.375697	-12.571576
1766.415880	-12.568208
1767.457288	-12.564650
1768.499926	-12.560962
1769.543794	-12.558572
1770.588895	-12.556063
1771.635231	-12.554146
1772.682805	-12.551838
1773.731619	-12.548374
1774.781674	-12.546122
1775.832973	-12.543206
1776.885519	-12.540562
1777.939312	-12.539499
1778.994357	-12.537269
1780.050654	-12.536143
1781.108207	-12.535783
1782.167017	-12.534717
1783.227087	-12.535217
1784.288418	-12.534905
1785.351013	-12.534130
1786.414875	-12.534844
1787.480006	-12.534794
1788.546407	-12.535699
1789.614082	-12.537801
1790.683032	-12.539286
1791.753259	-12.541922
1792.824767	-12.544399
1793.897557	-12.546500
1794.971632	-12.549411
1796.046994	-12.551618
1797.123645	-12.554186
1798.201588	-12.557707
1799.280824	-12.561263
1800.361357	-12.566030
1801.443188	-12.571721
1802.526320	-12.577134
1803.610756	-12.581907
1804.696497	-12.586632
1805.783546	-12.591133
1806.871906	-12.595725
1807.961578	-12.601864
1809.052565	-12.608019
1810.144870	-12.614405
1811.238494	-12.621506
1812.333441	-12.627105
1813.429713	-12.633383
1814.527311	-12.640528
1815.626239	-12.646327
1816.726499	-12.653059
1817.828094	-12.660092
1818.931025	-12.666945
1820.035295	-12.675516
1821.140906	-12.685095
1822.247862	-12.694730
1823.356165	-12.703950
1824.465816	-12.713514
1825.576819	-12.723223
1826.689175	-12.732583
1827.802888	-12.744168
1828.917960	-12.757302
1830.034394	-12.769336
1831.152191	-12.781087
1832.271354	-12.792949
1833.391887	-12.804460
1834.513790	-12.815999
1835.637068	-12.828593
1836.761722	-12.841711
1837.887755	-12.854085
1839.015169	-12.866980
1840.143968	-12.880727
1841.274153	-12.894693
1842.405727	-12.908678
1843.538693	-12.922765
1844.673053	-12.936999
1845.808810	-12.950992
1846.945966	-12.966028
1848.084525	-12.982048
1849.224488	-12.998345
1850.365858	-13.014846
1851.508638	-13.031158
1852.652831	-13.047708
1853.798438	-13.064307
1854.945463	-13.081856
1856.093909	-13.100592
1857.243777	-13.119325
1858.395071	-13.138078
1859.547794	-13.156888
1860.701947	-13.176271
1861.857533	-13.196236
1863.014556	-13.216559
1864.173018	-13.238039
1865.332922	-13.260265
1866.494270	-13.282724
1867.657065	-13.304622
1868.821309	-13.326534
1869.987006	-13.350158
1871.154158	-13.374522
1872.322768	-13.398712
1873.492839	-13.421978
1874.664373	-13.445794
1875.837373	-13.470207
1877.011841	-13.494192
1878.187782	-13.517540
1879.365197	-13.540940
1880.544089	-13.565425
1881.724460	-13.589964
1882.906315	-13.614482
1884.089655	-13.638154
1885.274483	-13.662272
1886.460803	-13.686358
1887.648616	-13.711070
1888.837927	-13.735516
1890.028736	-13.760124
1891.221049	-13.785916
1892.414866	-13.811307
1893.610192	-13.836644
1894.807028	-13.860735
1896.005379	-13.885080
1897.205246	-13.910546
1898.406633	-13.936865
1899.609542	-13.963323
1900.813977	-13.989596
1902.019940	-14.016316
1903.227434	-14.043202
1904.436462	-14.071245
1905.647028	-14.098970
1906.859133	-14.126113
1908.072781	-14.153314
1909.287976	-14.182010
1910.504719	-14.211479
1911.723013	-14.241114
1912.942863	-14.270545
1914.164270	-14.299502
1915.387238	-14.327960
1916.611770	-14.356481
1917.837868	-14.385479
1919.065536	-14.414014
1920.294777	-14.442365
1921.525594	-14.469866
1922.757989	-14.497259
1923.991967	-14.523464
1925.227529	-14.549130
1926.464679	-14.574605
1927.703420	-14.600567
1928.943755	-14.626709
1930.185688	-14.651950
1931.429221	-14.675619
1932.674356	-14.697671
1933.921099	-14.718953
1935.169451	-14.740442
1936.419415	-14.761627
1937.670996	-14.782152
1938.924195	-14.801322
1940.179017	-14.819337
1941.435463	-14.836333
1942.693538	-14.853191
1943.953245	-14.870606
1945.214586	-14.888322
1946.477566	-14.905596
1947.742186	-14.921577
1949.008451	-14.936971
1950.276363	-14.951660
1951.545926	-14.966317
1952.817143	-14.980446
1954.090017	-14.995057
1955.364551	-15.009843
1956.640749	-15.024970
1957.918615	-15.038944
1959.198150	-15.052137
1960.479359	-15.064328
1961.762244	-15.077183
1963.046810	-15.089834
1964.333059	-15.102607
1965.620995	-15.113939
1966.910621	-15.123497
1968.201940	-15.131118
1969.494956	-15.137765
1970.789672	-15.144164
1972.086091	-15.149255
1973.384217	-15.152076
1974.684053	-15.152714
1975.985602	-15.152785
1977.288869	-15.152107
1978.593855	-15.150273
1979.900566	-15.146571
1981.209003	-15.141604
1982.519171	-15.135755
1983.831073	-15.128490
1985.144712	-15.119500
1986.460093	-15.108766
1987.777217	-15.097728
1989.096089	-15.086815
1990.416713	-15.076111
1991.739092	-15.064349
1993.063228	-15.051485
1994.389127	-15.037929
1995.716791	-15.024678
1997.046223	-15.011218
1998.377428	-14.997945
1999.710409	-14.983746
2001.045169	-14.969041
2002.381713	-14.953329
2003.720043	-14.936857
2005.060163	-14.920326
2006.402077	-14.903950
2007.745788	-14.887954
2009.091301	-14.871461
2010.438618	-14.853666
2011.787743	-14.834864
2013.138680	-14.815866
2014.491433	-14.797906
2015.846005	-14.780300
2017.202399	-14.762752
2018.560621	-14.743397
2019.920673	-14.720638
2021.282558	-14.696153
2022.646281	-14.672168
2024.011846	-14.648454
2025.379256	-14.622403
2026.748515	-14.593942
2028.119626	-14.563878
2029.492594	-14.533944
2030.867422	-14.504767
2032.244114	-14.475032
2033.622673	-14.444600
2035.003104	-14.412741
2036.385411	-14.380469
2037.769597	-14.348230
2039.155665	-14.317144
2040.543621	-14.286797
2041.933467	-14.256682
2043.325208	-14.225815
2044.718847	-14.194369
2046.114389	-14.163670
2047.511837	-14.134118
2048.911195	-14.105467
2050.312467	-14.076171
2051.715657	-14.047176
2053.120769	-14.019257
2054.527807	-13.993524
2055.936775	-13.968318
2057.347677	-13.943060
2058.760516	-13.918163
2060.175297	-13.894419
2061.592025	-13.871300
2063.010701	-13.847620
2064.431332	-13.823132
2065.853921	-13.798703
2067.278472	-13.774567
2068.704988	-13.748914
2070.133475	-13.721296
2071.563936	-13.692821
2072.996375	-13.664553
2074.430796	-13.635860
2075.867204	-13.606385
2077.305603	-13.576795
2078.745996	-13.547190
2080.188389	-13.517582
2081.632784	-13.488030
2083.079187	-13.459259
2084.527601	-13.431924
2085.978030	-13.404772
2087.430480	-13.377031
2088.884954	-13.350243
2090.341455	-13.325796
2091.799990	-13.301899
2093.260561	-13.276919
2094.723173	-13.252271
2096.187831	-13.229924
2097.654538	-13.212080
2099.123300	-13.195988
2100.594119	-13.176334
2102.067001	-13.152780
2103.541950	-13.128606
2105.018971	-13.107419
2106.498067	-13.092156
2107.979243	-13.084024
2109.462503	-13.080101
2110.947853	-13.074006
2112.435295	-13.059999
2113.924836	-13.037932
2115.416478	-13.011150
2116.910227	-12.986130
2118.406087	-12.970471
2119.904063	-12.967427
2121.404158	-12.970607
2122.906378	-12.970009
2124.410727	-12.957142
2125.917210	-12.930411
2127.425831	-12.891697
2128.936594	-12.848667
2130.449505	-12.813112
2131.964567	-12.794632
2133.481786	-12.798988
2135.001166	-12.822580
2136.522711	-12.856987
2138.046427	-12.891012
2139.572317	-12.911771
2141.100388	-12.910608
2142.630642	-12.886526
2144.163085	-12.844810
2145.697722	-12.792580
2147.234558	-12.736881
2148.773596	-12.685013
2150.314842	-12.643771
2151.858301	-12.616603
2153.403977	-12.600930
2154.951875	-12.593079
2156.502000	-12.592159
2158.054357	-12.597514
2159.608950	-12.606586
2161.165785	-12.616330
2162.724866	-12.626572
2164.286198	-12.638033
2165.849786	-12.652013
2167.415635	-12.669573
2168.983749	-12.688713
2170.554134	-12.709418
2172.126795	-12.733667
2173.701737	-12.761077
2175.278964	-12.789492
2176.858481	-12.817138
2178.440294	-12.844233
2180.024408	-12.869908
2181.610827	-12.892995
2183.199557	-12.913762
2184.790602	-12.929740
2186.383968	-12.939971
2187.979660	-12.946712
2189.577683	-12.947913
2191.178041	-12.941000
2192.780741	-12.927565
2194.385787	-12.910803
2195.993185	-12.892302
2197.602939	-12.873191
2199.215054	-12.855792
2200.829537	-12.841970
2202.446392	-12.834576
2204.065624	-12.836063
2205.687239	-12.846851
2207.311242	-12.867530
2208.937638	-12.900109
2210.566433	-12.943231
2212.197631	-12.992605
2213.831239	-13.044655
2215.467261	-13.094404
2217.105703	-13.137536
2218.746570	-13.169283
2220.389867	-13.187457
2222.035601	-13.195172
2223.683776	-13.194443
2225.334398	-13.189123
2226.987472	-13.187779
2228.643004	-13.196787
2230.300999	-13.218310
2231.961463	-13.256449
2233.624402	-13.308827
2235.289820	-13.367941
2236.957723	-13.421492
2238.628118	-13.462456
2240.301009	-13.488397
2241.976402	-13.498698
2243.654303	-13.501033
2245.334717	-13.508029
2247.017650	-13.531463
2248.703108	-13.575995
2250.391096	-13.639733
2252.081620	-13.713359
2253.774686	-13.783217
2255.470300	-13.841997
2257.168467	-13.885642
2258.869193	-13.918088
2260.572484	-13.950588
2262.278345	-13.993853
2263.986783	-14.049149
2265.697804	-14.109261
2267.411412	-14.168490
2269.127615	-14.220608
2270.846417	-14.263830
2272.567826	-14.302598
2274.291846	-14.343631
2276.018484	-14.388259
2277.747745	-14.438445
2279.479637	-14.489602
2281.214164	-14.536855
2282.951333	-14.584150
2284.691149	-14.635949
2286.433619	-14.690987
2288.178750	-14.749536
2289.926546	-14.813452
2291.677014	-14.878708
2293.430161	-14.944083
2295.185992	-15.014132
2296.944513	-15.087863
2298.705732	-15.163245
2300.469653	-15.242027
2302.236283	-15.320003
2304.005629	-15.399566
2305.777696	-15.485308
2307.552492	-15.571372
2309.330022	-15.655400
2311.110292	-15.742582
2312.893310	-15.833474
2314.679080	-15.922612
2316.467611	-16.011825
2318.258907	-16.099853
2320.052976	-16.186441
2321.849824	-16.274229
2323.649457	-16.361626
2325.451883	-16.443544
2327.257106	-16.522703
2329.065135	-16.604676
2330.875975	-16.684771
2332.689633	-16.764409
2334.506116	-16.846274
2336.325430	-16.932205
2338.147581	-17.022172
2339.972578	-17.117290
2341.800425	-17.214966
2343.631130	-17.314577
2345.464700	-17.420115
2347.301141	-17.525293
2349.140461	-17.630087
2350.982665	-17.741987
2352.827760	-17.856042
2354.675754	-17.973310
2356.526653	-18.096850
2358.380464	-18.225910
2360.237195	-18.357898
2362.096851	-18.492888
2363.959440	-18.626382
2365.824968	-18.758488
2367.693444	-18.893527
2369.564873	-19.027375
2371.439263	-19.156940
2373.316620	-19.287680
2375.196953	-19.415527
2377.080267	-19.538828
2378.966570	-19.658231
2380.855869	-19.775731
2382.748171	-19.892558
2384.643484	-20.008603
2386.541815	-20.125379
2388.443170	-20.244393
2390.347557	-20.369623
2392.254984	-20.496036
2394.165457	-20.626285
2396.078984	-20.765300
2397.995572	-20.903375
2399.915229	-21.045681
2401.837961	-21.192010
2403.763777	-21.341752
2405.692684	-21.499918
2407.624689	-21.657156
2409.559800	-21.818003
2411.498023	-21.992494
2413.439368	-22.167861
2415.383840	-22.345137
2417.331449	-22.529885
2419.282201	-22.718301
2421.236104	-22.903672
2423.193165	-23.080247
2425.153393	-23.254773
2427.116795	-23.428835
2429.083378	-23.587527
2431.053151	-23.746834
2433.026121	-23.908007
2435.002297	-24.047814
2436.981685	-24.193567
2438.964293	-24.339339
2440.950131	-24.472380
2442.939204	-24.615662
2444.931522	-24.768894
2446.927092	-24.926285
2448.925923	-25.082005
2450.928022	-25.249037
2452.933397	-25.428532
2454.942056	-25.595761
2456.954008	-25.773442
2458.969260	-25.966103
2460.987821	-26.145886
2463.009699	-26.346316
2465.034902	-26.558962
2467.063437	-26.759313
2469.095315	-26.991036
2471.130542	-27.225971
2473.169127	-27.450748
2475.211078	-27.685305
2477.256404	-27.926233
2479.305112	-28.151198
2481.357212	-28.344554
2483.412713	-28.550033
2485.471621	-28.736946
2487.533946	-28.894433
2489.599696	-29.062340
2491.668880	-29.201592
2493.741507	-29.342994
2495.817585	-29.486139
2497.897122	-29.610825
2499.980127	-29.763247
2502.066609	-29.929334
2504.156578	-30.094878
2506.250040	-30.270972
2508.347006	-30.466757
2510.447483	-30.655482
2512.551482	-30.841648
2514.659010	-31.053475
2516.770076	-31.263745
2518.884690	-31.479191
2521.002861	-31.713942
2523.124597	-31.959768
2525.249907	-32.236932
2527.378801	-32.532493
2529.511287	-32.826032
2531.647375	-33.126611
2533.787074	-33.413368
2535.930393	-33.702526
2538.077340	-33.940237
2540.227927	-34.159646
2542.382160	-34.333811
2544.540051	-34.491383
2546.701608	-34.610672
2548.866840	-34.724597
2551.035757	-34.821194
2553.208369	-34.890330
2555.384684	-34.990693
2557.564713	-35.088546
2559.748465	-35.234321
2561.935948	-35.378425
2564.127174	-35.537831
2566.322152	-35.746783
2568.520890	-35.922324
2570.723399	-36.108586
2572.929689	-36.319121
2575.139769	-36.556998
2577.353649	-36.767675
2579.571340	-37.085085
2581.792849	-37.425438
2584.018189	-37.743090
2586.247368	-38.178385
2588.480396	-38.612012
2590.717284	-39.036814
2592.958041	-39.427891
2595.202678	-39.884944
2597.451204	-40.136145
2599.703630	-40.404145
2601.959966	-40.562956
2604.220222	-40.691398
2606.484408	-40.665519
2608.752535	-40.684651
2611.024612	-40.647241
2613.300651	-40.583822
2615.580661	-40.558092
2617.864653	-40.577052
2620.152638	-40.595743
2622.444625	-40.651986
2624.740626	-40.819731
2627.040651	-40.853048
2629.344710	-40.980641
2631.652814	-41.085986
2633.964974	-41.246789
2636.281200	-41.421636
2638.601504	-41.735123
2640.925896	-42.025168
2643.254386	-42.474294
2645.586987	-42.971479
2647.923707	-43.587881
2650.264559	-44.272263
2652.609554	-44.926006
2654.958702	-45.739058
2657.312015	-46.303415
2659.669503	-46.976477
2662.031178	-47.466954
2664.397051	-47.690792
2666.767132	-47.854565
2669.141434	-47.749922
2671.519968	-47.547165
2673.902745	-47.282260
2676.289776	-46.904866
2678.681072	-46.717172
2681.076646	-46.499225
2683.476508	-46.314302
2685.880671	-46.252218
2688.289145	-45.963016
2690.701942	-45.815174
2693.119075	-45.722613
2695.540554	-45.510290
2697.966391	-45.540485
2700.396599	-45.654653
2702.831189	-45.726569
2705.270172	-46.124573
2707.713561	-46.451589
2710.161368	-47.054483
2712.613605	-47.768310
2715.070283	-48.408805
2717.531416	-49.371404
2719.997014	-50.236812
2722.467090	-51.282987
2724.941657	-52.448286
2727.420726	-53.600841
2729.904310	-54.813098
2732.392421	-55.721857
2734.885072	-56.076202
2737.382275	-56.203994
2739.884042	-55.742461
2742.390387	-55.637000
2744.901321	-54.992715
2747.416857	-54.725413
2749.937008	-53.960620
2752.461787	-53.024102
2754.991206	-52.202295
2757.525279	-51.420773
2760.064017	-50.870763
2762.607434	-50.353226
2765.155544	-50.145828
2767.708358	-49.923064
2770.265890	-50.083099
2772.828153	-50.128815
2775.395160	-50.587442
2777.966924	-50.769344
2780.543459	-51.438361
2783.124778	-51.807839
2785.710894	-52.508621
2788.301821	-53.201083
2790.897572	-53.966269
2793.498160	-55.011048
2796.103599	-55.861732
2798.713903	-56.933996
2801.329085	-57.720580
2803.949159	-58.784101
2806.574139	-59.762960
2809.204038	-61.310275
2811.838871	-63.888973
2814.478650	-66.986140
2817.123391	-69.130547
2819.773107	-66.482452
2822.427812	-63.028147
2825.087521	-60.961640
2827.752247	-59.087813
2830.422005	-57.863363
2833.096808	-57.036742
2835.776672	-56.472314
2838.461611	-56.267246
2841.151638	-56.145196
2843.846769	-56.222094
2846.547019	-56.255676
2849.252401	-56.444477
2851.962930	-56.750196
2854.678621	-56.712556
2857.399489	-57.319645
2860.125549	-57.615938
2862.856815	-57.861155
2865.593302	-57.936445
2868.335026	-57.992361
2871.082002	-57.871812
2873.834244	-57.835719
2876.591767	-58.135375
2879.354588	-58.873201
2882.122721	-60.250625
2884.896181	-61.842344
2887.674984	-63.603901
2890.459146	-67.336607
2893.248681	-69.981927
2896.043606	-74.903398
2898.843937	-75.483262
2901.649687	-69.680514
2904.460875	-67.830722
2907.277515	-66.135893
2910.099623	-64.695492
2912.927215	-64.532218
2915.760308	-64.023864
2918.598916	-64.003473
2921.443057	-64.425449
2924.292747	-64.692273
2927.148002	-65.327731
2930.008837	-66.689995
2932.875270	-66.306271
2935.747318	-65.725293
2938.624995	-64.595747
2941.508320	-62.549432
2944.397308	-61.585546
2947.291977	-61.147273
2950.192343	-60.745754
2953.098423	-61.336644
2956.010234	-61.460827
2958.927792	-62.179621
2961.851116	-63.078693
2964.780221	-64.073222
2967.715126	-66.201974
2970.655847	-68.233866
2973.602402	-70.242702
2976.554808	-73.167567
2979.513083	-74.183821
2982.477243	-73.542893
2985.447308	-72.158576
2988.423293	-70.320188
2991.405218	-68.672831
2994.393099	-67.324658
2997.386955	-67.173607
