# 2022-03-22_08.26.13
# shape = sech2
# FWHM_ps = 0.11
# carrier_nm = 1542
# frep_MHz = 12126
# pow_mW = 8000
# GDD = 0.0
# propa_len = 0.098
# untap_len = 0.01
# taper_len = 0.038
# waist_len = 0.02
# uptap_len = 0.02
# untap_scale = 1.0
# waist_scale = 0.21052631578947373
# workingDir = NL_20110305_12 (Spirou)
# axis = slow
# window_ps = 10.0
# steps = 200
# points = 21700
# 
# wavelength [nm]	 power spectral density [dB]
600.043425	-76.408963
600.163550	-77.027046
600.283723	-77.719370
600.403943	-78.495866
600.524212	-79.420881
600.644529	-80.616564
600.764895	-82.249822
600.885308	-84.562701
601.005770	-87.480390
601.126280	-88.586926
601.246839	-85.674218
601.367446	-82.304647
601.488101	-79.727232
601.608804	-77.861324
601.729557	-76.569268
601.850357	-75.735341
601.971206	-75.273842
602.092104	-75.092021
602.213050	-75.087067
602.334045	-75.156662
602.455089	-75.217516
602.576181	-75.245693
602.697322	-75.276711
602.818511	-75.384959
602.939749	-75.650818
603.061036	-76.135679
603.182372	-76.873164
603.303757	-77.822087
603.425191	-78.867859
603.546673	-79.812368
603.668204	-80.492327
603.789785	-80.886643
603.911414	-81.069972
604.033092	-81.115453
604.154820	-80.986447
604.276596	-80.547854
604.398422	-79.754078
604.520297	-78.710782
604.642220	-77.601979
604.764193	-76.610959
604.886216	-75.831425
605.008287	-75.296659
605.130408	-75.009699
605.252578	-74.958528
605.374798	-75.107632
605.497066	-75.407308
605.619385	-75.801100
605.741752	-76.204153
605.864169	-76.548581
605.986636	-76.839477
606.109152	-77.118055
606.231718	-77.444415
606.354333	-77.861473
606.476998	-78.331184
606.599712	-78.745674
606.722476	-78.896965
606.845290	-78.650422
606.968154	-78.085869
607.091067	-77.413285
607.214030	-76.830035
607.337043	-76.420011
607.460106	-76.194770
607.583219	-76.092762
607.706381	-76.044184
607.829594	-75.966716
607.952856	-75.842500
608.076169	-75.700915
608.199531	-75.611704
608.322944	-75.646177
608.446407	-75.855039
608.569920	-76.241553
608.693483	-76.754128
608.817096	-77.285030
608.940759	-77.673912
609.064473	-77.776182
609.188237	-77.555541
609.312051	-77.120677
609.435916	-76.607740
609.559831	-76.125422
609.683796	-75.723118
609.807812	-75.404005
609.931878	-75.164622
610.055995	-74.967329
610.180162	-74.798584
610.304380	-74.652488
610.428648	-74.543790
610.552967	-74.521900
610.677337	-74.637472
610.801757	-74.940180
610.926228	-75.432436
611.050750	-76.084075
611.175323	-76.782463
611.299946	-77.340991
611.424620	-77.614580
611.549345	-77.578427
611.674121	-77.354554
611.798948	-77.077603
611.923826	-76.792417
612.048755	-76.451495
612.173734	-75.991724
612.298765	-75.411271
612.423847	-74.768072
612.548980	-74.152078
612.674165	-73.630258
612.799400	-73.240107
612.924687	-72.998662
613.050025	-72.918081
613.175414	-73.004366
613.300854	-73.253518
613.426346	-73.663882
613.551889	-74.213545
613.677484	-74.859263
613.803130	-75.547559
613.928827	-76.214878
614.054576	-76.827918
614.180377	-77.383808
614.306229	-77.848030
614.432132	-78.061709
614.558087	-77.796953
614.684094	-77.008517
614.810153	-75.931280
614.936263	-74.863487
615.062425	-73.962900
615.188639	-73.285812
615.314904	-72.816644
615.441222	-72.522746
615.567591	-72.354071
615.694012	-72.273927
615.820486	-72.267865
615.947011	-72.346722
616.073588	-72.539804
616.200217	-72.859421
616.326898	-73.324908
616.453632	-73.934436
616.580417	-74.700386
616.707255	-75.636280
616.834144	-76.689549
616.961086	-77.624773
617.088081	-78.014928
617.215127	-77.579381
617.342226	-76.574835
617.469378	-75.447215
617.596581	-74.452494
617.723837	-73.660087
617.851146	-73.053859
617.978507	-72.580051
618.105920	-72.191957
618.233386	-71.873348
618.360905	-71.651460
618.488476	-71.563203
618.616100	-71.637377
618.743777	-71.882119
618.871506	-72.294696
618.999288	-72.863947
619.127123	-73.578706
619.255011	-74.410749
619.382951	-75.276844
619.510945	-76.027798
619.638991	-76.465862
619.767090	-76.439549
619.895243	-75.989599
620.023448	-75.307122
620.151706	-74.566363
620.280017	-73.847827
620.408382	-73.168123
620.536799	-72.527068
620.665270	-71.945472
620.793794	-71.470219
620.922371	-71.153029
621.051002	-71.026531
621.179686	-71.101534
621.308423	-71.374764
621.437213	-71.833990
621.566057	-72.454682
621.694954	-73.194948
621.823905	-73.983478
621.952909	-74.727974
622.081967	-75.310579
622.211079	-75.632424
622.340244	-75.619741
622.469462	-75.269867
622.598735	-74.667764
622.728061	-73.940554
622.857441	-73.168085
622.986874	-72.411839
623.116361	-71.717337
623.245903	-71.141723
623.375498	-70.720866
623.505147	-70.484187
623.634850	-70.444588
623.764606	-70.599025
623.894417	-70.945301
624.024282	-71.472041
624.154201	-72.151703
624.284174	-72.943265
624.414202	-73.782106
624.544283	-74.595012
624.674419	-75.275396
624.804609	-75.644760
624.934853	-75.568542
625.065151	-75.026340
625.195504	-74.168820
625.325911	-73.194402
625.456373	-72.243529
625.586889	-71.404764
625.717460	-70.719963
625.848085	-70.210281
625.978764	-69.886876
626.109498	-69.756374
626.240287	-69.823935
626.371131	-70.080132
626.502029	-70.511478
626.632982	-71.091467
626.763989	-71.796237
626.895052	-72.613225
627.026169	-73.521172
627.157341	-74.466355
627.288568	-75.274199
627.419850	-75.654027
627.551187	-75.399128
627.682579	-74.592779
627.814026	-73.522994
627.945528	-72.429349
628.077085	-71.440553
628.208697	-70.624712
628.340364	-70.009400
628.472087	-69.602234
628.603865	-69.405627
628.735698	-69.408371
628.867586	-69.590417
628.999530	-69.923301
629.131529	-70.373929
629.263584	-70.935028
629.395694	-71.616549
629.527859	-72.418348
629.660080	-73.292698
629.792357	-74.094836
629.924689	-74.597979
630.057077	-74.617576
630.189520	-74.144968
630.322019	-73.329103
630.454574	-72.367156
630.587184	-71.424873
630.719851	-70.616673
630.852573	-70.003412
630.985351	-69.618354
631.118185	-69.451977
631.251075	-69.480367
631.384021	-69.664896
631.517023	-69.967693
631.650081	-70.368690
631.783195	-70.868966
631.916365	-71.461554
632.049592	-72.102749
632.182874	-72.693463
632.316213	-73.099215
632.449608	-73.230945
632.583059	-73.075152
632.716567	-72.666638
632.850131	-72.064751
632.983751	-71.356970
633.117428	-70.660363
633.251161	-70.091868
633.384951	-69.720174
633.518797	-69.571168
633.652700	-69.627789
633.786660	-69.845803
633.920676	-70.190075
634.054749	-70.633765
634.188879	-71.167686
634.323065	-71.756451
634.457308	-72.295887
634.591608	-72.616962
634.725965	-72.613113
634.860379	-72.321454
634.994850	-71.871849
635.129377	-71.351576
635.263962	-70.779787
635.398604	-70.185883
635.533303	-69.632747
635.668058	-69.209730
635.802872	-68.983387
635.937742	-68.979812
636.072669	-69.189487
636.207654	-69.583201
636.342696	-70.145941
636.477796	-70.883626
636.612953	-71.797874
636.748167	-72.809542
636.883439	-73.646469
637.018768	-73.882768
637.154155	-73.378600
637.289599	-72.445294
637.425101	-71.437496
637.560660	-70.498075
637.696277	-69.643668
637.831952	-68.894727
637.967685	-68.296046
638.103475	-67.899868
638.239324	-67.740128
638.375230	-67.817623
638.511194	-68.112568
638.647215	-68.621970
638.783295	-69.364893
638.919433	-70.412027
639.055629	-71.841839
639.191883	-73.630696
639.328195	-75.370572
639.464565	-75.962514
639.600994	-74.914110
639.737481	-73.206542
639.874025	-71.540324
640.010629	-70.077229
640.147290	-68.844828
640.284010	-67.861296
640.420789	-67.155901
640.557625	-66.734550
640.694521	-66.574533
640.831474	-66.642623
640.968487	-66.918064
641.105558	-67.417517
641.242687	-68.206809
641.379876	-69.399661
641.517123	-71.126150
641.654429	-73.499428
641.791793	-76.372480
641.929216	-78.261690
642.066699	-76.947971
642.204240	-74.241477
642.341840	-71.785521
642.479499	-69.816333
642.617217	-68.307480
642.754994	-67.210715
642.892830	-66.476279
643.030726	-66.045911
643.168680	-65.860318
643.306694	-65.880856
643.444767	-66.113946
643.582899	-66.607696
643.721091	-67.447857
643.859342	-68.732760
643.997652	-70.578738
644.136022	-73.131273
644.274451	-76.510727
644.412940	-79.727663
644.551488	-78.444922
644.690096	-74.729782
644.828763	-71.682607
644.967490	-69.468638
645.106277	-67.904993
645.245124	-66.843143
645.384030	-66.159221
645.522997	-65.753361
645.662023	-65.563921
645.801109	-65.586593
645.940255	-65.862675
646.079460	-66.448709
646.218726	-67.401686
646.358052	-68.770578
646.497438	-70.623110
646.636884	-73.094211
646.776391	-76.347247
646.915957	-79.357409
647.055584	-77.768121
647.195271	-74.020162
647.335019	-71.094053
647.474826	-69.058139
647.614695	-67.671204
647.754623	-66.739148
647.894612	-66.123553
648.034662	-65.754999
648.174772	-65.625423
648.314943	-65.760308
648.455174	-66.195133
648.595466	-66.942041
648.735819	-68.003841
648.876233	-69.384148
649.016707	-71.138926
649.157242	-73.374859
649.297838	-75.972118
649.438495	-77.309410
649.579213	-75.479644
649.719992	-72.744987
649.860832	-70.540303
650.001733	-68.933181
650.142695	-67.774816
650.283718	-66.946921
650.424803	-66.393781
650.565949	-66.110539
650.707156	-66.113027
650.848424	-66.406762
650.989754	-66.968497
651.131145	-67.765388
651.272597	-68.768911
651.414111	-70.010908
651.555687	-71.540857
651.697324	-73.267842
651.839022	-74.613030
651.980782	-74.611798
652.122604	-73.364643
652.264488	-71.791631
652.406433	-70.354869
652.548441	-69.130502
652.690510	-68.125721
652.832640	-67.368761
652.974833	-66.885486
653.117088	-66.685312
653.259405	-66.739575
653.401784	-67.006771
653.544224	-67.451250
653.686727	-68.076905
653.829293	-68.922111
653.971920	-70.008184
654.114609	-71.262811
654.257361	-72.436155
654.400175	-73.167460
654.543052	-73.247729
654.685991	-72.737750
654.828992	-71.789505
654.972056	-70.611121
655.115183	-69.437329
655.258372	-68.441480
655.401623	-67.694168
655.544937	-67.182891
655.688314	-66.869457
655.831754	-66.731985
655.975256	-66.789027
656.118822	-67.084617
656.262450	-67.662640
656.406141	-68.530866
656.549894	-69.658283
656.693711	-70.984059
656.837591	-72.424071
656.981534	-73.750591
657.125540	-74.358285
657.269610	-73.630611
657.413742	-72.015118
657.557938	-70.331410
657.702196	-68.923776
657.846519	-67.815677
657.990904	-66.957084
658.135353	-66.326403
658.279866	-65.944966
658.424441	-65.847357
658.569081	-66.055251
658.713784	-66.574394
658.858550	-67.414375
659.003381	-68.626048
659.148274	-70.325392
659.293232	-72.696949
659.438253	-75.707483
659.583339	-77.368889
659.728488	-75.130417
659.873701	-72.085288
660.018978	-69.713012
660.164318	-67.960138
660.309723	-66.661482
660.455192	-65.732046
660.600725	-65.144656
660.746323	-64.893287
660.891984	-64.971524
661.037710	-65.363742
661.183500	-66.074351
661.329354	-67.170967
661.475272	-68.818774
661.621255	-71.321946
661.767303	-75.185562
661.913415	-80.071129
662.059591	-77.857544
662.205833	-73.121430
662.352138	-69.892256
662.498509	-67.658952
662.644944	-66.079700
662.791443	-65.008255
662.938008	-64.368581
663.084638	-64.112262
663.231332	-64.204630
663.378091	-64.630221
663.524915	-65.411216
663.671804	-66.633586
663.818759	-68.476293
663.965778	-71.283657
664.112863	-75.760423
664.260012	-81.400685
664.407227	-77.227070
664.554507	-72.291808
664.701853	-69.120734
664.849264	-66.954767
664.996740	-65.456472
665.144282	-64.477371
665.291889	-63.932169
665.439561	-63.759894
665.587300	-63.926767
665.735103	-64.442339
665.882973	-65.364480
666.030908	-66.814188
666.178909	-69.010824
666.326976	-72.365596
666.475109	-77.427841
666.623307	-79.157470
666.771571	-73.963440
666.919902	-70.121651
667.068298	-67.586727
667.216761	-65.872805
667.365289	-64.741956
667.513884	-64.071063
667.662545	-63.789345
667.811272	-63.855746
667.960065	-64.258260
668.108925	-65.023552
668.257851	-66.227036
668.406843	-67.989381
668.555902	-70.471236
668.705027	-73.682856
668.854219	-75.881896
669.003478	-73.841199
669.152803	-70.613370
669.302195	-68.088227
669.451653	-66.284789
669.601179	-65.050212
669.750771	-64.281923
669.900430	-63.915164
670.050156	-63.911935
670.199949	-64.257905
670.349808	-64.962011
670.499735	-66.049549
670.649729	-67.548828
670.799790	-69.413456
670.949918	-71.290606
671.100114	-72.127586
671.250377	-71.180977
671.400707	-69.388057
671.551104	-67.673038
671.701569	-66.310175
671.852101	-65.315786
672.002700	-64.661441
672.153368	-64.325536
672.304102	-64.289328
672.454905	-64.544302
672.605775	-65.075054
672.756713	-65.860734
672.907718	-66.870945
673.058791	-68.006844
673.209933	-68.974683
673.361142	-69.311521
673.512419	-68.810395
673.663764	-67.816088
673.815177	-66.761369
673.966658	-65.853695
674.118207	-65.148322
674.269825	-64.668792
674.421510	-64.437528
674.573264	-64.457310
674.725086	-64.689698
674.876977	-65.070383
675.028936	-65.547338
675.180963	-66.077515
675.333059	-66.575943
675.485224	-66.882331
675.637457	-66.863063
675.789758	-66.566072
675.942129	-66.149093
676.094568	-65.712120
676.247075	-65.276310
676.399652	-64.872239
676.552298	-64.557268
676.705012	-64.375039
676.857795	-64.315922
677.010648	-64.339734
677.163569	-64.428494
677.316560	-64.601885
677.469619	-64.866435
677.622748	-65.151324
677.775946	-65.328046
677.929214	-65.328093
678.082551	-65.193337
678.235957	-64.989088
678.389432	-64.725927
678.542977	-64.404002
678.696592	-64.085913
678.850276	-63.856293
679.004030	-63.726467
679.157853	-63.642777
679.311746	-63.574304
679.465709	-63.556212
679.619742	-63.636814
679.773844	-63.805322
679.928017	-63.980826
680.082259	-64.101354
680.236571	-64.164630
680.390954	-64.173491
680.545406	-64.073314
680.699929	-63.807443
680.854522	-63.428407
681.009185	-63.058318
681.163918	-62.773353
681.318722	-62.570052
681.473596	-62.440679
681.628540	-62.423239
681.783555	-62.560611
681.938641	-62.837616
682.093797	-63.154904
682.249023	-63.393721
682.404321	-63.493541
682.559689	-63.439174
682.715128	-63.201456
682.870637	-62.783117
683.026218	-62.293335
683.181869	-61.867439
683.337591	-61.576085
683.493385	-61.416415
683.649249	-61.377246
683.805185	-61.479398
683.961191	-61.741513
684.117269	-62.124101
684.273418	-62.502951
684.429639	-62.749465
684.585930	-62.797864
684.742294	-62.619849
684.898728	-62.209929
685.055234	-61.641085
685.211812	-61.060250
685.368461	-60.600654
685.525182	-60.317462
685.681975	-60.213603
685.838839	-60.298604
685.995775	-60.593192
686.152783	-61.083804
686.309863	-61.670738
686.467014	-62.162690
686.624238	-62.364966
686.781534	-62.177767
686.938902	-61.632301
687.096342	-60.882723
687.253854	-60.129445
687.411438	-59.535249
687.569095	-59.181956
687.726824	-59.077121
687.884626	-59.204375
688.042499	-59.560170
688.200446	-60.134809
688.358465	-60.852762
688.516556	-61.509158
688.674720	-61.817910
688.832957	-61.616961
688.991266	-60.988383
689.149649	-60.142235
689.308104	-59.290781
689.466632	-58.599896
689.625233	-58.166530
689.783906	-58.014568
689.942653	-58.128090
690.101473	-58.493824
690.260367	-59.109596
690.419333	-59.932553
690.578372	-60.779593
690.737485	-61.292976
690.896672	-61.164611
691.055931	-60.450705
691.215264	-59.462105
691.374671	-58.480464
691.534151	-57.686499
691.693704	-57.175755
691.853332	-56.983569
692.013033	-57.100682
692.172807	-57.508006
692.332656	-58.192565
692.492578	-59.108100
692.652575	-60.070397
692.812645	-60.665610
692.972789	-60.505776
693.133007	-59.692144
693.293300	-58.638025
693.453666	-57.646582
693.614107	-56.869086
693.774622	-56.381474
693.935211	-56.215147
694.095875	-56.364325
694.256613	-56.797988
694.417426	-57.473861
694.578313	-58.323575
694.739274	-59.171544
694.900311	-59.669352
695.061421	-59.498944
695.222607	-58.754236
695.383868	-57.801845
695.545203	-56.911657
695.706613	-56.214126
695.868098	-55.778442
696.029658	-55.638234
696.191293	-55.791472
696.353003	-56.206967
696.514789	-56.830868
696.676649	-57.574602
696.838585	-58.254802
697.000596	-58.582195
697.162682	-58.354675
697.324844	-57.683540
697.487081	-56.862286
697.649394	-56.116225
697.811782	-55.559080
697.974246	-55.248750
698.136786	-55.209447
698.299401	-55.432921
698.462092	-55.870062
698.624859	-56.428881
698.787702	-56.977030
698.950621	-57.337551
699.113616	-57.344702
699.276686	-56.976696
699.439833	-56.396371
699.603056	-55.808579
699.766355	-55.342401
699.929731	-55.049019
700.093183	-54.948131
700.256711	-55.040145
700.420315	-55.293928
700.583996	-55.634587
700.747754	-55.954791
700.911588	-56.150170
701.075499	-56.156235
701.239486	-55.965516
701.403550	-55.639722
701.567691	-55.281830
701.731909	-54.982304
701.896203	-54.789860
702.060575	-54.715723
702.225024	-54.750076
702.389549	-54.868818
702.554152	-55.026560
702.718832	-55.160457
702.883589	-55.210878
703.048424	-55.153585
703.213335	-55.002829
703.378324	-54.797500
703.543391	-54.587187
703.708535	-54.422146
703.873757	-54.334608
704.039056	-54.328965
704.204433	-54.388808
704.369887	-54.480664
704.535420	-54.560341
704.701030	-54.579354
704.866718	-54.508244
705.032484	-54.361343
705.198328	-54.178032
705.364250	-53.997328
705.530250	-53.857045
705.696328	-53.789572
705.862485	-53.808216
706.028720	-53.891288
706.195033	-53.993743
706.361424	-54.070812
706.527894	-54.084322
706.694442	-54.003581
706.861069	-53.829289
707.027775	-53.612234
707.194559	-53.419116
707.361422	-53.290364
707.528363	-53.237944
707.695384	-53.263909
707.862483	-53.357090
708.029661	-53.474667
708.196918	-53.554010
708.364254	-53.549533
708.531670	-53.454838
708.699164	-53.289733
708.866738	-53.087705
709.034391	-52.902412
709.202123	-52.784514
709.369935	-52.755486
709.537826	-52.803029
709.705796	-52.896873
709.873847	-52.997848
710.041976	-53.055589
710.210186	-53.025393
710.378475	-52.898537
710.546844	-52.712059
710.715292	-52.518610
710.883821	-52.359163
711.052429	-52.266018
711.221118	-52.265201
711.389887	-52.355023
711.558735	-52.493700
711.727664	-52.614971
711.896673	-52.661504
712.065763	-52.603232
712.234932	-52.434505
712.404183	-52.188423
712.573513	-51.935570
712.742924	-51.747225
712.912416	-51.663422
713.081988	-51.693513
713.251641	-51.831105
713.421375	-52.045545
713.591190	-52.262351
713.761085	-52.375080
713.931061	-52.313121
714.101119	-52.082885
714.271257	-51.750345
714.441476	-51.404474
714.611777	-51.137796
714.782159	-51.017114
714.952622	-51.067012
715.123166	-51.270508
715.293792	-51.579920
715.464499	-51.905835
715.635288	-52.116342
715.806158	-52.090896
715.977110	-51.808710
716.148143	-51.369408
716.319259	-50.917176
716.490456	-50.570268
716.661735	-50.406156
716.833096	-50.459121
717.004538	-50.714763
717.176063	-51.114610
717.347670	-51.543503
717.519359	-51.836303
717.691130	-51.837815
717.862984	-51.514941
718.034920	-50.996413
718.206938	-50.464647
718.379039	-50.061596
718.551222	-49.871783
718.723488	-49.929703
718.895836	-50.220854
719.068267	-50.675992
719.240781	-51.166694
719.413377	-51.504261
719.586057	-51.508968
719.758819	-51.151186
719.931664	-50.587708
720.104593	-50.025720
720.277604	-49.610500
720.450699	-49.420811
720.623876	-49.488840
720.797137	-49.803189
720.970482	-50.293933
721.143910	-50.811992
721.317421	-51.150836
721.491016	-51.132411
721.664694	-50.741774
721.838456	-50.153294
722.012302	-49.587508
722.186231	-49.190139
722.360244	-49.029878
722.534342	-49.130268
722.708523	-49.476160
722.882788	-49.989508
723.057137	-50.502051
723.231570	-50.790398
723.406088	-50.699114
723.580689	-50.257097
723.755375	-49.655843
723.930146	-49.113052
724.105000	-48.769967
724.279940	-48.682748
724.454963	-48.853480
724.630072	-49.251492
724.805265	-49.785808
724.980543	-50.262552
725.155905	-50.439371
725.331353	-50.208403
725.506885	-49.691219
725.682503	-49.102931
725.858205	-48.626733
726.033993	-48.381081
726.209865	-48.409390
726.385823	-48.688934
726.561866	-49.150373
726.737995	-49.664912
726.914209	-50.022768
727.090508	-50.013158
727.266893	-49.624684
727.443364	-49.059210
727.619920	-48.534208
727.796562	-48.187275
727.973290	-48.089471
728.150103	-48.257969
728.327003	-48.646830
728.503988	-49.136566
728.681060	-49.547043
728.858218	-49.684312
729.035461	-49.451354
729.212791	-48.953798
729.390208	-48.415408
729.567710	-48.016063
729.745299	-47.842850
729.922975	-47.920066
730.100737	-48.227659
730.278586	-48.681425
730.456521	-49.113966
730.634543	-49.323336
730.812652	-49.197151
730.990848	-48.793510
731.169130	-48.284609
731.347500	-47.852004
731.525957	-47.620686
731.704500	-47.636167
731.883131	-47.879235
732.061850	-48.281029
732.240655	-48.713702
732.419548	-48.983857
732.598528	-48.935959
732.777596	-48.593775
732.956751	-48.122753
733.135994	-47.691548
733.315325	-47.418163
733.494744	-47.371829
733.674250	-47.561298
733.853844	-47.925774
734.033526	-48.344458
734.213296	-48.651152
734.393154	-48.688477
734.573101	-48.418033
734.753135	-47.969750
734.933258	-47.532046
735.113469	-47.235132
735.293769	-47.138850
735.474157	-47.261115
735.654633	-47.573332
735.835198	-47.973053
736.015852	-48.299335
736.196594	-48.401501
736.377426	-48.221384
736.558346	-47.835465
736.739355	-47.408593
736.920453	-47.093285
737.101640	-46.963590
737.282916	-47.029250
737.464282	-47.267839
737.645736	-47.612165
737.827280	-47.931311
738.008914	-48.074782
738.190637	-47.974405
738.372449	-47.683082
738.554351	-47.320130
738.736342	-47.013831
738.918424	-46.855087
739.100595	-46.869621
739.282855	-47.030001
739.465206	-47.280587
739.647647	-47.538078
739.830178	-47.693482
740.012799	-47.669794
740.195510	-47.488244
740.378311	-47.232145
740.561203	-46.984022
740.744185	-46.814655
740.927258	-46.766346
741.110421	-46.831230
741.293674	-46.969355
741.477018	-47.133548
741.660453	-47.269244
741.843979	-47.320805
742.027596	-47.268185
742.211303	-47.139511
742.395102	-46.975908
742.578991	-46.814564
742.762972	-46.694108
742.947044	-46.641270
743.131207	-46.658043
743.315461	-46.733361
743.499807	-46.853123
743.684244	-46.983503
743.868773	-47.072388
744.053394	-47.078821
744.238106	-46.990533
744.422910	-46.822108
744.607805	-46.617112
744.792793	-46.439062
744.977872	-46.344683
745.163044	-46.364656
745.348307	-46.500847
745.533663	-46.718849
745.719111	-46.938429
745.904651	-47.056014
746.090283	-47.001433
746.276008	-46.779954
746.461826	-46.471812
746.647735	-46.190633
746.833738	-46.032288
747.019833	-46.049678
747.206021	-46.244403
747.392302	-46.562980
747.578676	-46.887643
747.765143	-47.057593
747.951703	-46.966872
748.138356	-46.647494
748.325102	-46.240299
748.511941	-45.903697
748.698874	-45.750276
748.885900	-45.826543
749.073019	-46.113577
749.260232	-46.526308
749.447539	-46.901631
749.634939	-47.035227
749.822433	-46.830758
750.010021	-46.398165
750.197703	-45.943018
750.385479	-45.630309
750.573348	-45.553842
750.761312	-45.737573
750.949370	-46.127822
751.137523	-46.586557
751.325769	-46.907962
751.514110	-46.900419
751.702545	-46.550402
751.891075	-46.053534
752.079700	-45.635842
752.268419	-45.430812
752.457233	-45.487358
752.646142	-45.791016
752.835145	-46.243244
753.024244	-46.650242
753.213437	-46.795771
753.402726	-46.591827
753.592110	-46.149701
753.781589	-45.689962
753.971163	-45.399799
754.160833	-45.361266
754.350598	-45.567811
754.540459	-45.947743
754.730415	-46.353867
754.920467	-46.579093
755.110615	-46.488402
755.300858	-46.145073
755.491198	-45.733710
755.681633	-45.425505
755.872164	-45.327527
756.062792	-45.464029
756.253515	-45.768061
756.444335	-46.108692
756.635252	-46.326558
756.826264	-46.299189
757.017373	-46.043145
757.208579	-45.710956
757.399881	-45.455097
757.591280	-45.359102
757.782776	-45.448966
757.974368	-45.682045
758.166058	-45.942072
758.357844	-46.094399
758.549728	-46.064977
758.741708	-45.876989
758.933786	-45.632321
759.125961	-45.452798
759.318233	-45.408001
759.510603	-45.494742
759.703071	-45.663325
759.895635	-45.829659
760.088298	-45.898844
760.281058	-45.832004
760.473916	-45.677555
760.666872	-45.520710
760.859926	-45.431393
761.053078	-45.444936
761.246328	-45.544716
761.439676	-45.665770
761.633122	-45.736054
761.826667	-45.718950
762.020310	-45.622684
762.214052	-45.501243
762.407892	-45.424452
762.601831	-45.424860
762.795868	-45.489351
762.990004	-45.580771
763.184239	-45.641951
763.378573	-45.625288
763.573006	-45.542126
763.767538	-45.445267
763.962169	-45.385331
764.156900	-45.391069
764.351729	-45.459842
764.546658	-45.545522
764.741687	-45.585643
764.936815	-45.554214
765.132042	-45.466725
765.327370	-45.367169
765.522797	-45.315573
765.718324	-45.347054
765.913950	-45.442789
766.109677	-45.545210
766.305504	-45.587577
766.501431	-45.528141
766.697458	-45.390480
766.893586	-45.255321
767.089814	-45.198456
767.286142	-45.251870
767.482571	-45.398501
767.679100	-45.567335
767.875730	-45.647376
768.072461	-45.570102
768.269293	-45.368534
768.466225	-45.148833
768.663259	-45.026610
768.860393	-45.072059
769.057629	-45.273674
769.254966	-45.534960
769.452404	-45.709773
769.649944	-45.671777
769.847585	-45.418691
770.045328	-45.092550
770.243172	-44.866077
770.441118	-44.844772
770.639166	-45.052057
770.837315	-45.408901
771.035567	-45.726700
771.233920	-45.794738
771.432376	-45.550471
771.630934	-45.135325
771.829594	-44.778307
772.028356	-44.649115
772.227220	-44.805312
772.426188	-45.194003
772.625257	-45.642824
772.824430	-45.876475
773.023705	-45.708586
773.223083	-45.249504
773.422563	-44.780710
773.622147	-44.525860
773.821834	-44.590241
774.021624	-44.958691
774.221517	-45.477785
774.421513	-45.859299
774.621613	-45.825965
774.821816	-45.387799
775.022122	-44.842240
775.222532	-44.481370
775.423046	-44.449094
775.623664	-44.757046
775.824385	-45.287573
776.025211	-45.762048
776.226140	-45.849369
776.427173	-45.477437
776.628311	-44.914476
776.829553	-44.485559
777.030899	-44.377634
777.232350	-44.626468
777.433905	-45.130425
777.635564	-45.636950
777.837328	-45.803406
778.039197	-45.495281
778.241171	-44.950738
778.443250	-44.502946
778.645433	-44.353398
778.847722	-44.557185
779.050116	-45.027721
779.252615	-45.518998
779.455219	-45.707235
779.657929	-45.446343
779.860744	-44.935704
780.063665	-44.503450
780.266691	-44.357610
780.469823	-44.544494
780.673061	-44.975035
780.876405	-45.422180
781.079855	-45.580866
781.283410	-45.326502
781.487072	-44.860765
781.690840	-44.478314
781.894715	-44.364533
782.098695	-44.563304
782.302783	-44.966632
782.506976	-45.338966
782.711277	-45.427576
782.915684	-45.161338
783.120198	-44.735741
783.324818	-44.423501
783.529546	-44.376745
783.734381	-44.599400
783.939322	-44.973681
784.144372	-45.264791
784.349528	-45.252821
784.554792	-44.953716
784.760163	-44.580655
784.965642	-44.350929
785.171228	-44.381147
785.376922	-44.644933
785.582724	-44.981545
785.788634	-45.167640
785.994651	-45.060186
786.200777	-44.731945
786.407011	-44.413483
786.613353	-44.286285
786.819804	-44.399953
787.026363	-44.689784
787.233030	-44.975646
787.439806	-45.040690
787.646691	-44.835118
787.853684	-44.507939
788.060786	-44.261665
788.267997	-44.232957
788.475317	-44.427511
788.682746	-44.720538
788.890285	-44.917414
789.097932	-44.866414
789.305689	-44.596082
789.513555	-44.298908
789.721531	-44.150721
789.929617	-44.214772
790.137812	-44.451650
790.346117	-44.707333
790.554531	-44.786190
790.763056	-44.633250
790.971691	-44.357696
791.180436	-44.133543
791.389291	-44.088017
791.598256	-44.229083
791.807332	-44.456088
792.016518	-44.613299
792.225815	-44.574976
792.435222	-44.365462
792.644740	-44.139826
792.854369	-44.028411
793.064109	-44.074528
793.273960	-44.236346
793.483922	-44.387043
793.693995	-44.404461
793.904180	-44.277119
794.114475	-44.094127
794.324882	-43.974847
794.535401	-43.986624
794.746031	-44.092398
794.956774	-44.194048
795.167627	-44.206996
795.378593	-44.103717
795.589671	-43.956351
795.800861	-43.875960
796.012162	-43.902549
796.223577	-44.000440
796.435103	-44.078714
796.646742	-44.044969
796.858493	-43.904421
797.070357	-43.753186
797.282334	-43.689238
797.494423	-43.760376
797.706626	-43.912829
797.918941	-44.008639
798.131369	-43.945952
798.343911	-43.741141
798.556566	-43.523514
798.769334	-43.438581
798.982215	-43.543026
799.195210	-43.765416
799.408319	-43.938152
799.621541	-43.892340
799.834877	-43.623005
800.048327	-43.317836
800.261890	-43.166966
800.475568	-43.257806
800.689360	-43.543920
800.903266	-43.819258
801.117287	-43.837414
801.331422	-43.549177
801.545671	-43.152015
801.760036	-42.908193
801.974514	-42.957932
802.189108	-43.265101
802.403816	-43.631272
802.618640	-43.752762
802.833578	-43.478291
803.048632	-43.016017
803.263800	-42.683363
803.479085	-42.661710
803.694484	-42.961904
803.909999	-43.389839
804.125630	-43.599967
804.341376	-43.379858
804.557239	-42.886663
804.773217	-42.480122
804.989311	-42.398622
805.205521	-42.664542
805.421847	-43.107993
805.638290	-43.383803
805.854849	-43.209343
806.071524	-42.720490
806.288316	-42.284317
806.505225	-42.156169
806.722250	-42.392343
806.939393	-42.826947
807.156652	-43.113704
807.374028	-42.976181
807.591521	-42.509837
807.809132	-42.074561
808.026859	-41.941906
808.244705	-42.157162
808.462667	-42.562551
808.680748	-42.831215
808.898946	-42.689058
809.117261	-42.249748
809.335695	-41.853782
809.554246	-41.740556
809.772916	-41.958150
809.991704	-42.333756
810.210610	-42.540319
810.429634	-42.369147
810.648777	-41.950762
810.868039	-41.603988
811.087419	-41.547562
811.306918	-41.783107
811.526535	-42.121025
811.746272	-42.256544
811.966127	-42.028555
812.186102	-41.628024
812.406196	-41.350250
812.626409	-41.357633
812.846742	-41.622995
813.067194	-41.920472
813.287766	-41.963649
813.508457	-41.685196
813.729269	-41.304498
813.950200	-41.098223
814.171251	-41.182307
814.392422	-41.466070
814.613714	-41.709670
814.835126	-41.664136
815.056658	-41.339213
815.278311	-40.996015
815.500084	-40.865817
815.721978	-41.008679
815.943993	-41.295818
816.166128	-41.465136
816.388385	-41.334373
816.610762	-40.996623
816.833261	-40.708025
817.055881	-40.654946
817.278623	-40.840176
817.501486	-41.094196
817.724471	-41.174798
817.947577	-40.978072
818.170805	-40.658091
818.394155	-40.446798
818.617627	-40.463086
818.841221	-40.661387
819.064937	-40.849833
819.288775	-40.833958
819.512736	-40.605176
819.736819	-40.335459
819.961025	-40.210567
820.185354	-40.282717
820.409805	-40.455057
820.634379	-40.553541
820.859076	-40.457913
821.083897	-40.230852
821.308840	-40.038998
821.533907	-39.993311
821.759097	-40.087977
821.984411	-40.205941
822.209848	-40.209505
822.435409	-40.071800
822.661093	-39.884112
822.886902	-39.769516
823.112834	-39.781087
823.338891	-39.861977
823.565072	-39.909335
823.791377	-39.849569
824.017807	-39.707947
824.244361	-39.577683
824.471039	-39.524752
824.697843	-39.550439
824.924771	-39.594526
825.151824	-39.582700
825.379002	-39.503240
825.606306	-39.394027
825.833734	-39.311997
826.061288	-39.284369
826.288967	-39.288395
826.516772	-39.290685
826.744703	-39.263566
826.972759	-39.203012
827.200941	-39.132350
827.429249	-39.065037
827.657683	-39.015348
827.886243	-38.989686
828.114930	-38.983846
828.343743	-38.984855
828.572682	-38.960020
828.801748	-38.890983
829.030941	-38.790765
829.260260	-38.701999
829.489706	-38.676246
829.719280	-38.716735
829.948980	-38.764388
830.178808	-38.742295
830.408763	-38.618819
830.638845	-38.458619
830.869055	-38.368800
831.099393	-38.403835
831.329858	-38.521301
831.560451	-38.585996
831.791173	-38.489182
832.022022	-38.273428
832.252999	-38.091435
832.484105	-38.076595
832.715339	-38.227142
832.946702	-38.391818
833.178193	-38.375162
833.409813	-38.137306
833.641561	-37.861718
833.873439	-37.756214
834.105445	-37.889907
834.337581	-38.136361
834.569846	-38.231960
834.802241	-38.028402
835.034764	-37.679570
835.267418	-37.466423
835.500201	-37.542542
835.733114	-37.829899
835.966157	-38.043945
836.199329	-37.918853
836.432632	-37.532349
836.666065	-37.216225
836.899629	-37.205392
837.133323	-37.490794
837.367147	-37.801926
837.601102	-37.782373
837.835188	-37.402653
838.069405	-37.002716
838.303752	-36.898084
838.538231	-37.146873
838.772841	-37.515680
839.007582	-37.604629
839.242455	-37.263210
839.477459	-36.811437
839.712595	-36.623079
839.947863	-36.818305
840.183263	-37.210881
840.418794	-37.384886
840.654458	-37.101520
840.890254	-36.628199
841.126182	-36.376935
841.362242	-36.520333
841.598435	-36.908393
841.834761	-37.136400
842.071220	-36.908725
842.307811	-36.438260
842.544536	-36.152657
842.781393	-36.255001
843.018384	-36.626423
843.255508	-36.874944
843.492765	-36.683485
843.730156	-36.228249
843.967681	-35.932253
844.205339	-36.013572
844.443132	-36.364991
844.681058	-36.609648
844.919118	-36.433857
845.157313	-35.999816
845.395642	-35.715730
845.634105	-35.795092
845.872703	-36.129725
846.111436	-36.351156
846.350303	-36.169115
846.589306	-35.755558
846.828443	-35.500373
847.067716	-35.597613
847.307124	-35.921258
847.546667	-36.106076
847.786345	-35.901259
848.026160	-35.505548
848.266110	-35.291803
848.506195	-35.417773
848.746417	-35.729519
848.986775	-35.862963
849.227269	-35.625558
849.467899	-35.251818
849.708666	-35.090962
849.949569	-35.253058
850.190609	-35.547417
850.431785	-35.618705
850.673099	-35.346600
850.914549	-35.004668
851.156137	-34.904658
851.397861	-35.103274
851.639723	-35.367178
851.881723	-35.367505
852.123860	-35.067355
852.366135	-34.770668
852.608547	-34.739052
852.851098	-34.964585
853.093786	-35.178717
853.336613	-35.100576
853.579578	-34.789493
853.822681	-34.555497
854.065923	-34.592977
854.309304	-34.824236
854.552823	-34.963293
854.796481	-34.812863
855.040278	-34.518125
855.284215	-34.362990
855.528290	-34.462248
855.772505	-34.670716
856.016859	-34.719264
856.261353	-34.517356
856.505987	-34.269030
856.750760	-34.203780
856.995673	-34.342618
857.240727	-34.494583
857.485920	-34.445828
857.731254	-34.224599
857.976729	-34.052498
858.222343	-34.072518
858.468099	-34.217445
858.713995	-34.278609
858.960032	-34.148237
859.206211	-33.950162
859.452530	-33.874384
859.698991	-33.959326
859.945593	-34.063669
860.192336	-34.020916
860.439222	-33.847059
860.686248	-33.715850
860.933417	-33.737135
861.180728	-33.844341
861.428181	-33.865986
861.675776	-33.734013
861.923514	-33.573820
862.171394	-33.538052
862.419417	-33.630452
862.667582	-33.699040
862.915890	-33.615501
863.164342	-33.440427
863.412936	-33.347868
863.661674	-33.410279
863.910555	-33.516675
864.159579	-33.493777
864.408747	-33.323145
864.658059	-33.174371
864.907515	-33.186354
865.157114	-33.312828
865.406858	-33.361823
865.656746	-33.226823
865.906778	-33.033195
866.156955	-32.975713
866.407277	-33.089803
866.657743	-33.206813
866.908354	-33.138591
867.159110	-32.925151
867.410011	-32.787652
867.661057	-32.851422
867.912249	-33.010906
868.163586	-33.032042
868.415069	-32.840552
868.666697	-32.634810
868.918472	-32.620342
869.170392	-32.783723
869.422458	-32.895658
869.674671	-32.771738
869.927030	-32.527079
870.179536	-32.421490
870.432188	-32.544150
870.684987	-32.720948
870.937933	-32.692020
871.191026	-32.449915
871.444266	-32.258115
871.697653	-32.304307
871.951188	-32.503845
872.204870	-32.576806
872.458700	-32.386068
872.712677	-32.136779
872.966803	-32.091412
873.221076	-32.269115
873.475498	-32.423438
873.730068	-32.317931
873.984787	-32.051828
874.239654	-31.919425
874.494669	-32.040161
874.749834	-32.238041
875.005147	-32.226529
875.260610	-31.982706
875.516222	-31.782917
875.771983	-31.828923
876.027894	-32.032065
876.283954	-32.103532
876.540164	-31.912006
876.796524	-31.674290
877.053033	-31.646671
877.309693	-31.826554
877.566503	-31.957600
877.823464	-31.832055
878.080575	-31.585303
878.337837	-31.496704
878.595249	-31.637559
878.852813	-31.801116
879.110528	-31.737107
879.368393	-31.499384
879.626410	-31.364152
879.884579	-31.461973
880.142899	-31.637530
880.401371	-31.624951
880.659994	-31.407508
880.918770	-31.241765
881.177698	-31.301803
881.436778	-31.479454
881.696010	-31.507238
881.955395	-31.312350
882.214933	-31.125251
882.474623	-31.151169
882.734467	-31.324965
882.994463	-31.383446
883.254613	-31.209032
883.514916	-31.004692
883.775372	-31.000416
884.035982	-31.168006
884.296746	-31.252385
884.557664	-31.097922
884.818735	-30.879955
885.079961	-30.848501
885.341341	-31.009383
885.602876	-31.117126
885.864565	-30.982464
886.126409	-30.754262
886.388407	-30.697790
886.650561	-30.849930
886.912870	-30.975308
887.175334	-30.859209
887.437953	-30.623670
887.700728	-30.544599
887.963658	-30.684634
888.226745	-30.822157
888.489987	-30.724537
888.753385	-30.488376
889.016940	-30.393986
889.280651	-30.522819
889.544518	-30.666691
889.808543	-30.582999
890.072723	-30.350693
890.337061	-30.246681
890.601556	-30.365217
890.866208	-30.507658
891.131017	-30.432047
891.395984	-30.205704
891.661109	-30.099574
891.926391	-30.209576
892.191831	-30.344438
892.457429	-30.270621
892.723186	-30.054478
892.989100	-29.956872
893.255173	-30.064565
893.521405	-30.187907
893.787796	-30.108175
894.054345	-29.902327
894.321053	-29.819191
894.587921	-29.927121
894.854948	-30.031706
895.122134	-29.938604
895.389480	-29.744260
895.656986	-29.684518
895.924651	-29.797603
896.192477	-29.881484
896.460463	-29.770821
896.728609	-29.591938
896.996915	-29.561315
897.265382	-29.681057
897.534010	-29.737140
897.802799	-29.605377
898.071749	-29.444730
898.340860	-29.449758
898.610132	-29.574281
898.879566	-29.596986
899.149162	-29.443702
899.418919	-29.307522
899.688838	-29.350268
899.958919	-29.475517
900.229162	-29.459583
900.499568	-29.290062
900.770136	-29.187276
901.040867	-29.269492
901.311761	-29.386240
901.582817	-29.325943
901.854037	-29.145744
902.125420	-29.083073
902.396966	-29.199827
902.668676	-29.294643
902.940550	-29.188290
903.212587	-29.011779
903.484788	-28.997938
903.757153	-29.141748
904.029683	-29.199897
904.302377	-29.049927
904.575236	-28.891970
904.848259	-28.932694
905.121447	-29.087991
905.394800	-29.093304
905.668319	-28.907955
905.942002	-28.786713
906.215852	-28.881462
906.489866	-29.026708
906.764047	-28.967639
907.038393	-28.765511
907.312906	-28.699389
907.587584	-28.841315
907.862429	-28.952179
908.137441	-28.827386
908.412619	-28.632277
908.687964	-28.632605
908.963476	-28.800337
909.239155	-28.850209
909.515002	-28.670240
909.791015	-28.511345
910.067197	-28.582173
910.343546	-28.748823
910.620063	-28.719854
910.896748	-28.509284
911.173601	-28.412388
911.450623	-28.543240
911.727813	-28.673021
912.005171	-28.562246
912.282699	-28.355406
912.560395	-28.337067
912.838261	-28.500270
913.116296	-28.558726
913.394500	-28.382931
913.672874	-28.219193
913.951418	-28.281410
914.230131	-28.439043
914.509015	-28.407108
914.788068	-28.202123
915.067292	-28.111370
915.346687	-28.232711
915.626252	-28.338801
915.905988	-28.220894
916.185895	-28.034480
916.465973	-28.030793
916.746223	-28.172291
917.026644	-28.194023
917.307236	-28.022721
917.588000	-27.897015
917.868937	-27.968068
918.150045	-28.080152
918.431325	-28.010231
918.712778	-27.836568
918.994404	-27.795824
919.276202	-27.904834
919.558173	-27.943473
919.840317	-27.808932
920.122634	-27.684176
920.405125	-27.723921
920.687789	-27.816509
920.970627	-27.767098
921.253639	-27.621063
921.536824	-27.577416
921.820184	-27.660340
922.103718	-27.687840
922.387427	-27.574740
922.671310	-27.472895
922.955368	-27.506426
923.239601	-27.573921
923.524009	-27.519246
923.808592	-27.397830
924.093351	-27.374981
924.378285	-27.444621
924.663396	-27.446072
924.948682	-27.337491
925.234144	-27.267494
925.519782	-27.313832
925.805597	-27.355262
926.091589	-27.278412
926.377757	-27.178118
926.664102	-27.187069
926.950624	-27.251114
927.237323	-27.217877
927.524200	-27.105876
927.811255	-27.071670
928.098487	-27.137965
928.385897	-27.150929
928.673485	-27.047013
928.961251	-26.968700
929.249196	-27.016198
929.537319	-27.070985
929.825621	-26.996884
930.114102	-26.885591
930.402762	-26.895504
930.691601	-26.976822
930.980620	-26.950622
931.269818	-26.824734
931.559196	-26.783710
931.848753	-26.866599
932.138491	-26.894919
932.428409	-26.780754
932.718508	-26.689753
933.008787	-26.747866
933.299246	-26.823721
933.589887	-26.747335
933.880709	-26.619387
934.171712	-26.631885
934.462896	-26.733211
934.754262	-26.710756
935.045810	-26.569313
935.337539	-26.526510
935.629451	-26.626484
935.921545	-26.661266
936.213822	-26.533732
936.506281	-26.439663
936.798922	-26.513251
937.091747	-26.594302
937.384755	-26.502889
937.677946	-26.371412
937.971321	-26.401043
938.264879	-26.508910
938.558621	-26.467428
938.852547	-26.319260
939.146657	-26.298523
939.440952	-26.410370
939.735431	-26.420981
940.030095	-26.277687
940.324943	-26.209419
940.619977	-26.305778
940.915196	-26.360630
941.210600	-26.239379
941.506189	-26.133106
941.801965	-26.200457
942.097926	-26.286711
942.394074	-26.198910
942.690407	-26.067895
942.986927	-26.099369
943.283634	-26.202376
943.580527	-26.151527
943.877608	-26.009328
944.174875	-26.004302
944.472330	-26.110096
944.769972	-26.095156
945.067802	-25.953273
945.365820	-25.914872
945.664026	-26.014145
945.962420	-26.029353
946.261002	-25.896542
946.559773	-25.831078
946.858733	-25.916657
947.157881	-25.955410
947.457219	-25.836051
947.756746	-25.749909
948.056462	-25.819551
948.356368	-25.874815
948.656464	-25.771718
948.956749	-25.670896
949.257225	-25.724279
949.557891	-25.790383
949.858748	-25.702318
950.159796	-25.592020
950.461034	-25.629646
950.762463	-25.702967
951.064084	-25.629037
951.365896	-25.512793
951.667900	-25.537469
951.970095	-25.614769
952.272483	-25.552828
952.575063	-25.432760
952.877835	-25.446382
953.180799	-25.525864
953.483956	-25.473656
953.787307	-25.351730
954.090850	-25.357178
954.394586	-25.438167
954.698516	-25.393711
955.002640	-25.270227
955.306957	-25.269344
955.611469	-25.351602
955.916174	-25.312114
956.221074	-25.187810
956.526169	-25.182720
956.831458	-25.266428
957.136942	-25.231126
957.442622	-25.105650
957.748496	-25.097715
958.054567	-25.182781
958.360833	-25.149619
958.667294	-25.022740
958.973952	-25.013951
959.280806	-25.100467
959.587857	-25.067761
959.895104	-24.939945
960.202548	-24.932140
960.510189	-25.020001
960.818027	-24.985784
961.126062	-24.857229
961.434295	-24.851771
961.742726	-24.940817
962.051355	-24.903221
962.360182	-24.773915
962.669207	-24.773685
962.978431	-24.863377
963.287854	-24.820289
963.597475	-24.691469
963.907296	-24.697986
964.217315	-24.787133
964.527535	-24.736231
964.837954	-24.608928
965.148573	-24.624080
965.459392	-24.711780
965.770411	-24.651283
966.081630	-24.528153
966.393051	-24.554190
966.704672	-24.636703
967.016494	-24.565097
967.328517	-24.448459
967.640742	-24.486711
967.953169	-24.561367
968.265797	-24.477644
968.578627	-24.372342
968.891660	-24.424111
969.204895	-24.486892
969.518332	-24.389631
969.831972	-24.299175
970.145816	-24.364527
970.459862	-24.410472
970.774112	-24.301904
971.088565	-24.231707
971.403223	-24.309334
971.718084	-24.333783
972.033149	-24.215948
972.348419	-24.169991
972.663893	-24.254950
972.979572	-24.253076
973.295456	-24.132515
973.611546	-24.115545
973.927840	-24.202156
974.244340	-24.170510
974.561046	-24.053741
974.877958	-24.067369
975.195076	-24.146061
975.512401	-24.083100
975.829932	-23.980760
976.147670	-24.025339
976.465615	-24.085972
976.783767	-23.994696
977.102126	-23.916269
977.420693	-23.985597
977.739468	-24.016519
978.058451	-23.904632
978.377642	-23.860450
978.697041	-23.945624
979.016649	-23.937916
979.336466	-23.817828
979.656492	-23.813775
979.976727	-23.898827
980.297171	-23.847452
980.617825	-23.736111
980.938689	-23.773425
981.259763	-23.840852
981.581048	-23.749604
981.902542	-23.664457
982.224248	-23.735435
982.546164	-23.766331
982.868291	-23.646794
983.190630	-23.603629
983.513180	-23.692964
983.835942	-23.674472
984.158916	-23.547902
984.482101	-23.554904
984.805500	-23.637894
985.129110	-23.566160
985.452934	-23.457813
985.776970	-23.512161
986.101220	-23.563671
986.425683	-23.450075
986.750359	-23.383767
987.075250	-23.468179
987.400354	-23.465635
987.725673	-23.334358
988.051206	-23.325463
988.376954	-23.411883
988.702916	-23.348301
989.029094	-23.232286
989.355487	-23.279360
989.682095	-23.333594
990.008919	-23.220065
990.335959	-23.150701
990.663216	-23.234512
990.990688	-23.229386
991.318377	-23.097217
991.646283	-23.093015
991.974406	-23.176669
992.302746	-23.104047
992.631304	-22.993642
992.960079	-23.050182
993.289072	-23.093807
993.618283	-22.972854
993.947713	-22.920011
994.277361	-23.008190
994.607227	-22.982528
994.937313	-22.853850
995.267618	-22.873563
995.598142	-22.947801
995.928886	-22.853931
996.259849	-22.765412
996.591033	-22.841677
996.922437	-22.856876
997.254061	-22.728130
997.585906	-22.712567
997.917972	-22.800833
998.250260	-22.739133
998.582768	-22.629329
998.915498	-22.685879
999.248450	-22.731391
999.581624	-22.613494
999.915020	-22.569504
1000.248639	-22.660481
1000.582480	-22.627683
1000.916545	-22.508354
1001.250832	-22.545066
1001.585343	-22.608964
1001.920077	-22.505955
1002.255035	-22.443194
1002.590218	-22.529814
1002.925624	-22.518580
1003.261255	-22.397923
1003.597111	-22.418855
1003.933192	-22.491635
1004.269497	-22.401769
1004.606029	-22.329387
1004.942785	-22.410021
1005.279768	-22.410681
1005.616977	-22.293047
1005.954412	-22.305329
1006.292074	-22.379198
1006.629962	-22.297167
1006.968077	-22.223399
1007.306420	-22.299202
1007.644990	-22.301882
1007.983787	-22.188684
1008.322813	-22.199834
1008.662067	-22.269103
1009.001549	-22.188397
1009.341259	-22.120278
1009.681199	-22.193388
1010.021367	-22.188845
1010.361765	-22.080643
1010.702392	-22.097986
1011.043250	-22.157989
1011.384337	-22.072281
1011.725654	-22.016069
1012.067202	-22.088192
1012.408980	-22.068292
1012.750989	-21.966741
1013.093230	-21.995787
1013.435702	-22.040588
1013.778405	-21.946992
1014.121341	-21.908569
1014.464508	-21.977608
1014.807908	-21.936878
1015.151540	-21.846233
1015.495405	-21.889025
1015.839503	-21.911564
1016.183835	-21.811932
1016.528400	-21.796780
1016.873198	-21.856961
1017.218231	-21.792914
1017.563498	-21.721112
1017.908999	-21.774829
1018.254735	-21.768349
1018.600707	-21.670177
1018.946913	-21.681316
1019.293354	-21.722364
1019.640032	-21.638320
1019.986945	-21.594513
1020.334094	-21.650188
1020.681480	-21.610535
1021.029102	-21.526683
1021.376961	-21.560999
1021.725058	-21.571411
1022.073391	-21.478809
1022.421962	-21.469020
1022.770772	-21.512070
1023.119819	-21.442899
1023.469104	-21.388142
1023.818628	-21.434177
1024.168391	-21.406522
1024.518393	-21.323761
1024.868634	-21.346117
1025.219115	-21.359234
1025.569836	-21.275359
1025.920796	-21.259461
1026.271997	-21.296736
1026.623438	-21.234786
1026.975121	-21.182670
1027.327044	-21.221493
1027.679208	-21.194362
1028.031614	-21.119940
1028.384262	-21.139783
1028.737152	-21.146580
1029.090284	-21.069830
1029.443659	-21.060125
1029.797276	-21.089044
1030.151137	-21.027535
1030.505240	-20.987943
1030.859587	-21.022447
1031.214178	-20.987492
1031.569013	-20.926388
1031.924093	-20.951066
1032.279417	-20.944594
1032.634985	-20.875209
1032.990799	-20.879505
1033.346858	-20.896289
1033.703162	-20.832569
1034.059712	-20.812301
1034.416509	-20.841777
1034.773551	-20.794536
1035.130841	-20.752374
1035.488377	-20.782625
1035.846160	-20.757664
1036.204190	-20.700395
1036.562468	-20.720798
1036.920994	-20.718537
1037.279768	-20.655899
1037.638790	-20.659201
1037.998061	-20.674995
1038.357581	-20.616771
1038.717350	-20.599995
1039.077368	-20.626676
1039.437636	-20.580543
1039.798154	-20.544833
1040.158922	-20.573856
1040.519940	-20.544393
1040.881209	-20.494025
1041.242729	-20.517508
1041.604501	-20.506228
1041.966524	-20.447101
1042.328798	-20.458686
1042.691325	-20.463913
1043.054103	-20.402970
1043.417135	-20.399319
1043.780419	-20.416790
1044.143956	-20.359938
1044.507746	-20.339826
1044.871791	-20.365103
1045.236088	-20.317179
1045.600641	-20.281195
1045.965447	-20.308633
1046.330508	-20.272866
1046.695824	-20.223757
1047.061395	-20.248470
1047.427222	-20.226059
1047.793304	-20.166831
1048.159642	-20.184825
1048.526237	-20.175813
1048.893088	-20.110564
1049.260196	-20.118876
1049.627561	-20.121689
1049.995183	-20.054001
1050.363063	-20.051355
1050.731201	-20.064260
1051.099597	-19.997342
1051.468251	-19.982816
1051.837164	-20.003329
1052.206336	-19.939816
1052.575767	-19.913983
1052.945458	-19.939632
1053.315409	-19.881317
1053.685619	-19.844835
1054.056090	-19.873715
1054.426821	-19.821948
1054.797814	-19.776220
1055.169067	-19.806740
1055.540582	-19.761820
1055.912359	-19.708556
1056.284398	-19.739462
1056.656698	-19.701819
1057.029262	-19.642323
1057.402088	-19.672670
1057.775177	-19.641749
1058.148530	-19.577512
1058.522146	-19.607070
1058.896027	-19.582137
1059.270171	-19.514377
1059.644580	-19.542830
1060.019254	-19.523235
1060.394193	-19.453083
1060.769397	-19.480733
1061.144867	-19.465444
1061.520602	-19.393669
1061.896604	-19.420554
1062.272872	-19.408704
1062.649407	-19.336100
1063.026210	-19.362450
1063.403279	-19.352687
1063.780616	-19.279771
1064.158221	-19.306117
1064.536094	-19.297583
1064.914235	-19.224667
1065.292645	-19.251302
1065.671325	-19.243186
1066.050273	-19.170844
1066.429491	-19.198118
1066.808979	-19.189598
1067.188738	-19.118068
1067.568766	-19.146486
1067.949066	-19.136504
1068.329636	-19.066365
1068.710478	-19.096310
1069.091592	-19.083857
1069.472977	-19.015542
1069.854635	-19.047531
1070.236565	-19.031821
1070.618768	-18.965948
1071.001243	-19.000150
1071.383993	-18.980217
1071.767016	-18.917821
1072.150313	-18.954228
1072.533884	-18.929142
1072.917730	-18.871119
1073.301850	-18.909141
1073.686246	-18.878372
1074.070917	-18.825915
1074.455864	-18.864636
1074.841087	-18.827721
1075.226586	-18.781762
1075.612362	-18.820635
1075.998415	-18.777013
1076.384745	-18.738968
1076.771353	-18.776301
1077.158238	-18.726188
1077.545401	-18.697291
1077.932843	-18.731231
1078.320564	-18.675135
1078.708564	-18.656290
1079.096842	-18.684491
1079.485401	-18.624147
1079.874240	-18.615686
1080.263358	-18.635720
1080.652757	-18.573453
1081.042438	-18.575132
1081.432399	-18.585060
1081.822641	-18.523759
1082.213166	-18.534106
1082.603972	-18.532661
1082.995061	-18.475414
1083.386433	-18.492150
1083.778087	-18.479051
1084.170025	-18.428438
1084.562246	-18.448751
1084.954751	-18.424974
1085.347541	-18.383007
1085.740615	-18.403950
1086.133973	-18.371176
1086.527617	-18.339042
1086.921546	-18.358032
1087.315761	-18.318128
1087.710262	-18.296063
1088.105050	-18.310872
1088.500124	-18.265717
1088.895485	-18.253955
1089.291134	-18.262004
1089.687070	-18.213890
1090.083294	-18.212327
1090.479806	-18.211149
1090.876607	-18.163003
1091.273696	-18.170596
1091.671075	-18.157591
1092.068744	-18.113540
1092.466702	-18.127459
1092.864950	-18.100820
1093.263489	-18.065438
1093.662319	-18.080985
1094.061440	-18.041228
1094.460852	-18.018554
1094.860555	-18.029319
1095.260551	-17.980067
1095.660840	-17.972423
1096.061421	-17.971102
1096.462295	-17.919370
1096.863462	-17.924925
1097.264923	-17.906286
1097.666678	-17.860834
1098.068727	-17.872932
1098.471071	-17.836533
1098.873710	-17.805094
1099.276644	-17.814245
1099.679874	-17.765366
1100.083400	-17.751113
1100.487222	-17.748383
1100.891340	-17.696236
1101.295756	-17.696411
1101.700468	-17.676618
1102.105478	-17.631029
1102.510787	-17.638373
1102.916393	-17.601650
1103.322298	-17.570241
1103.728502	-17.575491
1104.135005	-17.527063
1104.541807	-17.513246
1104.948909	-17.507426
1105.356312	-17.456179
1105.764015	-17.458157
1106.172019	-17.434539
1106.580324	-17.391643
1106.988931	-17.401722
1107.397840	-17.358808
1107.807051	-17.335155
1108.216564	-17.339858
1108.626380	-17.285299
1109.036500	-17.285452
1109.446923	-17.269678
1109.857649	-17.220702
1110.268680	-17.235842
1110.680016	-17.193306
1111.091657	-17.168588
1111.503602	-17.176762
1111.915854	-17.120139
1112.328411	-17.123846
1112.741275	-17.105331
1113.154445	-17.059713
1113.567922	-17.074625
1113.981706	-17.029588
1114.395798	-17.011642
1114.810198	-17.012409
1115.224906	-16.961199
1115.639923	-16.965228
1116.055249	-16.940299
1116.470884	-16.904506
1116.886829	-16.910367
1117.303084	-16.868843
1117.719650	-16.853980
1118.136526	-16.846251
1118.553713	-16.804210
1118.971212	-16.802055
1119.389022	-16.777719
1119.807145	-16.745651
1120.225580	-16.745734
1120.644328	-16.708673
1121.063389	-16.691850
1121.482763	-16.684237
1121.902452	-16.642616
1122.322454	-16.641636
1122.742771	-16.616360
1123.163404	-16.584988
1123.584351	-16.588976
1124.005614	-16.545987
1124.427193	-16.538037
1124.849089	-16.526364
1125.271301	-16.484352
1125.693830	-16.493911
1126.116677	-16.456149
1126.539842	-16.439031
1126.963324	-16.439704
1127.387126	-16.392615
1127.811246	-16.402042
1128.235685	-16.373738
1128.660444	-16.347203
1129.085522	-16.357164
1129.510922	-16.310201
1129.936641	-16.315112
1130.362682	-16.298427
1130.789044	-16.264060
1131.215728	-16.279389
1131.642734	-16.237133
1132.070063	-16.234410
1132.497714	-16.229324
1132.925689	-16.189372
1133.353987	-16.205899
1133.782610	-16.171451
1134.211556	-16.159371
1134.640827	-16.164690
1135.070424	-16.121475
1135.500345	-16.135954
1135.930593	-16.110756
1136.361166	-16.088923
1136.792067	-16.102489
1137.223294	-16.057665
1137.654848	-16.068023
1138.086730	-16.051776
1138.518940	-16.020670
1138.951479	-16.040586
1139.384346	-15.994806
1139.817543	-16.000575
1140.251069	-15.991800
1140.684925	-15.952647
1141.119111	-15.977046
1141.553628	-15.930092
1141.988475	-15.931976
1142.423655	-15.928166
1142.859166	-15.882968
1143.295009	-15.909968
1143.731185	-15.862131
1144.167694	-15.860976
1144.604536	-15.859838
1145.041711	-15.810971
1145.479221	-15.838311
1145.917065	-15.790440
1146.355245	-15.786276
1146.793759	-15.787004
1147.232609	-15.735602
1147.671795	-15.762666
1148.111317	-15.715420
1148.551177	-15.708288
1148.991373	-15.711088
1149.431907	-15.656856
1149.872779	-15.684869
1150.313989	-15.636707
1150.755538	-15.628907
1151.197426	-15.632854
1151.639653	-15.576277
1152.082220	-15.607338
1152.525128	-15.555594
1152.968376	-15.551133
1153.411966	-15.552957
1153.855897	-15.496741
1154.300169	-15.530562
1154.744784	-15.474288
1155.189742	-15.476921
1155.635042	-15.472859
1156.080687	-15.421601
1156.526674	-15.455331
1156.973007	-15.396152
1157.419683	-15.406443
1157.866705	-15.394603
1158.314072	-15.351623
1158.761786	-15.382573
1159.209845	-15.322998
1159.658251	-15.340511
1160.107004	-15.320281
1160.556104	-15.287448
1161.005553	-15.312853
1161.455349	-15.255321
1161.905494	-15.278412
1162.355989	-15.249828
1162.806832	-15.229015
1163.258026	-15.245856
1163.709570	-15.193645
1164.161464	-15.219336
1164.613710	-15.182909
1165.066307	-15.175160
1165.519256	-15.178996
1165.972558	-15.138002
1166.426212	-15.159123
1166.880219	-15.120957
1167.334580	-15.122135
1167.789295	-15.112618
1168.244364	-15.086404
1168.699788	-15.093960
1169.155567	-15.065299
1169.611702	-15.061336
1170.068193	-15.052151
1170.525041	-15.028298
1170.982245	-15.030922
1171.439807	-15.006820
1171.897726	-14.996532
1172.356004	-14.993360
1172.814640	-14.959784
1173.273635	-14.973906
1173.732989	-14.933419
1174.192703	-14.940502
1174.652778	-14.918002
1175.113213	-14.898928
1175.574009	-14.903119
1176.035167	-14.861058
1176.496687	-14.879043
1176.958569	-14.832648
1177.420814	-14.844833
1177.883422	-14.810305
1178.346394	-14.806228
1178.809730	-14.787900
1179.273430	-14.768219
1179.737496	-14.762677
1180.201927	-14.731716
1180.666723	-14.735368
1181.131886	-14.695845
1181.597416	-14.706174
1182.063312	-14.661505
1182.529576	-14.673180
1182.996209	-14.631201
1183.463209	-14.634440
1183.930579	-14.605998
1184.398317	-14.590817
1184.866426	-14.583363
1185.334904	-14.546336
1185.803754	-14.558585
1186.272974	-14.505798
1186.742566	-14.527664
1187.212529	-14.472079
1187.682865	-14.489462
1188.153574	-14.444904
1188.624656	-14.445619
1189.096112	-14.421602
1189.567942	-14.399709
1190.040147	-14.398432
1190.512726	-14.355705
1190.985681	-14.371757
1191.459012	-14.316775
1191.932720	-14.339153
1192.406804	-14.284443
1192.881265	-14.300200
1193.356104	-14.258054
1193.831322	-14.256686
1194.306918	-14.235001
1194.782893	-14.212075
1195.259248	-14.211689
1195.735982	-14.170069
1196.213097	-14.184769
1196.690593	-14.133304
1197.168471	-14.152443
1197.646730	-14.102497
1198.125371	-14.115032
1198.604395	-14.076641
1199.083803	-14.074503
1199.563594	-14.053293
1200.043769	-14.033582
1200.524329	-14.029520
1201.005273	-13.994921
1201.486604	-14.003104
1201.968320	-13.960306
1202.450422	-13.973007
1202.932912	-13.930169
1203.415789	-13.939302
1203.899054	-13.903555
1204.382707	-13.903176
1204.866748	-13.878962
1205.351179	-13.866461
1205.836000	-13.854730
1206.321211	-13.830807
1206.806812	-13.829170
1207.292805	-13.797210
1207.779189	-13.801300
1208.265965	-13.766189
1208.753134	-13.771095
1209.240696	-13.737627
1209.728651	-13.738963
1210.217000	-13.710669
1210.705744	-13.705512
1211.194883	-13.684248
1211.684417	-13.671711
1212.174347	-13.657646
1212.664673	-13.638437
1213.155396	-13.630133
1213.646516	-13.605994
1214.138034	-13.601166
1214.629951	-13.574456
1215.122266	-13.570800
1215.614980	-13.543913
1216.108095	-13.539316
1216.601609	-13.514075
1217.095524	-13.506848
1217.589841	-13.484369
1218.084559	-13.473794
1218.579679	-13.454662
1219.075202	-13.440682
1219.571128	-13.424755
1220.067458	-13.407691
1220.564191	-13.394309
1221.061330	-13.374900
1221.558874	-13.363319
1222.056823	-13.342576
1222.555178	-13.331972
1223.053940	-13.310780
1223.553109	-13.300269
1224.052686	-13.279318
1224.552671	-13.268296
1225.053065	-13.248313
1225.553867	-13.236438
1226.055079	-13.217743
1226.556702	-13.204778
1227.058735	-13.187430
1227.561179	-13.173373
1228.064035	-13.157424
1228.567303	-13.142530
1229.070983	-13.127837
1229.575077	-13.112273
1230.079585	-13.098509
1230.584506	-13.082561
1231.089842	-13.069532
1231.595594	-13.053530
1232.101761	-13.041064
1232.608345	-13.025230
1233.115345	-13.013022
1233.622762	-12.997495
1234.130597	-12.985412
1234.638851	-12.970417
1235.147523	-12.958440
1235.656615	-12.944027
1236.166126	-12.932038
1236.676058	-12.918169
1237.186411	-12.906086
1237.697185	-12.892870
1238.208381	-12.880787
1238.719999	-12.868195
1239.232040	-12.856140
1239.744505	-12.844002
1240.257394	-12.831945
1240.770708	-12.820278
1241.284446	-12.808378
1241.798610	-12.797161
1242.313201	-12.785471
1242.828218	-12.774605
1243.343662	-12.763024
1243.859534	-12.752465
1244.375834	-12.741183
1244.892563	-12.731003
1245.409721	-12.720054
1245.927309	-12.710127
1246.445327	-12.699472
1246.963777	-12.689746
1247.482657	-12.679475
1248.001970	-12.670098
1248.521716	-12.660284
1249.041894	-12.651187
1249.562506	-12.641662
1250.083553	-12.632847
1250.605034	-12.623726
1251.126950	-12.615341
1251.649302	-12.606671
1252.172091	-12.598633
1252.695316	-12.590277
1253.218979	-12.582539
1253.743079	-12.574588
1254.267619	-12.567341
1254.792597	-12.559801
1255.318015	-12.552909
1255.843874	-12.545629
1256.370173	-12.539093
1256.896913	-12.532137
1257.424095	-12.526076
1257.951720	-12.519450
1258.479787	-12.513713
1259.008298	-12.507240
1259.537254	-12.501858
1260.066654	-12.495573
1260.596499	-12.490649
1261.126790	-12.484504
1261.657527	-12.479865
1262.188711	-12.473711
1262.720342	-12.469371
1263.252422	-12.463320
1263.784950	-12.459334
1264.317928	-12.453258
1264.851355	-12.449456
1265.385232	-12.443243
1265.919560	-12.439692
1266.454340	-12.433508
1266.989572	-12.430120
1267.525256	-12.423888
1268.061394	-12.420419
1268.597985	-12.414208
1269.135031	-12.410748
1269.672531	-12.404735
1270.210487	-12.401065
1270.748899	-12.395199
1271.287768	-12.391068
1271.827094	-12.385617
1272.366877	-12.381128
1272.907119	-12.376146
1273.447820	-12.371101
1273.988981	-12.366454
1274.530601	-12.360871
1275.072683	-12.356797
1275.615226	-12.350842
1276.158230	-12.347124
1276.701697	-12.340754
1277.245627	-12.337170
1277.790021	-12.330701
1278.334879	-12.327348
1278.880202	-12.320928
1279.425991	-12.317384
1279.972245	-12.311099
1280.518966	-12.307209
1281.066155	-12.301525
1281.613811	-12.297204
1282.161936	-12.292105
1282.710529	-12.287044
1283.259593	-12.282543
1283.809126	-12.276925
1284.359131	-12.273137
1284.909607	-12.267024
1285.460555	-12.263463
1286.011976	-12.257031
1286.563870	-12.253535
1287.116237	-12.247258
1287.669080	-12.243519
1288.222397	-12.237506
1288.776191	-12.232989
1289.330460	-12.227557
1289.885207	-12.222334
1290.440431	-12.217607
1290.996133	-12.211539
1291.552314	-12.207127
1292.108975	-12.200459
1292.666115	-12.196302
1293.223737	-12.189534
1293.781839	-12.185084
1294.340424	-12.178389
1294.899491	-12.173255
1295.459041	-12.167145
1296.019075	-12.161362
1296.579593	-12.155780
1297.140597	-12.149169
1297.702086	-12.143944
1298.264061	-12.136977
1298.826524	-12.132061
1299.389474	-12.124962
1299.952912	-12.119801
1300.516839	-12.112872
1301.081255	-12.107419
1301.646162	-12.101204
1302.211559	-12.095098
1302.777448	-12.089552
1303.343829	-12.082702
1303.910702	-12.077976
1304.478069	-12.070942
1305.045930	-12.066415
1305.614285	-12.059521
1306.183136	-12.054519
1306.752483	-12.048736
1307.322326	-12.042926
1307.892666	-12.038236
1308.463504	-12.031483
1309.034841	-12.027484
1309.606677	-12.020819
1310.179012	-12.016710
1310.751849	-12.010751
1311.325186	-12.005563
1311.899025	-12.000851
1312.473366	-11.994798
1313.048211	-11.991040
1313.623559	-11.984472
1314.199412	-11.980558
1314.775770	-11.974689
1315.352634	-11.969997
1315.930004	-11.965269
1316.507881	-11.959391
1317.086266	-11.955504
1317.665159	-11.949237
1318.244562	-11.945541
1318.824474	-11.939764
1319.404897	-11.935062
1319.985831	-11.930442
1320.567276	-11.924836
1321.149234	-11.921223
1321.731706	-11.915168
1322.314691	-11.911441
1322.898190	-11.906128
1323.482205	-11.901677
1324.066736	-11.897652
1324.651783	-11.892129
1325.237347	-11.888911
1325.823430	-11.883450
1326.410031	-11.880055
1326.997151	-11.875655
1327.584791	-11.871057
1328.172952	-11.868002
1328.761634	-11.862932
1329.350839	-11.860192
1329.940566	-11.855751
1330.530817	-11.852068
1331.121592	-11.849002
1331.712891	-11.844668
1332.304716	-11.842204
1332.897068	-11.837975
1333.489946	-11.835106
1334.083352	-11.832029
1334.677287	-11.828428
1335.271750	-11.826133
1335.866744	-11.822301
1336.462268	-11.820032
1337.058323	-11.817090
1337.654910	-11.814097
1338.252029	-11.811937
1338.849682	-11.808665
1339.447869	-11.806816
1340.046591	-11.804060
1340.645848	-11.801634
1341.245641	-11.799658
1341.845972	-11.796911
1342.446840	-11.795407
1343.048246	-11.792834
1343.650191	-11.790876
1344.252677	-11.789169
1344.855702	-11.786765
1345.459269	-11.785516
1346.063379	-11.783137
1346.668030	-11.781461
1347.273226	-11.780075
1347.878965	-11.777793
1348.485250	-11.776614
1349.092080	-11.774615
1349.699456	-11.773054
1350.307380	-11.771752
1350.915851	-11.769686
1351.524871	-11.768625
1352.134441	-11.766800
1352.744560	-11.765343
1353.355231	-11.764243
1353.966453	-11.762232
1354.578227	-11.761342
1355.190555	-11.759865
1355.803436	-11.758331
1356.416872	-11.757539
1357.030863	-11.755806
1357.645411	-11.754948
1358.260515	-11.753905
1358.876177	-11.752422
1359.492397	-11.751902
1360.109176	-11.750578
1360.726516	-11.749723
1361.344416	-11.749142
1361.962877	-11.747830
1362.581901	-11.747524
1363.201487	-11.746720
1363.821637	-11.745848
1364.442352	-11.745769
1365.063632	-11.744824
1365.685478	-11.744586
1366.307891	-11.744495
1366.930871	-11.743686
1367.554420	-11.743944
1368.178538	-11.743779
1368.803226	-11.743436
1369.428485	-11.743934
1370.054315	-11.743749
1370.680717	-11.744030
1371.307693	-11.744631
1371.935242	-11.744608
1372.563366	-11.745402
1373.192065	-11.746039
1373.821341	-11.746412
1374.451193	-11.747552
1375.081623	-11.748215
1375.712632	-11.749100
1376.344221	-11.750491
1376.976389	-11.751289
1377.609139	-11.752637
1378.242470	-11.754200
1378.876384	-11.755331
1379.510881	-11.757073
1380.145963	-11.758712
1380.781629	-11.760276
1381.417881	-11.762400
1382.054720	-11.764132
1382.692147	-11.766079
1383.330161	-11.768527
1383.968765	-11.770481
1384.607959	-11.772739
1385.247743	-11.775369
1385.888119	-11.777661
1386.529087	-11.780233
1387.170648	-11.782907
1387.812804	-11.785509
1388.455554	-11.788430
1389.098899	-11.791161
1389.742842	-11.793983
1390.387381	-11.797207
1391.032519	-11.800109
1391.678256	-11.803131
1392.324592	-11.806536
1392.971529	-11.809670
1393.619068	-11.812951
1394.267208	-11.816442
1394.915952	-11.819743
1395.565300	-11.823299
1396.215253	-11.826876
1396.865812	-11.830261
1397.516977	-11.834002
1398.168749	-11.837661
1398.821130	-11.841101
1399.474120	-11.844935
1400.127719	-11.848639
1400.781930	-11.852117
1401.436752	-11.855984
1402.092186	-11.859694
1402.748234	-11.863189
1403.404897	-11.867063
1404.062174	-11.870759
1404.720067	-11.874243
1405.378577	-11.878109
1406.037705	-11.881802
1406.697451	-11.885251
1407.357817	-11.889073
1408.018803	-11.892765
1408.680410	-11.896158
1409.342639	-11.899863
1410.005492	-11.903499
1410.668968	-11.906812
1411.333068	-11.910354
1411.997795	-11.913890
1412.663147	-11.917125
1413.329127	-11.920500
1413.995736	-11.923903
1414.662973	-11.927073
1415.330840	-11.930345
1415.999339	-11.933650
1416.668469	-11.936779
1417.338232	-11.940026
1418.008628	-11.943345
1418.679659	-11.946507
1419.351325	-11.949803
1420.023628	-11.953248
1420.696568	-11.956539
1421.370145	-11.959916
1422.044362	-11.963509
1422.719219	-11.966984
1423.394717	-11.970472
1424.070856	-11.974195
1424.747638	-11.977856
1425.425064	-11.981449
1426.103134	-11.985267
1426.781850	-11.989134
1427.461212	-11.992887
1428.141221	-11.996812
1428.821878	-12.000918
1429.503185	-12.004983
1430.185141	-12.009187
1430.867749	-12.013682
1431.551008	-12.018301
1432.234920	-12.023109
1432.919486	-12.028298
1433.604707	-12.033778
1434.290583	-12.039548
1434.977116	-12.045778
1435.664307	-12.052412
1436.352156	-12.059397
1437.040664	-12.066871
1437.729833	-12.074787
1438.419663	-12.083039
1439.110156	-12.091729
1439.801312	-12.100827
1440.493132	-12.110138
1441.185617	-12.119709
1441.878768	-12.129578
1442.572586	-12.139518
1443.267072	-12.149455
1443.962228	-12.159501
1444.658053	-12.169525
1445.354549	-12.179353
1446.051717	-12.189083
1446.749558	-12.198734
1447.448073	-12.208134
1448.147263	-12.217317
1448.847128	-12.226408
1449.547671	-12.235337
1450.248891	-12.244063
1450.950789	-12.252736
1451.653368	-12.261443
1452.356627	-12.270113
1453.060568	-12.278778
1453.765192	-12.287626
1454.470500	-12.296657
1455.176492	-12.305703
1455.883170	-12.314882
1456.590534	-12.324288
1457.298586	-12.333647
1458.007327	-12.342872
1458.716758	-12.352022
1459.426880	-12.360819
1460.137693	-12.368976
1460.849199	-12.376430
1461.561398	-12.382902
1462.274293	-12.387995
1462.987883	-12.391542
1463.702170	-12.393262
1464.417155	-12.392761
1465.132838	-12.389822
1465.849222	-12.384175
1466.566306	-12.375524
1467.284093	-12.363729
1468.002582	-12.348530
1468.721775	-12.329721
1469.441674	-12.307360
1470.162278	-12.281304
1470.883590	-12.251417
1471.605609	-12.217898
1472.328338	-12.180814
1473.051777	-12.140175
1473.775928	-12.096252
1474.500790	-12.049237
1475.226367	-11.999288
1475.952657	-11.946765
1476.679663	-11.891888
1477.407386	-11.834871
1478.135826	-11.776107
1478.864985	-11.715821
1479.594863	-11.654233
1480.325463	-11.591715
1481.056784	-11.528432
1481.788828	-11.464561
1482.521597	-11.400442
1483.255090	-11.336146
1483.989309	-11.271734
1484.724256	-11.207418
1485.459931	-11.143130
1486.196336	-11.078790
1486.933471	-11.014391
1487.671337	-10.949674
1488.409937	-10.884433
1489.149270	-10.818531
1489.889337	-10.751553
1490.630141	-10.683240
1491.371682	-10.613454
1492.113961	-10.541842
1492.856979	-10.468254
1493.600738	-10.392677
1494.345238	-10.314977
1495.090481	-10.235241
1495.836467	-10.153648
1496.583198	-10.070194
1497.330675	-9.985096
1498.078899	-9.898518
1498.827872	-9.810322
1499.577593	-9.720541
1500.328065	-9.629013
1501.079289	-9.535292
1501.831265	-9.439125
1502.583995	-9.340008
1503.337480	-9.237417
1504.091721	-9.131154
1504.846719	-9.020912
1505.602475	-8.906672
1506.358991	-8.788852
1507.116268	-8.667911
1507.874306	-8.544749
1508.633108	-8.420589
1509.392673	-8.296657
1510.153004	-8.174591
1510.914101	-8.056090
1511.675965	-7.942783
1512.438599	-7.836613
1513.202002	-7.739387
1513.966176	-7.652995
1514.731122	-7.579582
1515.496842	-7.521217
1516.263336	-7.480278
1517.030607	-7.459441
1517.798654	-7.461484
1518.567479	-7.489694
1519.337083	-7.547636
1520.107468	-7.639122
1520.878634	-7.768511
1521.650584	-7.940285
1522.423317	-8.159163
1523.196836	-8.430093
1523.971141	-8.757598
1524.746233	-9.145734
1525.522115	-9.597136
1526.298786	-10.111395
1527.076249	-10.683180
1527.854504	-11.297922
1528.633553	-11.926318
1529.413397	-12.518339
1530.194037	-13.000036
1530.975474	-13.284511
1531.757709	-13.302508
1532.540745	-13.038663
1533.324581	-12.542159
1534.109220	-11.898919
1534.894662	-11.194278
1535.680909	-10.493156
1536.467961	-9.837114
1537.255821	-9.249839
1538.044489	-8.743541
1538.833967	-8.323329
1539.624256	-7.990368
1540.415357	-7.743607
1541.207271	-7.580443
1542.000000	-7.497423
1542.793545	-7.490010
1543.587907	-7.552530
1544.383087	-7.677836
1545.179088	-7.856621
1545.975909	-8.077063
1546.773552	-8.324118
1547.572019	-8.579348
1548.371311	-8.821474
1549.171428	-9.027667
1549.972373	-9.176603
1550.774147	-9.251835
1551.576751	-9.245253
1552.380185	-9.158666
1553.184453	-9.002712
1553.989554	-8.794089
1554.795490	-8.551563
1555.602263	-8.293069
1556.409873	-8.033688
1557.218322	-7.784899
1558.027612	-7.554770
1558.837743	-7.348239
1559.648717	-7.167909
1560.460536	-7.014527
1561.273200	-6.887508
1562.086710	-6.785475
1562.901069	-6.706415
1563.716278	-6.648159
1564.532337	-6.608442
1565.349249	-6.585104
1566.167014	-6.576281
1566.985634	-6.580274
1567.805111	-6.595816
1568.625444	-6.621813
1569.446637	-6.657472
1570.268690	-6.702195
1571.091605	-6.755433
1571.915382	-6.816827
1572.740024	-6.885909
1573.565532	-6.962328
1574.391907	-7.045658
1575.219150	-7.135492
1576.047262	-7.231512
1576.876246	-7.333371
1577.706103	-7.440939
1578.536833	-7.554101
1579.368439	-7.672952
1580.200922	-7.797680
1581.034282	-7.928564
1581.868522	-8.066000
1582.703643	-8.210336
1583.539646	-8.361986
1584.376532	-8.521230
1585.214304	-8.688325
1586.052962	-8.863379
1586.892508	-9.046425
1587.732943	-9.237386
1588.574269	-9.436120
1589.416487	-9.642404
1590.259599	-9.856020
1591.103605	-10.076677
1591.948508	-10.304146
1592.794309	-10.538143
1593.641009	-10.778459
1594.488609	-11.024863
1595.337112	-11.277164
1596.186518	-11.535236
1597.036829	-11.798899
1597.888047	-12.068174
1598.740172	-12.342943
1599.593207	-12.623372
1600.447153	-12.909477
1601.302010	-13.201555
1602.157782	-13.499785
1603.014469	-13.804542
1603.872072	-14.116185
1604.730593	-14.435094
1605.590034	-14.761749
1606.450397	-15.096485
1607.311681	-15.439728
1608.173890	-15.791671
1609.037024	-16.152526
1609.901085	-16.522176
1610.766075	-16.900406
1611.631995	-17.286587
1612.498846	-17.679773
1613.366630	-18.078537
1614.235349	-18.480960
1615.105004	-18.884507
1615.975596	-19.285979
1616.847128	-19.681465
1617.719600	-20.066289
1618.593014	-20.435056
1619.467372	-20.781845
1620.342675	-21.100312
1621.218924	-21.384112
1622.096122	-21.627249
1622.974270	-21.824689
1623.853369	-21.972746
1624.733420	-22.069544
1625.614427	-22.115210
1626.496389	-22.111728
1627.379308	-22.062772
1628.263187	-21.973239
1629.148026	-21.848726
1630.033828	-21.695047
1630.920593	-21.517838
1631.808324	-21.322315
1632.697022	-21.113082
1633.586688	-20.894085
1634.477324	-20.668645
1635.368932	-20.439453
1636.261514	-20.208656
1637.155070	-19.978022
1638.049602	-19.748917
1638.945113	-19.522450
1639.841603	-19.299452
1640.739075	-19.080608
1641.637529	-18.866407
1642.536968	-18.657260
1643.437393	-18.453487
1644.338806	-18.255277
1645.241209	-18.062847
1646.144602	-17.876216
1647.048988	-17.695552
1647.954368	-17.520766
1648.860744	-17.351994
1649.768118	-17.189014
1650.676491	-17.031924
1651.585865	-16.880413
1652.496241	-16.734538
1653.407621	-16.593919
1654.320008	-16.458556
1655.233401	-16.328009
1656.147804	-16.202225
1657.063218	-16.080745
1657.979645	-15.963460
1658.897085	-15.849900
1659.815542	-15.739954
1660.735016	-15.633182
1661.655509	-15.529474
1662.577023	-15.428410
1663.499560	-15.329952
1664.423121	-15.233739
1665.347709	-15.139786
1666.273324	-15.047788
1667.199969	-14.957823
1668.127645	-14.869674
1669.056353	-14.783490
1669.986097	-14.699095
1670.916877	-14.616626
1671.848695	-14.535968
1672.781553	-14.457269
1673.715452	-14.380417
1674.650395	-14.305506
1675.586383	-14.232399
1676.523418	-14.161198
1677.461501	-14.091742
1678.400635	-14.024094
1679.340821	-13.958066
1680.282061	-13.893714
1681.224357	-13.830874
1682.167710	-13.769600
1683.112122	-13.709707
1684.057595	-13.651248
1685.004132	-13.594083
1685.951732	-13.538281
1686.900400	-13.483742
1687.850135	-13.430477
1688.800940	-13.378419
1689.752818	-13.327583
1690.705768	-13.277989
1691.659795	-13.229617
1692.614898	-13.182450
1693.571081	-13.136449
1694.528345	-13.091638
1695.486691	-13.048002
1696.446122	-13.005571
1697.406640	-12.964306
1698.368245	-12.924190
1699.330941	-12.885222
1700.294729	-12.847418
1701.259611	-12.810766
1702.225588	-12.775261
1703.192664	-12.740863
1704.160838	-12.707576
1705.130114	-12.675386
1706.100493	-12.644305
1707.071977	-12.614256
1708.044568	-12.585236
1709.018268	-12.557157
1709.993079	-12.530032
1710.969003	-12.503815
1711.946041	-12.478498
1712.924196	-12.454018
1713.903469	-12.430308
1714.883862	-12.407323
1715.865378	-12.385001
1716.848017	-12.363323
1717.831783	-12.342257
1718.816677	-12.321779
1719.802701	-12.301818
1720.789857	-12.282330
1721.778147	-12.263244
1722.767573	-12.244541
1723.758136	-12.226191
1724.749840	-12.208191
1725.742685	-12.190495
1726.736673	-12.173064
1727.731808	-12.155893
1728.728090	-12.138940
1729.725521	-12.122231
1730.724105	-12.105759
1731.723842	-12.089531
1732.724735	-12.073502
1733.726785	-12.057669
1734.729995	-12.042000
1735.734366	-12.026501
1736.739902	-12.011216
1737.746603	-11.996149
1738.754472	-11.981362
1739.763510	-11.966858
1740.773721	-11.952666
1741.785105	-11.938780
1742.797665	-11.925204
1743.811403	-11.911940
1744.826321	-11.898992
1745.842422	-11.886369
1746.859706	-11.874056
1747.878177	-11.862063
1748.897835	-11.850382
1749.918685	-11.839021
1750.940726	-11.827957
1751.963963	-11.817202
1752.988395	-11.806733
1754.014027	-11.796532
1755.040860	-11.786608
1756.068895	-11.776929
1757.098135	-11.767491
1758.128583	-11.758251
1759.160240	-11.749205
1760.193109	-11.740338
1761.227191	-11.731642
1762.262488	-11.723155
1763.299004	-11.714872
1764.336740	-11.706841
1765.375697	-11.699074
1766.415880	-11.691574
1767.457288	-11.684350
1768.499926	-11.677339
1769.543794	-11.670534
1770.588895	-11.663916
1771.635231	-11.657464
1772.682805	-11.651218
1773.731619	-11.645161
1774.781674	-11.639298
1775.832973	-11.633653
1776.885519	-11.628199
1777.939312	-11.622944
1778.994357	-11.617885
1780.050654	-11.613017
1781.108207	-11.608353
1782.167017	-11.603911
1783.227087	-11.599735
1784.288418	-11.595872
1785.351013	-11.592365
1786.414875	-11.589264
1787.480006	-11.586556
1788.546407	-11.584234
1789.614082	-11.582284
1790.683032	-11.580650
1791.753259	-11.579327
1792.824767	-11.578301
1793.897557	-11.577547
1794.971632	-11.577073
1796.046994	-11.576856
1797.123645	-11.576875
1798.201588	-11.577093
1799.280824	-11.577446
1800.361357	-11.577871
1801.443188	-11.578281
1802.526320	-11.578619
1803.610756	-11.578823
1804.696497	-11.578844
1805.783546	-11.578705
1806.871906	-11.578406
1807.961578	-11.577980
1809.052565	-11.577482
1810.144870	-11.576914
1811.238494	-11.576317
1812.333441	-11.575707
1813.429713	-11.575073
1814.527311	-11.574441
1815.626239	-11.573802
1816.726499	-11.573162
1817.828094	-11.572553
1818.931025	-11.571952
1820.035295	-11.571372
1821.140906	-11.570837
1822.247862	-11.570343
1823.356165	-11.569925
1824.465816	-11.569626
1825.576819	-11.569468
1826.689175	-11.569496
1827.802888	-11.569741
1828.917960	-11.570204
1830.034394	-11.570886
1831.152191	-11.571771
1832.271354	-11.572822
1833.391887	-11.574024
1834.513790	-11.575382
1835.637068	-11.576903
1836.761722	-11.578618
1837.887755	-11.580577
1839.015169	-11.582835
1840.143968	-11.585435
1841.274153	-11.588400
1842.405727	-11.591728
1843.538693	-11.595402
1844.673053	-11.599371
1845.808810	-11.603564
1846.945966	-11.607929
1848.084525	-11.612425
1849.224488	-11.617015
1850.365858	-11.621707
1851.508638	-11.626531
1852.652831	-11.631515
1853.798438	-11.636705
1854.945463	-11.642130
1856.093909	-11.647777
1857.243777	-11.653629
1858.395071	-11.659659
1859.547794	-11.665818
1860.701947	-11.672073
1861.857533	-11.678423
1863.014556	-11.684885
1864.173018	-11.691497
1865.332922	-11.698304
1866.494270	-11.705350
1867.657065	-11.712667
1868.821309	-11.720260
1869.987006	-11.728118
1871.154158	-11.736215
1872.322768	-11.744517
1873.492839	-11.752988
1874.664373	-11.761599
1875.837373	-11.770312
1877.011841	-11.779089
1878.187782	-11.787896
1879.365197	-11.796709
1880.544089	-11.805507
1881.724460	-11.814278
1882.906315	-11.823030
1884.089655	-11.831802
1885.274483	-11.840641
1886.460803	-11.849581
1887.648616	-11.858645
1888.837927	-11.867857
1890.028736	-11.877225
1891.221049	-11.886744
1892.414866	-11.896426
1893.610192	-11.906278
1894.807028	-11.916292
1896.005379	-11.926463
1897.205246	-11.936790
1898.406633	-11.947262
1899.609542	-11.957864
1900.813977	-11.968587
1902.019940	-11.979423
1903.227434	-11.990359
1904.436462	-12.001393
1905.647028	-12.012524
1906.859133	-12.023738
1908.072781	-12.035007
1909.287976	-12.046298
1910.504719	-12.057586
1911.723013	-12.068879
1912.942863	-12.080227
1914.164270	-12.091707
1915.387238	-12.103399
1916.611770	-12.115356
1917.837868	-12.127574
1919.065536	-12.139998
1920.294777	-12.152566
1921.525594	-12.165249
1922.757989	-12.178070
1923.991967	-12.191104
1925.227529	-12.204458
1926.464679	-12.218236
1927.703420	-12.232501
1928.943755	-12.247263
1930.185688	-12.262499
1931.429221	-12.278167
1932.674356	-12.294210
1933.921099	-12.310578
1935.169451	-12.327256
1936.419415	-12.344264
1937.670996	-12.361653
1938.924195	-12.379473
1940.179017	-12.397733
1941.435463	-12.416386
1942.693538	-12.435356
1943.953245	-12.454584
1945.214586	-12.474063
1946.477566	-12.493824
1947.742186	-12.513899
1949.008451	-12.534308
1950.276363	-12.555056
1951.545926	-12.576148
1952.817143	-12.597575
1954.090017	-12.619297
1955.364551	-12.641251
1956.640749	-12.663378
1957.918615	-12.685656
1959.198150	-12.708084
1960.479359	-12.730643
1961.762244	-12.753282
1963.046810	-12.775937
1964.333059	-12.798560
1965.620995	-12.821123
1966.910621	-12.843609
1968.201940	-12.866003
1969.494956	-12.888303
1970.789672	-12.910514
1972.086091	-12.932625
1973.384217	-12.954621
1974.684053	-12.976518
1975.985602	-12.998397
1977.288869	-13.020387
1978.593855	-13.042626
1979.900566	-13.065238
1981.209003	-13.088329
1982.519171	-13.111946
1983.831073	-13.136056
1985.144712	-13.160587
1986.460093	-13.185499
1987.777217	-13.210808
1989.096089	-13.236547
1990.416713	-13.262734
1991.739092	-13.289380
1993.063228	-13.316462
1994.389127	-13.343896
1995.716791	-13.371544
1997.046223	-13.399289
1998.377428	-13.427093
1999.710409	-13.455011
2001.045169	-13.483158
2002.381713	-13.511661
2003.720043	-13.540602
2005.060163	-13.569989
2006.402077	-13.599788
2007.745788	-13.629994
2009.091301	-13.660662
2010.438618	-13.691894
2011.787743	-13.723801
2013.138680	-13.756459
2014.491433	-13.789874
2015.846005	-13.823994
2017.202399	-13.858736
2018.560621	-13.894024
2019.920673	-13.929823
2021.282558	-13.966146
2022.646281	-14.003029
2024.011846	-14.040494
2025.379256	-14.078520
2026.748515	-14.117044
2028.119626	-14.155991
2029.492594	-14.195304
2030.867422	-14.234956
2032.244114	-14.274942
2033.622673	-14.315254
2035.003104	-14.355858
2036.385411	-14.396692
2037.769597	-14.437670
2039.155665	-14.478706
2040.543621	-14.519763
2041.933467	-14.560885
2043.325208	-14.602165
2044.718847	-14.643690
2046.114389	-14.685479
2047.511837	-14.727455
2048.911195	-14.769484
2050.312467	-14.811458
2051.715657	-14.853372
2053.120769	-14.895370
2054.527807	-14.937691
2055.936775	-14.980544
2057.347677	-15.024013
2058.760516	-15.068006
2060.175297	-15.112288
2061.592025	-15.156615
2063.010701	-15.200863
2064.431332	-15.245088
2065.853921	-15.289513
2067.278472	-15.334379
2068.704988	-15.379815
2070.133475	-15.425773
2071.563936	-15.472049
2072.996375	-15.518423
2074.430796	-15.564804
2075.867204	-15.611287
2077.305603	-15.658148
2078.745996	-15.705724
2080.188389	-15.754292
2081.632784	-15.803981
2083.079187	-15.854730
2084.527601	-15.906360
2085.978030	-15.958685
2087.430480	-16.011629
2088.884954	-16.065303
2090.341455	-16.119941
2091.799990	-16.175803
2093.260561	-16.233032
2094.723173	-16.291564
2096.187831	-16.351131
2097.654538	-16.411375
2099.123300	-16.472054
2100.594119	-16.533181
2102.067001	-16.595022
2103.541950	-16.657918
2105.018971	-16.722028
2106.498067	-16.787183
2107.979243	-16.852884
2109.462503	-16.918548
2110.947853	-16.983797
2112.435295	-17.048655
2113.924836	-17.113516
2115.416478	-17.178827
2116.910227	-17.244821
2118.406087	-17.311385
2119.904063	-17.378177
2121.404158	-17.444908
2122.906378	-17.511524
2124.410727	-17.578231
2125.917210	-17.645287
2127.425831	-17.712818
2128.936594	-17.780745
2130.449505	-17.848848
2131.964567	-17.916888
2133.481786	-17.984670
2135.001166	-18.052043
2136.522711	-18.118891
2138.046427	-18.185200
2139.572317	-18.251147
2141.100388	-18.317079
2142.630642	-18.383362
2144.163085	-18.450195
2145.697722	-18.517517
2147.234558	-18.585134
2148.773596	-18.652937
2150.314842	-18.721100
2151.858301	-18.790022
2153.403977	-18.860131
2154.951875	-18.931624
2156.502000	-19.004389
2158.054357	-19.078129
2159.608950	-19.152583
2161.165785	-19.227647
2162.724866	-19.303313
2164.286198	-19.379515
2165.849786	-19.456097
2167.415635	-19.532942
2168.983749	-19.610104
2170.554134	-19.687853
2172.126795	-19.766605
2173.701737	-19.846767
2175.278964	-19.928682
2176.858481	-20.012660
2178.440294	-20.099028
2180.024408	-20.188184
2181.610827	-20.280529
2183.199557	-20.376269
2184.790602	-20.475278
2186.383968	-20.577030
2187.979660	-20.680803
2189.577683	-20.785953
2191.178041	-20.892090
2192.780741	-20.998954
2194.385787	-21.106237
2195.993185	-21.213512
2197.602939	-21.320302
2199.215054	-21.426293
2200.829537	-21.531450
2202.446392	-21.635868
2204.065624	-21.739496
2205.687239	-21.842061
2207.311242	-21.943204
2208.937638	-22.042713
2210.566433	-22.140469
2212.197631	-22.236127
2213.831239	-22.328925
2215.467261	-22.418057
2217.105703	-22.503287
2218.746570	-22.585116
2220.389867	-22.664222
2222.035601	-22.740590
2223.683776	-22.813509
2225.334398	-22.882498
2226.987472	-22.948184
2228.643004	-23.012261
2230.300999	-23.076499
2231.961463	-23.141697
2233.624402	-23.207713
2235.289820	-23.274520
2236.957723	-23.343378
2238.628118	-23.416912
2240.301009	-23.497640
2241.976402	-23.586262
2243.654303	-23.681297
2245.334717	-23.780735
2247.017650	-23.884359
2248.703108	-23.994196
2250.391096	-24.112495
2252.081620	-24.239100
2253.774686	-24.370970
2255.470300	-24.504492
2257.168467	-24.638445
2258.869193	-24.774296
2260.572484	-24.913704
2262.278345	-25.055898
2263.986783	-25.197690
2265.697804	-25.336097
2267.411412	-25.470575
2269.127615	-25.602724
2270.846417	-25.734031
2272.567826	-25.864297
2274.291846	-25.992356
2276.018484	-26.117648
2277.747745	-26.240487
2279.479637	-26.361104
2281.214164	-26.479014
2282.951333	-26.593487
2284.691149	-26.704400
2286.433619	-26.812028
2288.178750	-26.916110
2289.926546	-27.015842
2291.677014	-27.110987
2293.430161	-27.202945
2295.185992	-27.294070
2296.944513	-27.385743
2298.705732	-27.477510
2300.469653	-27.568305
2302.236283	-27.658368
2304.005629	-27.749436
2305.777696	-27.842803
2307.552492	-27.937591
2309.330022	-28.031440
2311.110292	-28.123170
2312.893310	-28.214281
2314.679080	-28.307065
2316.467611	-28.401842
2318.258907	-28.496438
2320.052976	-28.588696
2321.849824	-28.679034
2323.649457	-28.770090
2325.451883	-28.863989
2327.257106	-28.960430
2329.065135	-29.057553
2330.875975	-29.154385
2332.689633	-29.252176
2334.506116	-29.353150
2336.325430	-29.459045
2338.147581	-29.570257
2339.972578	-29.686475
2341.800425	-29.807652
2343.631130	-29.934162
2345.464700	-30.065947
2347.301141	-30.202156
2349.140461	-30.341920
2350.982665	-30.485390
2352.827760	-30.632986
2354.675754	-30.783941
2356.526653	-30.936092
2358.380464	-31.087905
2360.237195	-31.239558
2362.096851	-31.391799
2363.959440	-31.544344
2365.824968	-31.695935
2367.693444	-31.845908
2369.564873	-31.994730
2371.439263	-32.142363
2373.316620	-32.287029
2375.196953	-32.427014
2377.080267	-32.563957
2378.966570	-32.701772
2380.855869	-32.841235
2382.748171	-32.977649
2384.643484	-33.106534
2386.541815	-33.230333
2388.443170	-33.355107
2390.347557	-33.481654
2392.254984	-33.603482
2394.165457	-33.714803
2396.078984	-33.817057
2397.995572	-33.914541
2399.915229	-34.007564
2401.837961	-34.093860
2403.763777	-34.175865
2405.692684	-34.260162
2407.624689	-34.349835
2409.559800	-34.439840
2411.498023	-34.524679
2413.439368	-34.607663
2415.383840	-34.698469
2417.331449	-34.801060
2419.282201	-34.909093
2421.236104	-35.015582
2423.193165	-35.124434
2425.153393	-35.248152
2427.116795	-35.393760
2429.083378	-35.554311
2431.053151	-35.717438
2433.026121	-35.880761
2435.002297	-36.054102
2436.981685	-36.246546
2438.964293	-36.456226
2440.950131	-36.674954
2442.939204	-36.898337
2444.931522	-37.129170
2446.927092	-37.373262
2448.925923	-37.632281
2450.928022	-37.898321
2452.933397	-38.158425
2454.942056	-38.408557
2456.954008	-38.657399
2458.969260	-38.908017
2460.987821	-39.145459
2463.009699	-39.356262
2465.034902	-39.553279
2467.063437	-39.759634
2469.095315	-39.971779
2471.130542	-40.161239
2473.169127	-40.317305
2475.211078	-40.459733
2477.256404	-40.603921
2479.305112	-40.739461
2481.357212	-40.853924
2483.412713	-40.952913
2485.471621	-41.043744
2487.533946	-41.119648
2489.599696	-41.173114
2491.668880	-41.204983
2493.741507	-41.214195
2495.817585	-41.197887
2497.897122	-41.168383
2499.980127	-41.147987
2502.066609	-41.141005
2504.156578	-41.130683
2506.250040	-41.110738
2508.347006	-41.100555
2510.447483	-41.115977
2512.551482	-41.145922
2514.659010	-41.176182
2516.770076	-41.220976
2518.884690	-41.306690
2521.002861	-41.431365
2523.124597	-41.563839
2525.249907	-41.686091
2527.378801	-41.817367
2529.511287	-41.985817
2531.647375	-42.192864
2533.787074	-42.414998
2535.930393	-42.635381
2538.077340	-42.865450
2540.227927	-43.135508
2542.382160	-43.456642
2544.540051	-43.792111
2546.701608	-44.097472
2548.866840	-44.396331
2551.035757	-44.751650
2553.208369	-45.148435
2555.384684	-45.498001
2557.564713	-45.794240
2559.748465	-46.130699
2561.935948	-46.520960
2564.127174	-46.860870
2566.322152	-47.126901
2568.520890	-47.443935
2570.723399	-47.867210
2572.929689	-48.257463
2575.139769	-48.496674
2577.353649	-48.713620
2579.571340	-49.069473
2581.792849	-49.470848
2584.018189	-49.711153
2586.247368	-49.827124
2588.480396	-49.987880
2590.717284	-50.157159
2592.958041	-50.187640
2595.202678	-50.101914
2597.451204	-50.014851
2599.703630	-49.929080
2601.959966	-49.781629
2604.220222	-49.585026
2606.484408	-49.422650
2608.752535	-49.327910
2611.024612	-49.236883
2613.300651	-49.097722
2615.580661	-48.974730
2617.864653	-48.953710
2620.152638	-48.996134
2622.444625	-48.994832
2624.740626	-48.968416
2627.040651	-49.043617
2629.344710	-49.237529
2631.652814	-49.417252
2633.964974	-49.524182
2636.281200	-49.667958
2638.601504	-49.911015
2640.925896	-50.160458
2643.254386	-50.351283
2645.586987	-50.560748
2647.923707	-50.836418
2650.264559	-51.098191
2652.609554	-51.291713
2654.958702	-51.481486
2657.312015	-51.714374
2659.669503	-51.935839
2662.031178	-52.092167
2664.397051	-52.229343
2666.767132	-52.440261
2669.141434	-52.738699
2671.519968	-53.035617
2673.902745	-53.316248
2676.289776	-53.742799
2678.681072	-54.382831
2681.076646	-55.016431
2683.476508	-55.549716
2685.880671	-56.273458
2688.289145	-57.185388
2690.701942	-57.811381
2693.119075	-58.313134
2695.540554	-59.236608
2697.966391	-60.107886
2700.396599	-60.349925
2702.831189	-60.741747
2705.270172	-61.331363
2707.713561	-61.179456
2710.161368	-60.826670
2712.613605	-60.878583
2715.070283	-60.715969
2717.531416	-60.292218
2719.997014	-60.142705
2722.467090	-60.003651
2724.941657	-59.652874
2727.420726	-59.503365
2729.904310	-59.515358
2732.392421	-59.302451
2734.885072	-59.085476
2737.382275	-59.107213
2739.884042	-59.112682
2742.390387	-59.021449
2744.901321	-59.004005
2747.416857	-58.947781
2749.937008	-58.804723
2752.461787	-58.779089
2754.991206	-58.770759
2757.525279	-58.577510
2760.064017	-58.364097
2762.607434	-58.192477
2765.155544	-57.909683
2767.708358	-57.622821
2770.265890	-57.487983
2772.828153	-57.384087
2775.395160	-57.260552
2777.966924	-57.274020
2780.543459	-57.414760
2783.124778	-57.571639
2785.710894	-57.888469
2788.301821	-58.500953
2790.897572	-59.189848
2793.498160	-59.771448
2796.103599	-60.449510
2798.713903	-61.330404
2801.329085	-62.344769
2803.949159	-63.631587
2806.574139	-65.096669
2809.204038	-66.310026
2811.838871	-67.746336
2814.478650	-69.960245
2817.123391	-72.056604
2819.773107	-74.245119
2822.427812	-77.218425
2825.087521	-75.355443
2827.752247	-72.928266
2830.422005	-72.071225
2833.096808	-71.484227
2835.776672	-70.990453
2838.461611	-70.017326
2841.151638	-68.687747
2843.846769	-68.356797
2846.547019	-68.968672
2849.252401	-69.364597
2851.962930	-69.657026
2854.678621	-70.078183
2857.399489	-70.320801
2860.125549	-71.395715
2862.856815	-73.179723
2865.593302	-74.188229
2868.335026	-75.238491
2871.082002	-73.946107
2873.834244	-71.590050
2876.591767	-70.602815
2879.354588	-69.594452
2882.122721	-68.232789
2884.896181	-66.930776
2887.674984	-65.852523
2890.459146	-65.704934
2893.248681	-66.166736
2896.043606	-65.713155
2898.843937	-65.039420
2901.649687	-65.287279
2904.460875	-65.802476
2907.277515	-66.106416
2910.099623	-66.779411
2912.927215	-67.302312
2915.760308	-67.033094
2918.598916	-66.966207
2921.443057	-67.736709
2924.292747	-68.849825
2927.148002	-69.072965
2930.008837	-68.972377
2932.875270	-69.714377
2935.747318	-70.693848
2938.624995	-71.714625
2941.508320	-73.369162
2944.397308	-73.567687
2947.291977	-73.659176
2950.192343	-77.671795
2953.098423	-83.388664
2956.010234	-79.181186
2958.927792	-82.407271
2961.851116	-92.859921
2964.780221	-82.242491
2967.715126	-82.330411
2970.655847	-79.118080
2973.602402	-75.992715
2976.554808	-77.087116
2979.513083	-82.367441
2982.477243	-80.306118
2985.447308	-78.320342
2988.423293	-82.330925
2991.405218	-97.252021
2994.393099	-89.148560
2997.386955	-86.360151
