# 2022-03-22_10.22.59
# shape = sech2
# FWHM_ps = 0.11
# carrier_nm = 1542
# frep_MHz = 12126
# pow_mW = 8000
# GDD = 0.0
# propa_len = 0.12555555555555556
# untap_len = 0.01
# taper_len = 0.06555555555555556
# waist_len = 0.02
# uptap_len = 0.02
# untap_scale = 1.0
# waist_scale = 0.17894736842105266
# workingDir = NL_20110305_12 (Spirou)
# axis = slow
# window_ps = 10.0
# steps = 200
# points = 21700
# 
# wavelength [nm]	 power spectral density [dB]
600.043425	-87.556926
600.163550	-84.538752
600.283723	-85.121520
600.403943	-88.144129
600.524212	-87.316569
600.644529	-83.122122
600.764895	-80.953611
600.885308	-80.958034
601.005770	-83.372397
601.126280	-88.541407
601.246839	-85.866455
601.367446	-80.431929
601.488101	-77.886954
601.608804	-77.355271
601.729557	-78.335525
601.850357	-80.821955
601.971206	-85.356602
602.092104	-93.015778
602.213050	-99.767892
602.334045	-90.302487
602.455089	-84.316842
602.576181	-80.494405
602.697322	-78.308368
602.818511	-77.497636
602.939749	-78.100619
603.061036	-80.238850
603.182372	-83.218329
603.303757	-82.776546
603.425191	-79.998945
603.546673	-78.357112
603.668204	-78.165821
603.789785	-79.071714
603.911414	-80.542353
604.033092	-82.110442
604.154820	-83.956192
604.276596	-86.836812
604.398422	-88.827601
604.520297	-84.846094
604.642220	-80.987120
604.764193	-78.868804
604.886216	-78.530057
605.008287	-80.151271
605.130408	-84.162052
605.252578	-90.631731
605.374798	-87.650729
605.497066	-83.916997
605.619385	-82.590059
605.741752	-82.087645
605.864169	-81.394268
605.986636	-80.553649
606.109152	-80.384752
606.231718	-81.638664
606.354333	-84.840843
606.476998	-86.148745
606.599712	-81.726368
606.722476	-78.631404
606.845290	-77.559041
606.968154	-78.329039
607.091067	-80.871509
607.214030	-85.146560
607.337043	-89.844984
607.460106	-88.910198
607.583219	-85.259912
607.706381	-81.817152
607.829594	-78.971882
607.952856	-77.094148
608.076169	-76.456106
608.199531	-77.153089
608.322944	-79.166298
608.446407	-81.510917
608.569920	-80.935492
608.693483	-78.795060
608.817096	-77.688681
608.940759	-77.812716
609.064473	-78.668756
609.188237	-79.678290
609.312051	-80.589225
609.435916	-81.129522
609.559831	-80.839549
609.683796	-79.479625
609.807812	-77.400928
609.931878	-75.757562
610.055995	-75.090051
610.180162	-75.605813
610.304380	-77.623621
610.428648	-81.542494
610.552967	-88.129339
610.677337	-93.576975
610.801757	-88.668492
610.926228	-83.839357
611.050750	-80.190790
611.175323	-77.980690
611.299946	-77.149244
611.424620	-77.622491
611.549345	-79.224169
611.674121	-81.261076
611.798948	-82.092507
611.923826	-81.558119
612.048755	-81.594841
612.173734	-83.230517
612.298765	-84.630791
612.423847	-82.544551
612.548980	-80.549912
612.674165	-80.688642
612.799400	-82.880079
612.924687	-83.233612
613.050025	-79.683082
613.175414	-77.198014
613.300854	-76.429504
613.426346	-77.185540
613.551889	-79.612250
613.677484	-83.716795
613.803130	-87.349335
613.928827	-88.769544
614.054576	-90.679954
614.180377	-86.414329
614.306229	-80.463978
614.432132	-77.106971
614.558087	-75.714419
614.684094	-75.862839
614.810153	-76.967619
614.936263	-77.211037
615.062425	-75.892820
615.188639	-74.890212
615.314904	-75.129243
615.441222	-76.724512
615.567591	-79.034928
615.694012	-79.922353
615.820486	-78.958476
615.947011	-77.499946
616.073588	-75.591604
616.200217	-73.614660
616.326898	-72.140748
616.453632	-71.525838
616.580417	-71.945645
616.707255	-73.462960
616.834144	-76.141085
616.961086	-79.863706
617.088081	-83.672541
617.215127	-84.398257
617.342226	-80.769519
617.469378	-76.522073
617.596581	-73.556009
617.723837	-72.136205
617.851146	-72.149946
617.978507	-73.394329
618.105920	-74.885423
618.233386	-75.254186
618.360905	-75.648740
618.488476	-77.624111
618.616100	-82.736578
618.743777	-100.604565
618.871506	-85.375341
618.999288	-81.954884
619.127123	-82.199512
619.255011	-83.461695
619.382951	-80.799715
619.510945	-77.195043
619.638991	-75.296724
619.767090	-74.781983
619.895243	-75.090737
620.023448	-75.298377
620.151706	-74.492637
620.280017	-73.638857
620.408382	-73.873771
620.536799	-75.688192
620.665270	-79.475485
620.793794	-85.680156
620.922371	-98.411952
621.051002	-89.931312
621.179686	-80.414031
621.308423	-75.040908
621.437213	-71.975019
621.566057	-70.674719
621.694954	-70.742568
621.823905	-71.879740
621.952909	-73.579702
622.081967	-75.085099
622.211079	-76.758833
622.340244	-80.010689
622.469462	-87.962162
622.598735	-84.307795
622.728061	-77.606530
622.857441	-74.957173
622.986874	-74.088594
623.116361	-73.739270
623.245903	-72.974358
623.375498	-72.195014
623.505147	-72.501192
623.634850	-74.545538
623.764606	-79.235900
623.894417	-88.419191
624.024282	-82.186119
624.154201	-78.276923
624.284174	-77.478383
624.414202	-76.562748
624.544283	-74.071062
624.674419	-72.415900
624.804609	-72.458817
624.934853	-74.248087
625.065151	-77.481948
625.195504	-77.922489
625.325911	-76.981253
625.456373	-78.929943
625.586889	-80.672772
625.717460	-76.017437
625.848085	-72.423282
625.978764	-71.102974
626.109498	-71.730203
626.240287	-73.886562
626.371131	-76.002306
626.502029	-76.174181
626.632982	-76.410309
626.763989	-79.209396
626.895052	-82.056137
627.026169	-76.260196
627.157341	-73.175955
627.288568	-72.826857
627.419850	-73.807464
627.551187	-73.773466
627.682579	-72.165431
627.814026	-71.577082
627.945528	-73.552248
628.077085	-79.112473
628.208697	-81.013684
628.340364	-76.029483
628.472087	-74.378307
628.603865	-75.247804
628.735698	-75.920493
628.867586	-74.059426
628.999530	-73.120349
629.131529	-74.398646
629.263584	-77.009930
629.395694	-76.181311
629.527859	-73.231336
629.660080	-72.128801
629.792357	-73.301162
629.924689	-74.891598
630.057077	-73.312483
630.189520	-72.040328
630.322019	-73.023465
630.454574	-75.830434
630.587184	-76.716841
630.719851	-74.341671
630.852573	-73.093846
630.985351	-73.415871
631.118185	-73.581481
631.251075	-71.910457
631.384021	-70.736801
631.517023	-71.308919
631.650081	-73.244145
631.783195	-74.556609
631.916365	-73.668973
632.049592	-73.094902
632.182874	-74.257482
632.316213	-76.562321
632.449608	-75.244780
632.583059	-72.678285
632.716567	-71.988559
632.850131	-72.057190
632.983751	-71.336118
633.117428	-70.676971
633.251161	-71.125638
633.384951	-72.537795
633.518797	-74.345786
633.652700	-75.351721
633.786660	-75.080981
633.920676	-75.786856
634.054749	-76.707842
634.188879	-74.095357
634.323065	-71.380834
634.457308	-70.341752
634.591608	-70.316843
634.725965	-70.423022
634.860379	-70.810063
634.994850	-71.960341
635.129377	-74.259940
635.263962	-76.284658
635.398604	-74.627629
635.533303	-72.145270
635.668058	-70.735612
635.802872	-70.068917
635.937742	-69.878201
636.072669	-70.246642
636.207654	-71.092214
636.342696	-72.429548
636.477796	-74.169566
636.612953	-75.317485
636.748167	-74.580501
636.883439	-72.639103
637.018768	-70.699382
637.154155	-69.344582
637.289599	-68.812351
637.425101	-69.001477
637.560660	-69.686108
637.696277	-70.852853
637.831952	-72.502862
637.967685	-74.351563
638.103475	-75.379310
638.239324	-75.368557
638.375230	-74.484694
638.511194	-72.409534
638.647215	-70.463892
638.783295	-69.489311
638.919433	-69.391254
639.055629	-69.735699
639.191883	-70.265951
639.328195	-71.019605
639.464565	-72.199252
639.600994	-73.320285
639.737481	-73.167158
639.874025	-72.590583
640.010629	-72.821154
640.147290	-73.031937
640.284010	-71.903319
640.420789	-70.304002
640.557625	-69.264681
640.694521	-68.840219
640.831474	-68.879297
640.968487	-69.298517
641.105558	-70.186674
641.242687	-71.536844
641.379876	-72.459321
641.517123	-72.115292
641.654429	-71.834745
641.791793	-72.363889
641.929216	-72.285690
642.066699	-70.974354
642.204240	-69.953905
642.341840	-69.697987
642.479499	-69.642845
642.617217	-69.191228
642.754994	-68.669323
642.892830	-68.957238
643.030726	-70.383795
643.168680	-72.610697
643.306694	-74.657282
643.444767	-76.442605
643.582899	-74.888761
643.721091	-70.991197
643.859342	-68.500848
643.997652	-67.601869
644.136022	-67.680797
644.274451	-68.154325
644.412940	-69.058179
644.551488	-71.040149
644.690096	-74.496609
644.828763	-75.362795
644.967490	-72.109819
645.106277	-70.196009
645.245124	-69.537796
645.384030	-68.892417
645.522997	-67.985796
645.662023	-67.929092
645.801109	-69.141936
645.940255	-71.140220
646.079460	-72.301250
646.218726	-71.935966
646.358052	-70.721902
646.497438	-69.530233
646.636884	-69.009689
646.776391	-69.622005
646.915957	-71.453546
647.055584	-72.579228
647.195271	-70.929259
647.335019	-69.360997
647.474826	-68.945241
647.614695	-68.982573
647.754623	-68.977722
647.894612	-69.668250
648.034662	-71.979689
648.174772	-75.506213
648.314943	-74.637025
648.455174	-71.022586
648.595466	-68.427362
648.735819	-67.027006
648.876233	-66.805552
649.016707	-67.733678
649.157242	-69.663851
649.297838	-72.375502
649.438495	-75.087333
649.579213	-74.920290
649.719992	-72.021426
649.860832	-68.784267
650.001733	-66.510455
650.142695	-65.734162
650.283718	-66.381836
650.424803	-68.098537
650.565949	-70.217898
650.707156	-72.105311
650.848424	-73.017137
650.989754	-72.980459
651.131145	-72.981091
651.272597	-71.645653
651.414111	-68.697433
651.555687	-66.632126
651.697324	-66.264997
651.839022	-67.745771
651.980782	-71.330268
652.122604	-74.597181
652.264488	-71.408379
652.406433	-69.221210
652.548441	-69.493669
652.690510	-71.583162
652.832640	-73.147833
652.974833	-71.473662
653.117088	-69.379376
653.259405	-68.578209
653.401784	-69.471027
653.544224	-71.515140
653.686727	-70.834375
653.829293	-68.072946
653.971920	-66.953871
654.114609	-68.107844
654.257361	-71.955975
654.400175	-75.994881
654.543052	-71.647703
654.685991	-68.597454
654.828992	-67.905913
654.972056	-68.582674
655.115183	-68.918934
655.258372	-68.369340
655.401623	-68.068620
655.544937	-68.662000
655.688314	-70.862346
655.831754	-77.152421
655.975256	-75.831813
656.118822	-68.545641
656.262450	-65.711831
656.406141	-65.367564
656.549894	-66.840062
656.693711	-69.717986
656.837591	-73.453469
656.981534	-77.291952
657.125540	-77.530945
657.269610	-72.560674
657.413742	-68.857636
657.557938	-66.853045
657.702196	-65.959079
657.846519	-65.602328
657.990904	-66.005703
658.135353	-68.053413
658.279866	-73.060632
658.424441	-80.673322
658.569081	-75.201830
658.713784	-72.047488
658.858550	-69.197877
659.003381	-66.443751
659.148274	-65.241757
659.293232	-65.800246
659.438253	-67.490172
659.583339	-69.315437
659.728488	-71.696915
659.873701	-76.271382
660.018978	-76.762979
660.164318	-72.281230
660.309723	-70.229690
660.455192	-69.800297
660.600725	-69.433210
660.746323	-68.588283
660.891984	-68.346178
661.037710	-69.436355
661.183500	-70.824609
661.329354	-71.335120
661.475272	-73.271793
661.621255	-79.396510
661.767303	-74.038702
661.913415	-69.286977
662.059591	-67.947059
662.205833	-67.986493
662.352138	-68.005207
662.498509	-68.495171
662.644944	-70.121262
662.791443	-71.931638
662.938008	-72.194586
663.084638	-72.336856
663.231332	-72.937231
663.378091	-72.102035
663.524915	-69.850458
663.671804	-68.492367
663.818759	-68.959324
663.965778	-71.234500
664.112863	-73.306434
664.260012	-73.795743
664.407227	-74.715587
664.554507	-73.014831
664.701853	-70.094824
664.849264	-69.306874
664.996740	-70.922354
665.144282	-73.715249
665.291889	-74.418088
665.439561	-74.494828
665.587300	-73.008458
665.735103	-69.654375
665.882973	-68.187785
666.030908	-69.406955
666.178909	-73.082921
666.326976	-75.721105
666.475109	-75.002480
666.623307	-74.602259
666.771571	-72.080291
666.919902	-69.313675
667.068298	-68.447794
667.216761	-69.137416
667.365289	-69.852670
667.513884	-70.100561
667.662545	-71.946594
667.811272	-78.742168
667.960065	-84.437463
668.108925	-74.901819
668.257851	-72.407275
668.406843	-69.901985
668.555902	-67.429765
668.705027	-66.970616
668.854219	-69.206000
669.003478	-74.671355
669.152803	-83.918392
669.302195	-88.679411
669.451653	-74.893487
669.601179	-69.903097
669.750771	-68.616387
669.900430	-69.749280
670.050156	-70.970965
670.199949	-70.480531
670.349808	-71.426378
670.499735	-76.921700
670.649729	-86.711668
670.799790	-76.811203
670.949918	-74.365672
671.100114	-71.861976
671.250377	-69.706302
671.400707	-69.616933
671.551104	-71.935755
671.701569	-77.258479
671.852101	-87.753258
672.002700	-85.572920
672.153368	-78.719408
672.304102	-74.000390
672.454905	-72.053061
672.605775	-73.220422
672.756713	-77.268461
672.907718	-77.523947
673.058791	-75.825227
673.209933	-78.641472
673.361142	-90.750207
673.512419	-82.590460
673.663764	-79.224997
673.815177	-75.554251
673.966658	-71.673788
674.118207	-70.320045
674.269825	-71.892307
674.421510	-77.185074
674.573264	-91.192137
674.725086	-89.649484
674.876977	-82.355006
675.028936	-76.018382
675.180963	-73.482436
675.333059	-74.536205
675.485224	-79.757556
675.637457	-91.974105
675.789758	-88.178283
675.942129	-83.941091
676.094568	-78.419725
676.247075	-75.771005
676.399652	-76.414524
676.552298	-80.813861
676.705012	-90.938615
676.857795	-88.505293
677.010648	-80.759873
677.163569	-74.906471
677.316560	-72.090455
677.469619	-71.768901
677.622748	-72.511601
677.775946	-71.993314
677.929214	-70.799691
678.082551	-70.158572
678.235957	-70.050217
678.389432	-70.735152
678.542977	-72.262230
678.696592	-72.296550
678.850276	-70.655904
679.004030	-70.393085
679.157853	-71.923426
679.311746	-74.248471
679.465709	-75.764455
679.619742	-73.318052
679.773844	-69.680314
679.928017	-68.142362
680.082259	-69.154692
680.236571	-72.433012
680.390954	-75.253574
680.545406	-75.960436
680.699929	-74.141533
680.854522	-70.348646
681.009185	-68.660066
681.163918	-69.346170
681.318722	-71.215848
681.473596	-72.485475
681.628540	-74.674513
681.783555	-83.421997
681.938641	-83.266146
682.093797	-77.799033
682.249023	-83.064522
682.404321	-78.637988
682.559689	-71.523358
682.715128	-69.631377
682.870637	-69.760629
683.026218	-69.564614
683.181869	-69.660065
683.337591	-72.981718
683.493385	-87.908532
683.649249	-75.041347
683.805185	-71.138180
683.961191	-69.935492
684.117269	-67.674397
684.273418	-66.286776
684.429639	-67.648170
684.585930	-71.437123
684.742294	-72.787217
684.898728	-74.957939
685.055234	-85.579209
685.211812	-70.487393
685.368461	-66.737665
685.525182	-66.654796
685.681975	-67.445874
685.838839	-67.937156
685.995775	-71.646522
686.152783	-86.827135
686.309863	-69.597996
686.467014	-66.430164
686.624238	-66.684223
686.781534	-66.750302
686.938902	-66.561222
687.096342	-69.073305
687.253854	-72.448537
687.411438	-68.897623
687.569095	-67.699524
687.726824	-68.085828
687.884626	-66.049353
688.042499	-64.593035
688.200446	-65.622521
688.358465	-67.687665
688.516556	-68.406983
688.674720	-70.410860
688.832957	-69.965982
688.991266	-65.383131
689.149649	-63.624183
689.308104	-64.508831
689.466632	-66.884418
689.625233	-69.810325
689.783906	-72.589902
689.942653	-67.048019
690.101473	-62.888473
690.260367	-61.819698
690.419333	-62.698234
690.578372	-63.836259
690.737485	-64.970941
690.896672	-67.657057
691.055931	-68.117208
691.215264	-65.071346
691.374671	-63.825651
691.534151	-62.836522
691.693704	-61.424586
691.853332	-61.507521
692.013033	-63.963034
692.172807	-67.212934
692.332656	-67.967626
692.492578	-66.999931
692.652575	-63.812410
692.812645	-61.778171
692.972789	-62.225532
693.133007	-63.909964
693.293300	-63.984832
693.453666	-63.873527
693.614107	-63.888731
693.774622	-62.499846
693.935211	-62.133179
694.095875	-63.091878
694.256613	-62.426804
694.417426	-61.027469
694.578313	-60.939939
694.739274	-61.486610
694.900311	-62.001525
695.061421	-63.365671
695.222607	-64.118650
695.383868	-62.204890
695.545203	-61.332996
695.706613	-62.016578
695.868098	-62.415312
696.029658	-62.560906
696.191293	-63.157703
696.353003	-62.643536
696.514789	-61.486132
696.676649	-61.068930
696.838585	-60.517259
697.000596	-59.568831
697.162682	-59.697317
697.324844	-61.261375
697.487081	-62.529779
697.649394	-62.234316
697.811782	-60.798035
697.974246	-58.634995
698.136786	-57.435636
698.299401	-57.976777
698.462092	-60.014106
698.624859	-62.855172
698.787702	-65.907713
698.950621	-63.704826
699.113616	-59.531670
699.276686	-57.811590
699.439833	-57.697193
699.603056	-57.951417
699.766355	-59.155652
699.929731	-62.857572
700.093183	-64.831331
700.256711	-60.948140
700.420315	-58.197039
700.583996	-56.138312
700.747754	-55.275403
700.911588	-56.427491
701.075499	-59.753584
701.239486	-63.216256
701.403550	-62.883767
701.567691	-59.494778
701.731909	-56.758149
701.896203	-56.369036
702.060575	-57.928995
702.225024	-59.762328
702.389549	-61.564662
702.554152	-62.813343
702.718832	-59.734430
702.883589	-57.590942
703.048424	-57.288736
703.213335	-57.186964
703.378324	-57.439092
703.543391	-59.181772
703.708535	-59.751515
703.873757	-57.879011
704.039056	-57.036944
704.204433	-56.748073
704.369887	-56.717886
704.535420	-58.347143
704.701030	-60.832398
704.866718	-59.511079
705.032484	-57.831432
705.198328	-57.101724
705.364250	-56.654328
705.530250	-57.573474
705.696328	-60.075462
705.862485	-60.157017
706.028720	-58.591587
706.195033	-57.771092
706.361424	-56.615324
706.527894	-56.117922
706.694442	-56.925166
706.861069	-57.510804
707.027775	-57.538944
707.194559	-57.930723
707.361422	-57.133495
707.528363	-55.919408
707.695384	-56.144529
707.862483	-57.401779
708.029661	-58.496492
708.196918	-59.389606
708.364254	-58.299881
708.531670	-56.273263
708.699164	-56.058494
708.866738	-57.398593
709.034391	-58.745341
709.202123	-59.486287
709.369935	-58.048551
709.537826	-55.495442
709.705796	-54.476815
709.873847	-54.906429
710.041976	-55.750449
710.210186	-57.266315
710.378475	-59.355189
710.546844	-58.019700
710.715292	-56.092736
710.883821	-55.322754
711.052429	-54.877690
711.221118	-55.593344
711.389887	-58.420009
711.558735	-60.490929
711.727664	-58.669495
711.896673	-56.598091
712.065763	-54.793264
712.234932	-54.595080
712.404183	-56.521485
712.573513	-58.348015
712.742924	-58.007299
712.912416	-56.590706
713.081988	-54.624345
713.251641	-53.970589
713.421375	-54.936068
713.591190	-56.158739
713.761085	-57.385771
713.931061	-58.724437
714.101119	-57.238365
714.271257	-55.736674
714.441476	-55.487289
714.611777	-55.515254
714.782159	-56.684651
714.952622	-59.095737
715.123166	-58.330650
715.293792	-56.258727
715.464499	-55.082040
715.635288	-54.434768
715.806158	-54.960293
715.977110	-56.297645
716.148143	-56.336084
716.319259	-55.777239
716.490456	-55.640128
716.661735	-55.590659
716.833096	-56.228804
717.004538	-57.237472
717.176063	-56.858769
717.347670	-56.205867
717.519359	-56.184329
717.691130	-56.184825
717.862984	-56.708749
718.034920	-57.629503
718.206938	-57.019568
718.379039	-55.797665
718.551222	-54.851417
718.723488	-53.987906
718.895836	-54.152793
719.068267	-55.881676
719.240781	-57.649257
719.413377	-57.823421
719.586057	-56.236812
719.758819	-54.165401
719.931664	-53.924438
720.104593	-55.592609
720.277604	-57.613246
720.450699	-59.082176
720.623876	-57.730300
720.797137	-55.127737
720.970482	-54.636346
721.143910	-55.220311
721.317421	-55.554460
721.491016	-56.805845
721.664694	-56.855438
721.838456	-55.142671
722.012302	-54.616716
722.186231	-54.265866
722.360244	-54.482086
722.534342	-56.804967
722.708523	-58.322790
722.882788	-56.810769
723.057137	-55.559187
723.231570	-54.283040
723.406088	-54.658564
723.580689	-57.266499
723.755375	-58.477077
723.930146	-57.328486
724.105000	-55.491864
724.279940	-53.814244
724.454963	-53.909874
724.630072	-55.042261
724.805265	-55.634016
724.980543	-56.431125
725.155905	-56.246766
725.331353	-55.083626
725.506885	-55.035337
725.682503	-55.364847
725.858205	-55.985298
726.033993	-57.511995
726.209865	-57.181927
726.385823	-55.592015
726.561866	-54.982659
726.737995	-55.000911
726.914209	-55.775392
727.090508	-56.571780
727.266893	-55.223973
727.443364	-54.002163
727.619920	-54.138496
727.796562	-54.997302
727.973290	-56.312819
728.150103	-56.572598
728.327003	-55.011634
728.503988	-54.542631
728.681060	-55.366162
728.858218	-56.280059
729.035461	-57.148155
729.212791	-56.231804
729.390208	-54.614367
729.567710	-54.266364
729.745299	-54.288890
729.922975	-54.839039
730.100737	-56.423580
730.278586	-56.121627
730.456521	-54.593049
730.634543	-53.450964
730.812652	-52.798324
730.990848	-53.972281
731.169130	-56.868915
731.347500	-57.820191
731.525957	-56.261935
731.704500	-54.080955
731.883131	-53.312794
732.061850	-54.480541
732.240655	-55.556989
732.419548	-55.785156
732.598528	-55.269713
732.777596	-53.919535
732.956751	-53.607027
733.135994	-53.637403
733.315325	-53.494885
733.494744	-54.374045
733.674250	-55.108388
733.853844	-55.035672
734.033526	-54.908092
734.213296	-54.216264
734.393154	-54.520937
734.573101	-55.434431
734.753135	-54.747460
734.933258	-53.771662
735.113469	-53.050952
735.293769	-53.068209
735.474157	-54.183575
735.654633	-54.394318
735.835198	-53.494095
736.015852	-53.064593
736.196594	-53.107762
736.377426	-53.920633
736.558346	-54.738722
736.739355	-54.223342
736.920453	-53.812973
737.101640	-53.599664
737.282916	-53.255295
737.464282	-53.478197
737.645736	-53.653912
737.827280	-53.615523
738.008914	-53.379886
738.190637	-52.214864
738.372449	-51.727637
738.554351	-52.487217
738.736342	-53.684169
738.918424	-54.638738
739.100595	-53.536615
739.282855	-52.014899
739.465206	-52.084590
739.647647	-52.703825
739.830178	-53.459121
740.012799	-53.701661
740.195510	-52.678278
740.378311	-52.352705
740.561203	-52.049447
740.744185	-51.538352
740.927258	-51.842296
741.110421	-52.328415
741.293674	-53.073371
741.477018	-53.290634
741.660453	-51.892655
741.843979	-51.248236
742.027596	-51.384082
742.211303	-52.078073
742.395102	-53.207529
742.578991	-52.842543
742.762972	-51.952954
742.947044	-51.273912
743.131207	-50.673193
743.315461	-50.895416
743.499807	-51.735493
743.684244	-52.713667
743.868773	-52.921051
744.053394	-51.231420
744.238106	-49.958709
744.422910	-50.025449
744.607805	-51.217030
744.792793	-53.117665
744.977872	-52.980948
745.163044	-51.177443
745.348307	-50.256290
745.533663	-50.105173
745.719111	-50.551638
745.904651	-51.198623
746.090283	-51.468778
746.276008	-51.712479
746.461826	-51.177069
746.647735	-50.220925
746.833738	-49.870815
747.019833	-50.155979
747.206021	-51.124582
747.392302	-51.747905
747.578676	-51.178110
747.765143	-50.636472
747.951703	-50.189445
748.138356	-49.955911
748.325102	-49.962150
748.511941	-50.204529
748.698874	-51.022058
748.885900	-51.183179
749.073019	-50.152628
749.260232	-49.284118
749.447539	-49.291870
749.634939	-50.453972
749.822433	-51.625071
750.010021	-50.955084
750.197703	-49.768276
750.385479	-49.116588
750.573348	-49.299746
750.761312	-49.913300
750.949370	-50.335738
751.137523	-50.651730
751.325769	-50.303682
751.514110	-49.434942
751.702545	-48.851320
751.891075	-48.999940
752.079700	-50.210298
752.268419	-51.275397
752.457233	-50.428065
752.646142	-49.112881
752.835145	-48.494582
753.024244	-48.985018
753.213437	-49.851406
753.402726	-50.150959
753.592110	-49.938345
753.781589	-49.440489
753.971163	-49.115364
754.160833	-49.001038
754.350598	-49.289440
754.540459	-50.037402
754.730415	-50.155760
754.920467	-49.336044
755.110615	-48.617223
755.300858	-48.698429
755.491198	-49.513445
755.681633	-49.819363
755.872164	-49.245528
756.062792	-48.868773
756.253515	-49.150793
756.444335	-49.602426
756.635252	-49.386111
756.826264	-48.915474
757.017373	-49.053487
757.208579	-49.489356
757.399881	-49.543766
757.591280	-49.076559
757.782776	-48.765944
757.974368	-48.882915
758.166058	-48.870016
758.357844	-48.835415
758.549728	-49.183813
758.741708	-49.851532
758.933786	-49.910746
759.125961	-48.894084
759.318233	-48.241206
759.510603	-48.560266
759.703071	-49.471401
759.895635	-49.889413
760.088298	-49.234341
760.281058	-48.661977
760.473916	-48.449860
760.666872	-48.567678
760.859926	-49.006095
761.053078	-49.756927
761.246328	-50.201183
761.439676	-49.321294
761.633122	-48.287347
761.826667	-48.217204
762.020310	-49.250801
762.214052	-50.240943
762.407892	-49.410286
762.601831	-48.327539
762.795868	-48.162931
762.990004	-48.989897
763.184239	-49.834037
763.378573	-49.734872
763.573006	-49.361908
763.767538	-49.092755
763.962169	-49.057051
764.156900	-49.148583
764.351729	-49.417414
764.546658	-49.609236
764.741687	-49.084590
764.936815	-48.609195
765.132042	-48.827646
765.327370	-49.723703
765.522797	-50.134216
765.718324	-49.271395
765.913950	-48.789908
766.109677	-49.337632
766.305504	-50.366274
766.501431	-50.315983
766.697458	-49.141866
766.893586	-48.682062
767.089814	-48.934533
767.286142	-49.552410
767.482571	-49.951860
767.679100	-49.877665
767.875730	-49.703720
768.072461	-49.257001
768.269293	-49.395393
768.466225	-50.347018
768.663259	-51.093687
768.860393	-50.205748
769.057629	-48.606080
769.254966	-48.453338
769.452404	-49.626430
769.649944	-51.127339
769.847585	-50.707331
770.045328	-49.329815
770.243172	-49.178744
770.441118	-49.894626
770.639166	-50.987868
770.837315	-51.177314
771.035567	-50.425452
771.233920	-49.694537
771.432376	-49.265229
771.630934	-49.846850
771.829594	-50.660816
772.028356	-50.638012
772.227220	-49.858931
772.426188	-49.785425
772.625257	-51.211317
772.824430	-52.152106
773.023705	-50.877585
773.223083	-49.501346
773.422563	-49.666395
773.622147	-51.059899
773.821834	-51.425061
774.021624	-50.523704
774.221517	-49.802305
774.421513	-50.201723
774.621613	-51.111531
774.821816	-51.842407
775.022122	-52.113144
775.222532	-51.180455
775.423046	-50.164962
775.623664	-49.778791
775.824385	-50.814505
776.025211	-52.018083
776.226140	-51.388352
776.427173	-50.140829
776.628311	-50.080013
776.829553	-51.454829
777.030899	-52.496044
777.232350	-51.981514
777.433905	-50.971293
777.635564	-50.653667
777.837328	-50.641803
778.039197	-50.758619
778.241171	-51.069691
778.443250	-51.097743
778.645433	-51.044782
778.847722	-51.132998
779.050116	-51.856202
779.252615	-51.796235
779.455219	-50.957178
779.657929	-50.591957
779.860744	-51.191879
780.063665	-51.506126
780.266691	-50.280143
780.469823	-49.726646
780.673061	-50.521743
780.876405	-52.360412
781.079855	-51.921485
781.283410	-50.491497
781.487072	-50.209248
781.690840	-50.819114
781.894715	-51.043628
782.098695	-50.260460
782.302783	-50.155023
782.506976	-50.193309
782.711277	-50.208691
782.915684	-50.085346
783.120198	-50.547791
783.324818	-51.071237
783.529546	-50.473464
783.734381	-49.905462
783.939322	-49.536460
784.144372	-49.547896
784.349528	-49.109998
784.554792	-49.282212
784.760163	-49.893399
784.965642	-49.979279
785.171228	-49.326864
785.376922	-48.913315
785.582724	-49.546184
785.788634	-49.553039
785.994651	-48.970401
786.200777	-48.287183
786.407011	-48.317817
786.613353	-48.242857
786.819804	-48.145753
787.026363	-48.678380
787.233030	-49.135667
787.439806	-48.753466
787.646691	-47.711766
787.853684	-47.715302
788.060786	-47.935499
788.267997	-47.720538
788.475317	-47.153995
788.682746	-47.274206
788.890285	-47.667379
789.097932	-47.345478
789.305689	-47.175649
789.513555	-47.529740
789.721531	-47.784631
789.929617	-46.693464
790.137812	-46.020717
790.346117	-46.301809
790.554531	-46.844573
790.763056	-46.378686
790.971691	-45.858258
791.180436	-46.266439
791.389291	-46.779290
791.598256	-46.416998
791.807332	-45.676902
792.016518	-45.593897
792.225815	-45.609690
792.435222	-45.446274
792.644740	-45.148502
792.854369	-45.030505
793.064109	-44.948864
793.273960	-45.220959
793.483922	-45.794600
793.693995	-45.606827
793.904180	-44.486283
794.114475	-43.869003
794.324882	-44.350418
794.535401	-44.829215
794.746031	-44.267039
794.956774	-43.616168
795.167627	-44.010556
795.378593	-44.676757
795.589671	-44.555711
795.800861	-43.851418
796.012162	-43.600568
796.223577	-43.451669
796.435103	-43.272336
796.646742	-43.140264
796.858493	-43.133000
797.070357	-43.116917
797.282334	-43.298183
797.494423	-43.772740
797.706626	-43.461990
797.918941	-42.550762
798.131369	-42.130513
798.343911	-42.717955
798.556566	-42.868963
798.769334	-42.125364
798.982215	-41.686339
799.195210	-42.409016
799.408319	-43.111292
799.621541	-42.576980
799.834877	-41.825939
800.048327	-41.755021
800.261890	-41.875403
800.475568	-41.579592
800.689360	-41.358163
800.903266	-41.332479
801.117287	-41.593788
801.331422	-41.784907
801.545671	-41.936072
801.760036	-41.386241
801.974514	-40.881370
802.189108	-40.843842
802.403816	-41.203972
802.618640	-40.832520
802.833578	-40.288630
803.048632	-40.463861
803.263800	-41.240645
803.479085	-41.316652
803.694484	-40.614626
803.909999	-40.297140
804.125630	-40.293947
804.341376	-40.200007
804.557239	-39.963368
804.773217	-40.068194
804.989311	-40.117394
805.205521	-40.181066
805.421847	-40.219021
805.638290	-40.270096
805.854849	-39.852112
806.071524	-39.620150
806.288316	-39.624255
806.505225	-39.556198
806.722250	-39.163273
806.939393	-39.282128
807.156652	-39.829519
807.374028	-39.888811
807.591521	-39.287403
807.809132	-39.130247
808.026859	-39.353739
808.244705	-39.117688
808.462667	-38.613531
808.680748	-38.643115
808.898946	-39.069541
809.117261	-39.155987
809.335695	-38.957093
809.554246	-38.841424
809.772916	-38.733682
809.991704	-38.576254
810.210610	-38.544754
810.429634	-38.377619
810.648777	-38.067387
810.868039	-38.114982
811.087419	-38.671292
811.306918	-38.789584
811.526535	-38.235396
811.746272	-37.939315
811.966127	-38.148020
812.186102	-38.094320
812.406196	-37.743838
812.626409	-37.662465
812.846742	-37.909166
813.067194	-38.009915
813.287766	-38.024336
813.508457	-37.947202
813.729269	-37.673502
813.950200	-37.408689
814.171251	-37.524118
814.392422	-37.548136
814.613714	-37.254362
814.835126	-37.172864
815.056658	-37.644670
815.278311	-37.804067
815.500084	-37.379275
815.721978	-37.038833
815.943993	-37.067550
816.166128	-36.988507
816.388385	-36.990272
816.610762	-37.142637
816.833261	-37.112748
817.055881	-36.815163
817.278623	-36.990488
817.501486	-37.321998
817.724471	-36.974353
817.947577	-36.314512
818.170805	-36.393172
818.394155	-36.856314
818.617627	-36.908166
818.841221	-36.594682
819.064937	-36.576528
819.288775	-36.655137
819.512736	-36.673079
819.736819	-36.553832
819.961025	-36.273514
820.185354	-36.004996
820.409805	-36.292064
820.634379	-36.774069
820.859076	-36.555229
821.083897	-36.006756
821.308840	-36.120065
821.533907	-36.515078
821.759097	-36.292000
821.984411	-35.802561
822.209848	-35.820290
822.435409	-36.146898
822.661093	-36.320066
822.886902	-36.184749
823.112834	-35.888418
823.338891	-35.766241
823.565072	-36.008225
823.791377	-36.051898
824.017807	-35.563302
824.244361	-35.443808
824.471039	-36.057026
824.697843	-36.278412
824.924771	-35.558992
825.151824	-35.315678
825.379002	-35.818520
825.606306	-35.941343
825.833734	-35.391078
826.061288	-35.282408
826.288967	-35.609653
826.516772	-35.740631
826.744703	-35.593124
826.972759	-35.511229
827.200941	-35.347560
827.429249	-35.293792
827.657683	-35.411742
827.886243	-35.420840
828.114930	-35.232247
828.343743	-35.323688
828.572682	-35.485969
828.801748	-35.361975
829.030941	-35.196140
829.260260	-35.233883
829.489706	-35.135891
829.719280	-35.056508
829.948980	-35.263675
830.178808	-35.342951
830.408763	-35.073400
830.638845	-35.054326
830.869055	-35.275586
831.099393	-35.082731
831.329858	-34.832285
831.560451	-35.009512
831.791173	-35.176100
832.022022	-34.948144
832.252999	-34.971471
832.484105	-35.168503
832.715339	-35.013104
832.946702	-34.729748
833.178193	-34.848811
833.409813	-34.959812
833.641561	-34.906249
833.873439	-34.897705
834.105445	-34.923102
834.337581	-34.801665
834.569846	-34.843821
834.802241	-34.885294
835.034764	-34.689048
835.267418	-34.636159
835.500201	-34.891222
835.733114	-34.883606
835.966157	-34.653518
836.199329	-34.765217
836.432632	-34.892631
836.666065	-34.655624
836.899629	-34.542168
837.133323	-34.743922
837.367147	-34.752777
837.601102	-34.686345
837.835188	-34.792580
838.069405	-34.739743
838.303752	-34.544403
838.538231	-34.647673
838.772841	-34.733081
839.007582	-34.518619
839.242455	-34.561420
839.477459	-34.868554
839.712595	-34.741920
839.947863	-34.464158
840.183263	-34.595032
840.418794	-34.717508
840.654458	-34.509645
840.890254	-34.500510
841.126182	-34.700906
841.362242	-34.704991
841.598435	-34.591686
841.834761	-34.566317
842.071220	-34.508618
842.307811	-34.516712
842.544536	-34.580529
842.781393	-34.528555
843.018384	-34.561361
843.255508	-34.714021
843.492765	-34.604988
843.730156	-34.382076
843.967681	-34.499412
844.205339	-34.589666
844.443132	-34.482992
844.681058	-34.586593
844.919118	-34.729391
845.157313	-34.469380
845.395642	-34.411833
845.634105	-34.693634
845.872703	-34.545176
846.111436	-34.286682
846.350303	-34.604702
846.589306	-34.862662
846.828443	-34.487740
847.067716	-34.396134
847.307124	-34.667015
847.546667	-34.593565
847.786345	-34.399244
848.026160	-34.577444
848.266110	-34.739671
848.506195	-34.647643
848.746417	-34.568624
848.986775	-34.519682
849.227269	-34.540092
849.467899	-34.636123
849.708666	-34.587571
849.949569	-34.526864
850.190609	-34.753985
850.431785	-34.813158
850.673099	-34.485764
850.914549	-34.406321
851.156137	-34.667436
851.397861	-34.742220
851.639723	-34.654714
851.881723	-34.660127
852.123860	-34.681437
852.366135	-34.696850
852.608547	-34.603729
852.851098	-34.438128
853.093786	-34.628104
853.336613	-34.990225
853.579578	-34.726478
853.822681	-34.419641
854.065923	-34.726748
854.309304	-34.841183
854.552823	-34.442444
854.796481	-34.555586
855.040278	-35.006055
855.284215	-34.809880
855.528290	-34.549679
855.772505	-34.697155
856.016859	-34.706023
856.261353	-34.603827
856.505987	-34.771061
856.750760	-34.826892
856.995673	-34.737947
857.240727	-34.806367
857.485920	-34.714408
857.731254	-34.567485
857.976729	-34.757470
858.222343	-34.926501
858.468099	-34.778661
858.713995	-34.789987
858.960032	-34.880420
859.206211	-34.738744
859.452530	-34.686020
859.698991	-34.768995
859.945593	-34.863634
860.192336	-34.997568
860.439222	-34.914029
860.686248	-34.644467
860.933417	-34.752622
861.180728	-34.974702
861.428181	-34.792141
861.675776	-34.791790
861.923514	-35.060712
862.171394	-34.961431
862.419417	-34.731952
862.667582	-34.759993
862.915890	-34.798052
863.164342	-34.931177
863.412936	-35.078780
863.661674	-34.798579
863.910555	-34.705854
864.159579	-35.007188
864.408747	-34.834935
864.658059	-34.559269
864.907515	-34.964754
865.157114	-35.218392
865.406858	-34.773475
865.656746	-34.631078
865.906778	-34.812234
866.156955	-34.866036
866.407277	-34.903753
866.657743	-34.843242
866.908354	-34.812188
867.159110	-34.973781
867.410011	-34.782691
867.661057	-34.478810
867.912249	-34.870742
868.163586	-35.219407
868.415069	-34.740173
868.666697	-34.617257
868.918472	-34.971489
869.170392	-34.842382
869.422458	-34.591609
869.674671	-34.815308
869.927030	-35.080759
870.179536	-34.926094
870.432188	-34.569980
870.684987	-34.592696
870.937933	-34.991640
871.191026	-34.875228
871.444266	-34.579597
871.697653	-34.951690
871.951188	-35.008882
872.204870	-34.428680
872.458700	-34.583962
872.712677	-35.060222
872.966803	-34.731704
873.221076	-34.641182
873.475498	-34.922131
873.730068	-34.595084
873.984787	-34.437391
874.239654	-34.806516
874.494669	-34.828083
874.749834	-34.613040
875.005147	-34.616917
875.260610	-34.669835
875.516222	-34.601870
875.771983	-34.431101
876.027894	-34.559521
876.283954	-34.946807
876.540164	-34.592970
876.796524	-34.118371
877.053033	-34.577710
877.309693	-34.755420
877.566503	-34.210375
877.823464	-34.510435
878.080575	-34.835024
878.337837	-34.171317
878.595249	-34.138603
878.852813	-34.656762
879.110528	-34.443907
879.368393	-34.234685
879.626410	-34.484249
879.884579	-34.400675
880.142899	-34.083744
880.401371	-34.144732
880.659994	-34.478686
880.918770	-34.437441
881.177698	-34.031704
881.436778	-34.112997
881.696010	-34.367499
881.955395	-34.004076
882.214933	-34.034248
882.474623	-34.496805
882.734467	-34.057692
882.994463	-33.762462
883.254613	-34.203292
883.514916	-34.048892
883.775372	-33.787014
884.035982	-34.152299
884.296746	-34.073557
884.557664	-33.692282
884.818735	-33.730308
885.079961	-33.855618
885.341341	-33.978348
885.602876	-33.843430
885.864565	-33.502945
886.126409	-33.690646
886.388407	-33.784715
886.650561	-33.370326
886.912870	-33.557221
887.175334	-33.836813
887.437953	-33.326393
887.700728	-33.176509
887.963658	-33.465013
888.226745	-33.390374
888.489987	-33.277254
888.753385	-33.297500
889.016940	-33.187591
889.280651	-33.014222
889.544518	-32.990262
889.808543	-33.219132
890.072723	-33.126445
890.337061	-32.728903
890.601556	-32.899105
890.866208	-33.002121
891.131017	-32.573525
891.395984	-32.795713
891.661109	-33.056151
891.926391	-32.465752
892.191831	-32.452397
892.457429	-32.790864
892.723186	-32.466448
892.989100	-32.457098
893.255173	-32.647674
893.521405	-32.299666
893.787796	-32.211840
894.054345	-32.389416
894.321053	-32.335364
894.587921	-32.277880
894.854948	-32.167415
895.122134	-32.095508
895.389480	-32.116774
895.656986	-32.026015
895.924651	-32.112028
896.192477	-32.095552
896.460463	-31.777693
896.728609	-31.865026
896.996915	-31.961999
897.265382	-31.730900
897.534010	-31.863088
897.802799	-31.843522
898.071749	-31.508362
898.340860	-31.636812
898.610132	-31.729393
898.879566	-31.561301
899.149162	-31.576116
899.418919	-31.445836
899.688838	-31.350328
899.958919	-31.437767
900.229162	-31.371382
900.499568	-31.383469
900.770136	-31.268889
901.040867	-31.057696
901.311761	-31.260049
901.582817	-31.228229
901.854037	-30.986306
902.125420	-31.155759
902.396966	-31.011765
902.668676	-30.785092
902.940550	-31.020945
903.212587	-30.955211
903.484788	-30.785799
903.757153	-30.823405
904.029683	-30.675882
904.302377	-30.713154
904.575236	-30.769687
904.848259	-30.594493
905.121447	-30.625966
905.394800	-30.515722
905.668319	-30.384889
905.942002	-30.579505
906.215852	-30.482629
906.489866	-30.303776
906.764047	-30.317112
907.038393	-30.248421
907.312906	-30.321150
907.587584	-30.246775
907.862429	-30.081422
908.137441	-30.203773
908.412619	-30.014659
908.687964	-29.921449
908.963476	-30.198300
909.239155	-29.929759
909.515002	-29.754275
909.791015	-29.944592
910.067197	-29.792704
910.343546	-29.785202
910.620063	-29.810799
910.896748	-29.611780
911.173601	-29.647397
911.450623	-29.575426
911.727813	-29.556011
912.005171	-29.650629
912.282699	-29.349216
912.560395	-29.349033
912.838261	-29.502972
913.116296	-29.263864
913.394500	-29.315813
913.672874	-29.305909
913.951418	-29.064148
914.230131	-29.163978
914.509015	-29.153002
914.788068	-29.046204
915.067292	-29.020168
915.346687	-28.877355
915.626252	-28.925552
915.905988	-28.911899
916.185895	-28.793581
916.465973	-28.815718
916.746223	-28.663068
917.026644	-28.652928
917.307236	-28.704864
917.588000	-28.551294
917.868937	-28.598051
918.150045	-28.444860
918.431325	-28.351937
918.712778	-28.593708
918.994404	-28.318255
919.276202	-28.231035
919.558173	-28.425459
919.840317	-28.102729
920.122634	-28.183643
920.405125	-28.330608
920.687789	-27.964990
920.970627	-28.032286
921.253639	-28.087244
921.536824	-27.936126
921.820184	-28.010798
922.103718	-27.864643
922.387427	-27.786909
922.671310	-27.863117
922.955368	-27.771537
923.239601	-27.742936
923.524009	-27.677552
923.808592	-27.616209
924.093351	-27.609315
924.378285	-27.603498
924.663396	-27.613469
924.948682	-27.408486
925.234144	-27.442606
925.519782	-27.568788
925.805597	-27.303525
926.091589	-27.404909
926.377757	-27.423079
926.664102	-27.142135
926.950624	-27.389198
927.237323	-27.340283
927.524200	-27.103900
927.811255	-27.279657
928.098487	-27.144766
928.385897	-27.118614
928.673485	-27.220768
928.961251	-27.013226
929.249196	-27.036910
929.537319	-27.054790
929.825621	-26.996128
930.114102	-27.008956
930.402762	-26.893606
930.691601	-26.898593
930.980620	-26.868984
931.269818	-26.845240
931.559196	-26.845885
931.848753	-26.665564
932.138491	-26.741886
932.428409	-26.747495
932.718508	-26.602370
933.008787	-26.679296
933.299246	-26.541187
933.589887	-26.521815
933.880709	-26.594609
934.171712	-26.431741
934.462896	-26.466197
934.754262	-26.381594
935.045810	-26.353627
935.337539	-26.459200
935.629451	-26.253938
935.921545	-26.289559
936.213822	-26.305506
936.506281	-26.183265
936.798922	-26.288344
937.091747	-26.146421
937.384755	-26.107361
937.677946	-26.184849
937.971321	-26.083284
938.264879	-26.120502
938.558621	-26.036735
938.852547	-26.006983
939.146657	-26.050363
939.440952	-25.972108
939.735431	-25.982457
940.030095	-25.864374
940.324943	-25.910369
940.619977	-25.947548
940.915196	-25.777750
941.210600	-25.876965
941.506189	-25.767484
941.801965	-25.734323
942.097926	-25.846174
942.394074	-25.608512
942.690407	-25.671369
942.986927	-25.680444
943.283634	-25.563551
943.580527	-25.644192
943.877608	-25.492274
944.174875	-25.512853
944.472330	-25.517744
944.769972	-25.410332
945.067802	-25.445858
945.365820	-25.304154
945.664026	-25.348334
945.962420	-25.347694
946.261002	-25.211147
946.559773	-25.259028
946.858733	-25.167449
947.157881	-25.172238
947.457219	-25.147483
947.756746	-25.032992
948.056462	-25.048069
948.356368	-25.002186
948.656464	-25.002075
948.956749	-24.907703
949.257225	-24.902285
949.557891	-24.898964
949.858748	-24.784061
950.159796	-24.882983
950.461034	-24.696253
950.762463	-24.691098
951.064084	-24.816569
951.365896	-24.556661
951.667900	-24.690145
951.970095	-24.630238
952.272483	-24.497460
952.575063	-24.673909
952.877835	-24.449407
953.180799	-24.470180
953.483956	-24.529691
953.787307	-24.378248
954.090850	-24.460421
954.394586	-24.379758
954.698516	-24.344929
955.002640	-24.389533
955.306957	-24.317578
955.611469	-24.271944
955.916174	-24.279448
956.221074	-24.264418
956.526169	-24.201309
956.831458	-24.250509
957.136942	-24.151465
957.442622	-24.165739
957.748496	-24.222560
958.054567	-24.030327
958.360833	-24.153151
958.667294	-24.076794
958.973952	-24.003776
959.280806	-24.135228
959.587857	-23.921543
959.895104	-24.039679
960.202548	-24.027191
960.510189	-23.869688
960.818027	-24.010040
961.126062	-23.863038
961.434295	-23.882979
961.742726	-23.923536
962.051355	-23.791222
962.360182	-23.852978
962.669207	-23.843606
962.978431	-23.770045
963.287854	-23.765203
963.597475	-23.775113
963.907296	-23.686303
964.217315	-23.740779
964.527535	-23.707576
964.837954	-23.603419
965.148573	-23.756551
965.459392	-23.592523
965.770411	-23.597981
966.081630	-23.663575
966.393051	-23.485381
966.704672	-23.632371
967.016494	-23.519062
967.328517	-23.482816
967.640742	-23.578030
967.953169	-23.442914
968.265797	-23.483561
968.578627	-23.432716
968.891660	-23.417589
969.204895	-23.408299
969.518332	-23.371500
969.831972	-23.368065
970.145816	-23.333687
970.459862	-23.361688
970.774112	-23.259865
971.088565	-23.287812
971.403223	-23.259044
971.718084	-23.204242
972.033149	-23.241489
972.348419	-23.150974
972.663893	-23.203733
972.979572	-23.149100
973.295456	-23.108000
973.611546	-23.107901
973.927840	-23.065961
974.244340	-23.068067
974.561046	-23.007607
974.877958	-23.041235
975.195076	-22.977681
975.512401	-22.997657
975.829932	-22.940748
976.147670	-22.896017
976.465615	-22.955749
976.783767	-22.822543
977.102126	-22.903281
977.420693	-22.825323
977.739468	-22.826759
978.058451	-22.843827
978.377642	-22.715596
978.697041	-22.819352
979.016649	-22.695118
979.336466	-22.734862
979.656492	-22.709039
979.976727	-22.659544
980.297171	-22.729040
980.617825	-22.598690
980.938689	-22.664321
981.259763	-22.597572
981.581048	-22.595642
981.902542	-22.600507
982.224248	-22.539852
982.546164	-22.605432
982.868291	-22.531101
983.190630	-22.535131
983.513180	-22.525347
983.835942	-22.498956
984.158916	-22.502402
984.482101	-22.493589
984.805500	-22.469894
985.129110	-22.509569
985.452934	-22.458524
985.776970	-22.434743
986.101220	-22.494950
986.425683	-22.381700
986.750359	-22.486596
987.075250	-22.400379
987.400354	-22.426646
987.725673	-22.475092
988.051206	-22.329370
988.376954	-22.479700
988.702916	-22.337265
989.029094	-22.402099
989.355487	-22.395004
989.682095	-22.333247
990.008919	-22.429864
990.335959	-22.298735
990.663216	-22.377774
990.990688	-22.305713
991.318377	-22.321562
991.646283	-22.307727
991.974406	-22.277826
992.302746	-22.314342
992.631304	-22.236789
992.960079	-22.272208
993.289072	-22.202297
993.618283	-22.228006
993.947713	-22.181391
994.277361	-22.172685
994.607227	-22.178332
994.937313	-22.123342
995.267618	-22.129865
995.598142	-22.077194
995.928886	-22.078035
996.259849	-22.045016
996.591033	-22.025170
996.922437	-22.013281
997.254061	-22.002776
997.585906	-21.935316
997.917972	-21.965641
998.250260	-21.892356
998.582768	-21.893474
998.915498	-21.892391
999.248450	-21.811168
999.581624	-21.899504
999.915020	-21.740265
1000.248639	-21.833806
1000.582480	-21.744181
1000.916545	-21.723508
1001.250832	-21.771875
1001.585343	-21.649360
1001.920077	-21.755638
1002.255035	-21.618832
1002.590218	-21.677197
1002.925624	-21.617064
1003.261255	-21.613522
1003.597111	-21.603711
1003.933192	-21.579298
1004.269497	-21.594833
1004.606029	-21.523531
1004.942785	-21.575917
1005.279768	-21.481059
1005.616977	-21.554201
1005.954412	-21.469319
1006.292074	-21.514632
1006.629962	-21.494487
1006.968077	-21.444084
1007.306420	-21.494576
1007.644990	-21.417212
1007.983787	-21.466152
1008.322813	-21.427276
1008.662067	-21.437274
1009.001549	-21.435992
1009.341259	-21.404890
1009.681199	-21.402679
1010.021367	-21.415664
1010.361765	-21.359844
1010.702392	-21.430743
1011.043250	-21.352528
1011.384337	-21.401852
1011.725654	-21.359637
1012.067202	-21.335475
1012.408980	-21.393997
1012.750989	-21.283343
1013.093230	-21.409065
1013.435702	-21.273597
1013.778405	-21.370795
1014.121341	-21.272259
1014.464508	-21.308283
1014.807908	-21.297557
1015.151540	-21.254855
1015.495405	-21.310243
1015.839503	-21.222822
1016.183835	-21.285964
1016.528400	-21.179294
1016.873198	-21.262838
1017.218231	-21.160789
1017.563498	-21.226570
1017.908999	-21.154226
1018.254735	-21.174948
1018.600707	-21.126403
1018.946913	-21.112100
1019.293354	-21.116910
1019.640032	-21.061530
1019.986945	-21.098194
1020.334094	-21.015986
1020.681480	-21.054972
1021.029102	-20.960387
1021.376961	-21.013748
1021.725058	-20.929186
1022.073391	-20.969778
1022.421962	-20.896392
1022.770772	-20.914307
1023.119819	-20.848110
1023.469104	-20.857456
1023.818628	-20.819384
1024.168391	-20.813299
1024.518393	-20.782911
1024.868634	-20.761450
1025.219115	-20.740525
1025.569836	-20.696894
1025.920796	-20.720039
1026.271997	-20.647096
1026.623438	-20.699906
1026.975121	-20.585421
1027.327044	-20.673322
1027.679208	-20.528425
1028.031614	-20.639779
1028.384262	-20.511047
1028.737152	-20.593652
1029.090284	-20.493782
1029.443659	-20.533681
1029.797276	-20.481725
1030.151137	-20.477141
1030.505240	-20.489579
1030.859587	-20.430263
1031.214178	-20.481548
1031.569013	-20.381875
1031.924093	-20.469005
1032.279417	-20.347209
1032.634985	-20.461626
1032.990799	-20.331122
1033.346858	-20.433550
1033.703162	-20.314766
1034.059712	-20.397884
1034.416509	-20.315867
1034.773551	-20.365331
1035.130841	-20.323603
1035.488377	-20.330329
1035.846160	-20.309625
1036.204190	-20.308351
1036.562468	-20.296836
1036.920994	-20.299546
1037.279768	-20.277337
1037.638790	-20.288215
1037.998061	-20.246040
1038.357581	-20.271636
1038.717350	-20.238039
1039.077368	-20.242730
1039.437636	-20.238060
1039.798154	-20.197013
1040.158922	-20.232491
1040.519940	-20.152299
1040.881209	-20.236007
1041.242729	-20.109835
1041.604501	-20.225872
1041.966524	-20.066582
1042.328798	-20.198428
1042.691325	-20.038625
1043.054103	-20.167503
1043.417135	-20.018506
1043.780419	-20.115689
1044.143956	-19.995987
1044.507746	-20.061516
1044.871791	-19.977474
1045.236088	-20.013687
1045.600641	-19.955475
1045.965447	-19.953552
1046.330508	-19.924016
1046.695824	-19.905914
1047.061395	-19.890450
1047.427222	-19.867234
1047.793304	-19.848027
1048.159642	-19.818023
1048.526237	-19.805239
1048.893088	-19.779969
1049.260196	-19.764442
1049.627561	-19.745390
1049.995183	-19.715258
1050.363063	-19.701598
1050.731201	-19.676666
1051.099597	-19.663762
1051.468251	-19.645715
1051.837164	-19.619101
1052.206336	-19.611278
1052.575767	-19.569574
1052.945458	-19.590922
1053.315409	-19.527744
1053.685619	-19.570574
1054.056090	-19.478983
1054.426821	-19.546114
1054.797814	-19.437397
1055.169067	-19.529589
1055.540582	-19.407852
1055.912359	-19.498252
1056.284398	-19.378958
1056.656698	-19.462859
1057.029262	-19.362827
1057.402088	-19.435282
1057.775177	-19.345776
1058.148530	-19.396361
1058.522146	-19.325033
1058.896027	-19.366566
1059.270171	-19.308957
1059.644580	-19.345316
1060.019254	-19.278725
1060.394193	-19.316149
1060.769397	-19.249648
1061.144867	-19.296272
1061.520602	-19.223034
1061.896604	-19.272355
1062.272872	-19.180565
1062.649407	-19.243743
1063.026210	-19.147210
1063.403279	-19.217656
1063.780616	-19.112772
1064.158221	-19.175051
1064.536094	-19.070158
1064.914235	-19.133836
1065.292645	-19.038212
1065.671325	-19.089109
1066.050273	-18.994610
1066.429491	-19.032678
1066.808979	-18.948991
1067.188738	-18.986156
1067.568766	-18.906517
1067.949066	-18.928013
1068.329636	-18.851648
1068.710478	-18.866621
1069.091592	-18.803608
1069.472977	-18.814895
1069.854635	-18.746143
1070.236565	-18.749914
1070.618768	-18.684556
1071.001243	-18.692243
1071.383993	-18.634471
1071.767016	-18.630811
1072.150313	-18.572291
1072.533884	-18.563615
1072.917730	-18.520060
1073.301850	-18.508327
1073.686246	-18.471164
1074.070917	-18.442114
1074.455864	-18.416895
1074.841087	-18.385923
1075.226586	-18.378670
1075.612362	-18.334667
1075.998415	-18.332503
1076.384745	-18.277798
1076.771353	-18.295869
1077.158238	-18.239098
1077.545401	-18.265162
1077.932843	-18.193063
1078.320564	-18.228159
1078.708564	-18.155531
1079.096842	-18.207975
1079.485401	-18.126048
1079.874240	-18.177370
1080.263358	-18.092366
1080.652757	-18.152365
1081.042438	-18.076953
1081.432399	-18.131416
1081.822641	-18.053864
1082.213166	-18.101869
1082.603972	-18.040815
1082.995061	-18.085404
1083.386433	-18.033689
1083.778087	-18.057439
1084.170025	-18.019504
1084.562246	-18.038622
1084.954751	-18.018519
1085.347541	-18.021191
1085.740615	-18.005182
1086.133973	-17.995207
1086.527617	-18.000893
1086.921546	-17.980102
1087.315761	-17.992558
1087.710262	-17.950357
1088.105050	-17.975219
1088.500124	-17.928282
1088.895485	-17.964920
1089.291134	-17.896961
1089.687070	-17.936334
1090.083294	-17.859216
1090.479806	-17.912693
1090.876607	-17.828089
1091.273696	-17.872234
1091.671075	-17.782695
1092.068744	-17.825470
1092.466702	-17.747907
1092.864950	-17.777500
1093.263489	-17.700460
1093.662319	-17.712893
1094.061440	-17.658783
1094.460852	-17.656084
1094.860555	-17.616780
1095.260551	-17.584071
1095.660840	-17.566384
1096.061421	-17.523387
1096.462295	-17.523041
1096.863462	-17.460077
1097.264923	-17.463432
1097.666678	-17.399006
1098.068727	-17.413406
1098.471071	-17.347652
1098.873710	-17.348997
1099.276644	-17.290215
1099.679874	-17.286306
1100.083400	-17.249179
1100.487222	-17.221116
1100.891340	-17.196389
1101.295756	-17.151357
1101.700468	-17.154886
1102.105478	-17.093189
1102.510787	-17.105488
1102.916393	-17.026637
1103.322298	-17.058083
1103.728502	-16.979190
1104.135005	-17.011937
1104.541807	-16.926479
1104.948909	-16.958000
1105.356312	-16.892783
1105.764015	-16.915038
1106.172019	-16.860698
1106.580324	-16.861254
1106.988931	-16.837720
1107.397840	-16.826490
1107.807051	-16.822311
1108.216564	-16.784338
1108.626380	-16.802096
1109.036500	-16.761070
1109.446923	-16.792909
1109.857649	-16.738309
1110.268680	-16.765964
1110.680016	-16.726997
1111.091657	-16.750258
1111.503602	-16.722604
1111.915854	-16.714333
1112.328411	-16.712664
1112.741275	-16.689970
1113.154445	-16.709984
1113.567922	-16.654348
1113.981706	-16.683637
1114.395798	-16.627239
1114.810198	-16.663771
1115.224906	-16.600972
1115.639923	-16.614138
1116.055249	-16.572993
1116.470884	-16.573880
1116.886829	-16.553809
1117.303084	-16.514433
1117.719650	-16.517223
1118.136526	-16.469892
1118.553713	-16.492235
1118.971212	-16.424226
1119.389022	-16.441002
1119.807145	-16.390725
1120.225580	-16.406965
1120.644328	-16.368775
1121.063389	-16.351669
1121.482763	-16.345168
1121.902452	-16.321079
1122.322454	-16.337036
1122.742771	-16.282947
1123.163404	-16.310329
1123.584351	-16.270123
1124.005614	-16.300861
1124.427193	-16.259883
1124.849089	-16.264678
1125.271301	-16.261187
1125.693830	-16.252801
1126.116677	-16.264073
1126.539842	-16.219891
1126.963324	-16.253756
1127.387126	-16.218434
1127.811246	-16.243007
1128.235685	-16.200268
1128.660444	-16.205092
1129.085522	-16.203096
1129.510922	-16.179963
1129.936641	-16.181311
1130.362682	-16.130918
1130.789044	-16.159259
1131.215728	-16.110649
1131.642734	-16.111714
1132.070063	-16.066313
1132.497714	-16.057748
1132.925689	-16.049244
1133.353987	-15.997954
1133.782610	-15.995557
1134.211556	-15.940034
1134.640827	-15.959479
1135.070424	-15.895924
1135.500345	-15.884053
1135.930593	-15.850938
1136.361166	-15.831780
1136.792067	-15.819556
1137.223294	-15.756726
1137.654848	-15.770512
1138.086730	-15.719502
1138.518940	-15.729749
1138.951479	-15.671876
1139.384346	-15.665847
1139.817543	-15.658387
1140.251069	-15.622236
1140.684925	-15.622652
1141.119111	-15.568895
1141.553628	-15.601147
1141.988475	-15.551488
1142.423655	-15.547487
1142.859166	-15.524214
1143.295009	-15.510695
1143.731185	-15.519436
1144.167694	-15.458924
1144.604536	-15.481152
1145.041711	-15.440873
1145.479221	-15.449653
1145.917065	-15.411477
1146.355245	-15.386381
1146.793759	-15.401028
1147.232609	-15.347449
1147.671795	-15.353616
1148.111317	-15.297111
1148.551177	-15.309194
1148.991373	-15.274978
1149.431907	-15.230488
1149.872779	-15.228647
1150.313989	-15.177652
1150.755538	-15.184586
1151.197426	-15.111959
1151.639653	-15.104332
1152.082220	-15.079721
1152.525128	-15.031891
1152.968376	-15.016477
1153.411966	-14.953356
1153.855897	-14.964631
1154.300169	-14.900549
1154.744784	-14.871481
1155.189742	-14.847814
1155.635042	-14.805053
1156.080687	-14.797616
1156.526674	-14.722994
1156.973007	-14.732183
1157.419683	-14.687665
1157.866705	-14.656130
1158.314072	-14.636419
1158.761786	-14.588266
1159.209845	-14.606967
1159.658251	-14.534118
1160.107004	-14.537257
1160.556104	-14.512851
1161.005553	-14.484863
1161.455349	-14.484331
1161.905494	-14.424623
1162.355989	-14.461335
1162.806832	-14.407694
1163.258026	-14.401938
1163.709570	-14.397331
1164.161464	-14.361732
1164.613710	-14.393813
1165.066307	-14.322215
1165.519256	-14.358413
1165.972558	-14.338400
1166.426212	-14.306852
1166.880219	-14.336100
1167.334580	-14.277136
1167.789295	-14.326842
1168.244364	-14.275169
1168.699788	-14.270008
1169.155567	-14.299270
1169.611702	-14.237413
1170.068193	-14.283031
1170.525041	-14.227102
1170.982245	-14.250039
1171.439807	-14.248643
1171.897726	-14.191871
1172.356004	-14.250085
1172.814640	-14.186845
1173.273635	-14.209523
1173.732989	-14.192457
1174.192703	-14.162994
1174.652778	-14.206578
1175.113213	-14.128780
1175.574009	-14.172209
1176.035167	-14.143345
1176.496687	-14.120729
1176.958569	-14.148006
1177.420814	-14.078283
1177.883422	-14.137595
1178.346394	-14.077095
1178.809730	-14.067469
1179.273430	-14.104741
1179.737496	-14.022071
1180.201927	-14.077766
1180.666723	-14.022039
1181.131886	-14.018124
1181.597416	-14.044814
1182.063312	-13.959966
1182.529576	-14.021231
1182.996209	-13.971810
1183.463209	-13.951201
1183.930579	-13.978016
1184.398317	-13.916053
1184.866426	-13.950064
1185.334904	-13.906820
1185.803754	-13.896020
1186.272974	-13.909941
1186.742566	-13.860268
1187.212529	-13.873998
1187.682865	-13.847227
1188.153574	-13.844611
1188.624656	-13.822632
1189.096112	-13.804260
1189.567942	-13.819707
1190.040147	-13.764462
1190.512726	-13.784304
1190.985681	-13.763878
1191.459012	-13.729667
1191.932720	-13.758176
1192.406804	-13.699583
1192.881265	-13.712504
1193.356104	-13.712594
1193.831322	-13.653204
1194.306918	-13.687302
1194.782893	-13.662919
1195.259248	-13.621493
1195.735982	-13.648720
1196.213097	-13.620089
1196.690593	-13.590478
1197.168471	-13.609812
1197.646730	-13.577797
1198.125371	-13.559052
1198.604395	-13.575770
1199.083803	-13.531067
1199.563594	-13.532148
1200.043769	-13.540111
1200.524329	-13.486747
1201.005273	-13.506358
1201.486604	-13.500673
1201.968320	-13.450660
1202.450422	-13.476001
1202.932912	-13.462012
1203.415789	-13.419829
1203.899054	-13.443115
1204.382707	-13.425284
1204.866748	-13.390026
1205.351179	-13.413440
1205.836000	-13.386636
1206.321211	-13.363049
1206.806812	-13.387450
1207.292805	-13.345230
1207.779189	-13.341928
1208.265965	-13.360882
1208.753134	-13.305560
1209.240696	-13.325712
1209.728651	-13.330678
1210.217000	-13.272911
1210.705744	-13.310378
1211.194883	-13.297347
1211.684417	-13.249073
1212.174347	-13.292790
1212.664673	-13.262484
1213.155396	-13.233363
1213.646516	-13.270970
1214.138034	-13.228405
1214.629951	-13.222942
1215.122266	-13.244258
1215.614980	-13.196842
1216.108095	-13.214302
1216.601609	-13.212407
1217.095524	-13.169672
1217.589841	-13.202522
1218.084559	-13.176877
1218.579679	-13.146991
1219.075202	-13.183424
1219.571128	-13.139992
1220.067458	-13.127176
1220.564191	-13.154337
1221.061330	-13.104392
1221.558874	-13.106631
1222.056823	-13.115754
1222.555178	-13.071288
1223.053940	-13.081557
1223.553109	-13.070354
1224.052686	-13.040077
1224.552671	-13.049186
1225.053065	-13.021721
1225.553867	-13.008566
1226.055079	-13.008904
1226.556702	-12.973211
1227.058735	-12.974161
1227.561179	-12.962325
1228.064035	-12.926535
1228.567303	-12.934876
1229.070983	-12.912056
1229.575077	-12.881760
1230.079585	-12.890065
1230.584506	-12.860821
1231.089842	-12.837942
1231.595594	-12.840453
1232.101761	-12.810468
1232.608345	-12.793637
1233.115345	-12.787759
1233.622762	-12.761802
1234.130597	-12.748039
1234.638851	-12.734026
1235.147523	-12.714830
1235.656615	-12.700869
1236.166126	-12.680916
1236.676058	-12.669036
1237.186411	-12.652614
1237.697185	-12.629389
1238.208381	-12.624026
1238.719999	-12.603866
1239.232040	-12.579967
1239.744505	-12.579556
1240.257394	-12.555415
1240.770708	-12.532809
1241.284446	-12.535751
1241.798610	-12.508105
1242.313201	-12.488124
1242.828218	-12.493162
1243.343662	-12.462722
1243.859534	-12.446302
1244.375834	-12.452377
1244.892563	-12.420010
1245.409721	-12.407861
1245.927309	-12.414243
1246.445327	-12.381007
1246.963777	-12.373488
1247.482657	-12.379591
1248.001970	-12.346420
1248.521716	-12.343706
1249.041894	-12.349279
1249.562506	-12.316997
1250.083553	-12.319262
1250.605034	-12.324070
1251.126950	-12.293428
1251.649302	-12.300562
1252.172091	-12.304764
1252.695316	-12.276194
1253.218979	-12.288025
1253.743079	-12.291869
1254.267619	-12.265500
1254.792597	-12.281666
1255.318015	-12.285469
1255.843874	-12.261311
1256.370173	-12.281380
1256.896913	-12.285504
1257.424095	-12.263414
1257.951720	-12.286887
1258.479787	-12.291531
1259.008298	-12.271356
1259.537254	-12.297716
1260.066654	-12.302840
1260.596499	-12.284484
1261.126790	-12.313101
1261.657527	-12.318592
1262.188711	-12.301952
1262.720342	-12.332376
1263.252422	-12.338083
1263.784950	-12.323311
1264.317928	-12.354722
1264.851355	-12.360714
1265.385232	-12.347815
1265.919560	-12.379313
1266.454340	-12.385680
1266.989572	-12.374947
1267.525256	-12.405197
1268.061394	-12.412346
1268.597985	-12.404227
1269.135031	-12.431692
1269.672531	-12.440186
1270.210487	-12.435070
1270.748899	-12.458231
1271.287768	-12.468527
1271.827094	-12.466730
1272.366877	-12.484227
1272.907119	-12.496919
1273.447820	-12.498350
1273.988981	-12.509253
1274.530601	-12.524747
1275.072683	-12.528737
1275.615226	-12.532521
1276.158230	-12.551061
1276.701697	-12.556543
1277.245627	-12.553364
1277.790021	-12.574732
1278.334879	-12.580493
1278.880202	-12.571341
1279.425991	-12.594368
1279.972245	-12.599304
1280.518966	-12.586062
1281.066155	-12.608510
1281.613811	-12.611722
1282.161936	-12.597058
1282.710529	-12.615722
1283.259593	-12.616890
1283.809126	-12.603684
1284.359131	-12.615158
1284.909607	-12.614611
1285.460555	-12.604998
1286.011976	-12.606589
1286.563870	-12.605319
1287.116237	-12.599784
1287.669080	-12.590337
1288.222397	-12.589586
1288.776191	-12.586823
1289.330460	-12.567570
1289.885207	-12.567925
1290.440431	-12.565306
1290.996133	-12.539924
1291.552314	-12.540478
1292.108975	-12.535228
1292.666115	-12.509000
1293.223737	-12.507059
1293.781839	-12.497583
1294.340424	-12.475524
1294.899491	-12.467390
1295.459041	-12.454205
1296.019075	-12.438921
1296.579593	-12.421950
1297.140597	-12.407265
1297.702086	-12.397824
1298.264061	-12.372312
1298.826524	-12.358353
1299.389474	-12.350683
1299.952912	-12.320571
1300.516839	-12.307741
1301.081255	-12.297054
1301.646162	-12.268604
1302.211559	-12.254602
1302.777448	-12.238361
1303.343829	-12.216927
1303.910702	-12.198319
1304.478069	-12.177675
1305.045930	-12.164426
1305.614285	-12.139649
1306.183136	-12.118163
1306.752483	-12.109132
1307.322326	-12.080819
1307.892666	-12.061412
1308.463504	-12.050143
1309.034841	-12.024337
1309.606677	-12.006955
1310.179012	-11.989187
1310.751849	-11.971508
1311.325186	-11.953368
1311.899025	-11.930566
1312.473366	-11.921004
1313.048211	-11.900331
1313.623559	-11.877972
1314.199412	-11.870487
1314.775770	-11.849314
1315.352634	-11.832072
1315.930004	-11.819299
1316.507881	-11.802627
1317.086266	-11.790054
1317.665159	-11.770224
1318.244562	-11.760736
1318.824474	-11.748618
1319.404897	-11.727533
1319.985831	-11.721655
1320.567276	-11.707575
1321.149234	-11.692773
1321.731706	-11.683466
1322.314691	-11.670008
1322.898190	-11.662946
1323.482205	-11.647359
1324.066736	-11.638708
1324.651783	-11.633718
1325.237347	-11.617191
1325.823430	-11.612796
1326.410031	-11.604468
1326.997151	-11.595178
1327.584791	-11.589309
1328.172952	-11.579235
1328.761634	-11.578391
1329.350839	-11.568022
1329.940566	-11.561786
1330.530817	-11.562023
1331.121592	-11.552215
1331.712891	-11.550814
1332.304716	-11.545770
1332.897068	-11.543715
1333.489946	-11.542026
1334.083352	-11.534729
1334.677287	-11.539191
1335.271750	-11.534322
1335.866744	-11.532239
1336.462268	-11.534181
1337.058323	-11.531199
1337.654910	-11.534712
1338.252029	-11.530216
1338.849682	-11.534330
1339.447869	-11.536495
1340.046591	-11.533317
1340.645848	-11.539627
1341.245641	-11.538653
1341.845972	-11.543841
1342.446840	-11.544269
1343.048246	-11.546779
1343.650191	-11.554670
1344.252677	-11.552655
1344.855702	-11.560455
1345.459269	-11.562982
1346.063379	-11.568658
1346.668030	-11.573860
1347.273226	-11.575454
1347.878965	-11.586675
1348.485250	-11.587440
1349.092080	-11.595490
1349.699456	-11.601044
1350.307380	-11.606996
1350.915851	-11.616040
1351.524871	-11.617657
1352.134441	-11.630118
1352.744560	-11.633910
1353.355231	-11.642242
1353.966453	-11.649897
1354.578227	-11.655994
1355.190555	-11.667865
1355.803436	-11.670297
1356.416872	-11.683074
1357.030863	-11.689111
1357.645411	-11.698344
1358.260515	-11.707419
1358.876177	-11.713596
1359.492397	-11.727444
1360.109176	-11.731074
1360.726516	-11.744089
1361.344416	-11.751024
1361.962877	-11.761628
1362.581901	-11.771649
1363.201487	-11.777887
1363.821637	-11.792622
1364.442352	-11.797495
1365.063632	-11.811279
1365.685478	-11.817880
1366.307891	-11.830010
1366.930871	-11.840653
1367.554420	-11.847714
1368.178538	-11.862315
1368.803226	-11.868168
1369.428485	-11.883501
1370.054315	-11.889168
1370.680717	-11.902843
1371.307693	-11.912884
1371.935242	-11.922130
1372.563366	-11.935343
1373.192065	-11.941828
1373.821341	-11.958130
1374.451193	-11.963165
1375.081623	-11.978157
1375.712632	-11.985774
1376.344221	-11.998366
1376.976389	-12.009095
1377.609139	-12.017221
1378.242470	-12.032089
1378.876384	-12.038120
1379.510881	-12.054101
1380.145963	-12.059331
1380.781629	-12.075084
1381.417881	-12.082965
1382.054720	-12.095438
1382.692147	-12.106520
1383.330161	-12.116040
1383.968765	-12.131089
1384.607959	-12.137510
1385.247743	-12.154223
1385.888119	-12.160353
1386.529087	-12.177269
1387.170648	-12.184403
1387.812804	-12.198863
1388.455554	-12.209292
1389.098899	-12.220882
1389.742842	-12.234333
1390.387381	-12.242528
1391.032519	-12.258917
1391.678256	-12.265435
1392.324592	-12.282551
1392.971529	-12.288494
1393.619068	-12.305045
1394.267208	-12.312563
1394.915952	-12.326556
1395.565300	-12.336261
1396.215253	-12.347373
1396.865812	-12.360114
1397.516977	-12.368059
1398.168749	-12.382875
1398.821130	-12.388846
1399.474120	-12.405227
1400.127719	-12.410142
1400.781930	-12.426165
1401.436752	-12.431662
1402.092186	-12.446727
1402.748234	-12.453615
1403.404897	-12.466172
1404.062174	-12.475314
1404.720067	-12.485766
1405.378577	-12.497337
1406.037705	-12.505035
1406.697451	-12.518663
1407.357817	-12.524929
1408.018803	-12.540245
1408.680410	-12.545094
1409.342639	-12.560801
1410.005492	-12.565658
1410.668968	-12.581461
1411.333068	-12.586667
1411.997795	-12.601152
1412.663147	-12.607596
1413.329127	-12.621030
1413.995736	-12.629183
1414.662973	-12.640628
1415.330840	-12.650527
1415.999339	-12.660649
1416.668469	-12.672601
1417.338232	-12.681024
1418.008628	-12.694252
1418.679659	-12.701636
1419.351325	-12.716291
1420.023628	-12.722734
1420.696568	-12.737796
1421.370145	-12.743780
1422.044362	-12.759516
1422.719219	-12.765613
1423.394717	-12.781272
1424.070856	-12.787797
1424.747638	-12.803650
1425.425064	-12.811223
1426.103134	-12.826866
1426.781850	-12.835303
1427.461212	-12.850620
1428.141221	-12.860111
1428.821878	-12.874765
1429.503185	-12.884847
1430.185141	-12.898563
1430.867749	-12.909309
1431.551008	-12.922112
1432.234920	-12.933330
1432.919486	-12.945430
1433.604707	-12.957606
1434.290583	-12.969617
1434.977116	-12.982848
1435.664307	-12.994916
1436.352156	-13.009458
1437.040664	-13.022135
1437.729833	-13.037844
1438.419663	-13.050387
1439.110156	-13.066409
1439.801312	-13.078633
1440.493132	-13.094607
1441.185617	-13.105661
1441.878768	-13.120399
1442.572586	-13.129930
1443.267072	-13.143862
1443.962228	-13.152541
1444.658053	-13.165688
1445.354549	-13.173768
1446.051717	-13.187283
1446.749558	-13.196423
1447.448073	-13.211347
1448.147263	-13.221856
1448.847128	-13.238194
1449.547671	-13.250470
1450.248891	-13.268316
1450.950789	-13.281403
1451.653368	-13.298847
1452.356627	-13.311073
1453.060568	-13.326854
1453.765192	-13.336933
1454.470500	-13.349224
1455.176492	-13.355501
1455.883170	-13.363702
1456.590534	-13.366810
1457.298586	-13.371829
1458.007327	-13.372763
1458.716758	-13.376025
1459.426880	-13.377252
1460.137693	-13.381746
1460.849199	-13.385978
1461.561398	-13.393592
1462.274293	-13.402305
1462.987883	-13.414265
1463.702170	-13.428060
1464.417155	-13.443664
1465.132838	-13.460610
1465.849222	-13.477105
1466.566306	-13.493922
1467.284093	-13.507469
1468.002582	-13.519759
1468.721775	-13.525822
1469.441674	-13.529587
1470.162278	-13.525139
1470.883590	-13.518199
1471.605609	-13.502271
1472.328338	-13.485041
1473.051777	-13.459773
1473.775928	-13.435588
1474.500790	-13.405334
1475.226367	-13.378949
1475.952657	-13.349075
1476.679663	-13.325696
1477.407386	-13.301218
1478.135826	-13.284424
1478.864985	-13.267866
1479.594863	-13.258488
1480.325463	-13.249560
1481.056784	-13.245187
1481.788828	-13.239742
1482.521597	-13.234250
1483.255090	-13.224889
1483.989309	-13.209711
1484.724256	-13.187152
1485.459931	-13.152541
1486.196336	-13.107256
1486.933471	-13.045168
1487.671337	-12.970794
1488.409937	-12.877845
1489.149270	-12.773345
1489.889337	-12.651975
1490.630141	-12.522588
1491.371682	-12.381466
1492.113961	-12.237513
1492.856979	-12.088601
1493.600738	-11.941906
1494.345238	-11.797207
1495.090481	-11.658912
1495.836467	-11.528443
1496.583198	-11.406830
1497.330675	-11.297102
1498.078899	-11.197208
1498.827872	-11.111529
1499.577593	-11.035848
1500.328065	-10.974956
1501.079289	-10.923439
1501.831265	-10.885385
1502.583995	-10.855452
1503.337480	-10.835612
1504.091721	-10.821444
1504.846719	-10.811672
1505.602475	-10.803064
1506.358991	-10.790812
1507.116268	-10.773175
1507.874306	-10.742569
1508.633108	-10.698795
1509.392673	-10.633822
1510.153004	-10.549342
1510.914101	-10.440002
1511.675965	-10.309743
1512.438599	-10.158294
1513.202002	-9.991380
1513.966176	-9.814158
1514.731122	-9.632702
1515.496842	-9.455758
1516.263336	-9.288255
1517.030607	-9.140039
1517.798654	-9.014591
1518.567479	-8.920884
1519.337083	-8.861833
1520.107468	-8.844490
1520.878634	-8.872639
1521.650584	-8.951478
1522.423317	-9.087134
1523.196836	-9.284037
1523.971141	-9.551594
1524.746233	-9.895641
1525.522115	-10.329605
1526.298786	-10.864174
1527.076249	-11.517627
1527.854504	-12.310138
1528.633553	-13.266554
1529.413397	-14.419914
1530.194037	-15.796197
1530.975474	-17.406964
1531.757709	-19.147319
1532.540745	-20.597614
1533.324581	-20.928760
1534.109220	-19.834556
1534.894662	-18.071651
1535.680909	-16.298635
1536.467961	-14.741391
1537.255821	-13.436017
1538.044489	-12.357946
1538.833967	-11.482292
1539.624256	-10.781153
1540.415357	-10.234233
1541.207271	-9.825709
1542.000000	-9.539867
1542.793545	-9.367651
1543.587907	-9.296283
1544.383087	-9.317599
1545.179088	-9.421103
1545.975909	-9.594925
1546.773552	-9.828478
1547.572019	-10.104238
1548.371311	-10.407013
1549.171428	-10.715112
1549.972373	-11.006015
1550.774147	-11.259356
1551.576751	-11.452510
1552.380185	-11.574790
1553.184453	-11.619238
1553.989554	-11.589231
1554.795490	-11.497945
1555.602263	-11.357454
1556.409873	-11.187318
1557.218322	-11.001364
1558.027612	-10.811917
1558.837743	-10.630931
1559.648717	-10.462514
1560.460536	-10.314219
1561.273200	-10.187748
1562.086710	-10.084770
1562.901069	-10.008293
1563.716278	-9.956260
1564.532337	-9.931629
1565.349249	-9.932990
1566.167014	-9.960360
1566.985634	-10.015145
1567.805111	-10.094521
1568.625444	-10.200621
1569.446637	-10.330975
1570.268690	-10.484953
1571.091605	-10.662704
1571.915382	-10.860340
1572.740024	-11.078970
1573.565532	-11.314565
1574.391907	-11.565530
1575.219150	-11.830366
1576.047262	-12.103813
1576.876246	-12.385492
1577.706103	-12.669255
1578.536833	-12.952004
1579.368439	-13.229887
1580.200922	-13.495728
1581.034282	-13.747469
1581.868522	-13.977230
1582.703643	-14.181886
1583.539646	-14.357521
1584.376532	-14.499261
1585.214304	-14.607934
1586.052962	-14.680193
1586.892508	-14.718746
1587.732943	-14.725187
1588.574269	-14.701212
1589.416487	-14.652481
1590.259599	-14.580179
1591.103605	-14.489811
1591.948508	-14.384087
1592.794309	-14.265309
1593.641009	-14.137714
1594.488609	-14.001402
1595.337112	-13.859614
1596.186518	-13.713323
1597.036829	-13.563067
1597.888047	-13.411359
1598.740172	-13.257559
1599.593207	-13.103608
1600.447153	-12.950348
1601.302010	-12.797831
1602.157782	-12.648316
1603.014469	-12.501493
1603.872072	-12.358814
1604.730593	-12.221399
1605.590034	-12.089074
1606.450397	-11.963657
1607.311681	-11.845002
1608.173890	-11.733610
1609.037024	-11.630582
1609.901085	-11.535122
1610.766075	-11.448269
1611.631995	-11.369832
1612.498846	-11.299281
1613.366630	-11.237431
1614.235349	-11.183108
1615.105004	-11.136297
1615.975596	-11.096929
1616.847128	-11.063577
1617.719600	-11.036546
1618.593014	-11.014789
1619.467372	-10.997200
1620.342675	-10.983988
1621.218924	-10.973510
1622.096122	-10.965401
1622.974270	-10.959436
1623.853369	-10.954052
1624.733420	-10.949543
1625.614427	-10.945285
1626.496389	-10.940414
1627.379308	-10.935736
1628.263187	-10.930511
1629.148026	-10.924888
1630.033828	-10.919830
1630.920593	-10.914734
1631.808324	-10.910549
1632.697022	-10.907908
1633.586688	-10.906329
1634.477324	-10.906997
1635.368932	-10.909855
1636.261514	-10.914503
1637.155070	-10.921903
1638.049602	-10.931314
1638.945113	-10.942574
1639.841603	-10.956218
1640.739075	-10.971178
1641.637529	-10.987523
1642.536968	-11.005359
1643.437393	-11.023520
1644.338806	-11.042288
1645.241209	-11.061345
1646.144602	-11.079689
1647.048988	-11.097803
1647.954368	-11.115188
1648.860744	-11.131337
1649.768118	-11.146930
1650.676491	-11.161482
1651.585865	-11.175033
1652.496241	-11.188378
1653.407621	-11.201179
1654.320008	-11.213900
1655.233401	-11.227222
1656.147804	-11.240794
1657.063218	-11.255119
1657.979645	-11.270446
1658.897085	-11.286230
1659.815542	-11.302774
1660.735016	-11.319904
1661.655509	-11.337091
1662.577023	-11.354636
1663.499560	-11.372244
1664.423121	-11.389636
1665.347709	-11.407201
1666.273324	-11.424705
1667.199969	-11.442183
1668.127645	-11.460049
1669.056353	-11.478055
1669.986097	-11.496384
1670.916877	-11.515338
1671.848695	-11.534634
1672.781553	-11.554530
1673.715452	-11.575222
1674.650395	-11.596357
1675.586383	-11.618264
1676.523418	-11.640992
1677.461501	-11.664124
1678.400635	-11.687974
1679.340821	-11.712458
1680.282061	-11.737162
1681.224357	-11.762489
1682.167710	-11.788360
1683.112122	-11.814458
1684.057595	-11.841232
1685.004132	-11.868607
1685.951732	-11.896263
1686.900400	-11.924674
1687.850135	-11.953740
1688.800940	-11.983038
1689.752818	-12.013008
1690.705768	-12.043467
1691.659795	-12.074033
1692.614898	-12.105303
1693.571081	-12.137153
1694.528345	-12.169179
1695.486691	-12.201954
1696.446122	-12.235315
1697.406640	-12.268674
1698.368245	-12.302522
1699.330941	-12.336706
1700.294729	-12.370592
1701.259611	-12.404789
1702.225588	-12.439404
1703.192664	-12.473816
1704.160838	-12.508687
1705.130114	-12.544390
1706.100493	-12.580247
1707.071977	-12.616613
1708.044568	-12.653874
1709.018268	-12.691213
1709.993079	-12.728738
1710.969003	-12.767111
1711.946041	-12.805760
1712.924196	-12.844649
1713.903469	-12.884564
1714.883862	-12.925153
1715.865378	-12.966130
1716.848017	-13.008107
1717.831783	-13.050903
1718.816677	-13.094016
1719.802701	-13.137850
1720.789857	-13.182410
1721.778147	-13.227169
1722.767573	-13.272414
1723.758136	-13.318373
1724.749840	-13.364623
1725.742685	-13.411237
1726.736673	-13.458459
1727.731808	-13.505929
1728.728090	-13.553547
1729.725521	-13.601594
1730.724105	-13.649907
1731.723842	-13.698311
1732.724735	-13.747013
1733.726785	-13.795963
1734.729995	-13.844952
1735.734366	-13.894080
1736.739902	-13.943302
1737.746603	-13.992383
1738.754472	-14.041396
1739.763510	-14.090443
1740.773721	-14.139493
1741.785105	-14.188683
1742.797665	-14.238206
1743.811403	-14.288033
1744.826321	-14.338118
1745.842422	-14.388427
1746.859706	-14.438780
1747.878177	-14.489057
1748.897835	-14.539301
1749.918685	-14.589484
1750.940726	-14.639596
1751.963963	-14.689790
1752.988395	-14.740008
1754.014027	-14.790075
1755.040860	-14.840058
1756.068895	-14.889802
1757.098135	-14.938926
1758.128583	-14.987432
1759.160240	-15.035436
1760.193109	-15.082706
1761.227191	-15.129223
1762.262488	-15.175310
1763.299004	-15.220929
1764.336740	-15.265670
1765.375697	-15.309624
1766.415880	-15.352956
1767.457288	-15.395257
1768.499926	-15.436332
1769.543794	-15.476509
1770.588895	-15.515700
1771.635231	-15.553530
1772.682805	-15.590159
1773.731619	-15.625907
1774.781674	-15.660504
1775.832973	-15.693761
1776.885519	-15.725981
1777.939312	-15.757154
1778.994357	-15.786912
1780.050654	-15.815342
1781.108207	-15.842764
1782.167017	-15.869069
1783.227087	-15.894155
1784.288418	-15.918345
1785.351013	-15.941776
1786.414875	-15.964279
1787.480006	-15.985895
1788.546407	-16.006821
1789.614082	-16.026941
1790.683032	-16.046111
1791.753259	-16.064452
1792.824767	-16.081948
1793.897557	-16.098386
1794.971632	-16.113805
1796.046994	-16.128337
1797.123645	-16.141837
1798.201588	-16.154146
1799.280824	-16.165287
1800.361357	-16.175136
1801.443188	-16.183310
1802.526320	-16.189654
1803.610756	-16.194285
1804.696497	-16.197188
1805.783546	-16.198353
1806.871906	-16.198054
1807.961578	-16.196456
1809.052565	-16.193360
1810.144870	-16.188493
1811.238494	-16.181782
1812.333441	-16.173204
1813.429713	-16.162819
1814.527311	-16.150864
1815.626239	-16.137623
1816.726499	-16.123178
1817.828094	-16.107383
1818.931025	-16.090003
1820.035295	-16.070917
1821.140906	-16.050164
1822.247862	-16.027908
1823.356165	-16.004359
1824.465816	-15.979776
1825.576819	-15.954359
1826.689175	-15.928198
1827.802888	-15.901219
1828.917960	-15.873367
1830.034394	-15.844703
1831.152191	-15.815349
1832.271354	-15.785281
1833.391887	-15.754478
1834.513790	-15.723083
1835.637068	-15.691227
1836.761722	-15.658919
1837.887755	-15.626187
1839.015169	-15.593182
1840.143968	-15.559941
1841.274153	-15.526279
1842.405727	-15.491997
1843.538693	-15.457048
1844.673053	-15.421457
1845.808810	-15.385341
1846.945966	-15.348983
1848.084525	-15.312754
1849.224488	-15.276893
1850.365858	-15.241383
1851.508638	-15.206020
1852.652831	-15.170527
1853.798438	-15.134720
1854.945463	-15.098672
1856.093909	-15.062752
1857.243777	-15.027330
1858.395071	-14.992387
1859.547794	-14.957568
1860.701947	-14.922463
1861.857533	-14.886847
1863.014556	-14.850714
1864.173018	-14.814280
1865.332922	-14.777828
1866.494270	-14.741445
1867.657065	-14.704932
1868.821309	-14.668109
1869.987006	-14.631018
1871.154158	-14.593811
1872.322768	-14.556593
1873.492839	-14.519423
1874.664373	-14.482381
1875.837373	-14.445481
1877.011841	-14.408663
1878.187782	-14.371855
1879.365197	-14.335134
1880.544089	-14.298679
1881.724460	-14.262586
1882.906315	-14.226742
1884.089655	-14.190863
1885.274483	-14.154730
1886.460803	-14.118344
1887.648616	-14.081919
1888.837927	-14.045810
1890.028736	-14.010238
1891.221049	-13.975065
1892.414866	-13.939919
1893.610192	-13.904503
1894.807028	-13.868817
1896.005379	-13.833148
1897.205246	-13.797845
1898.406633	-13.763063
1899.609542	-13.728642
1900.813977	-13.694331
1902.019940	-13.660045
1903.227434	-13.625929
1904.436462	-13.592268
1905.647028	-13.559297
1906.859133	-13.527041
1908.072781	-13.495316
1909.287976	-13.463922
1910.504719	-13.432797
1911.723013	-13.402102
1912.942863	-13.372090
1914.164270	-13.342884
1915.387238	-13.314349
1916.611770	-13.286251
1917.837868	-13.258458
1919.065536	-13.231037
1920.294777	-13.204181
1921.525594	-13.178069
1922.757989	-13.152754
1923.991967	-13.128114
1925.227529	-13.103914
1926.464679	-13.080002
1927.703420	-13.056413
1928.943755	-13.033291
1930.185688	-13.010673
1931.429221	-12.988387
1932.674356	-12.966125
1933.921099	-12.943679
1935.169451	-12.921044
1936.419415	-12.898402
1937.670996	-12.875986
1938.924195	-12.853878
1940.179017	-12.831968
1941.435463	-12.810050
1942.693538	-12.788027
1943.953245	-12.766031
1945.214586	-12.744284
1946.477566	-12.722916
1947.742186	-12.701969
1949.008451	-12.681414
1950.276363	-12.661207
1951.545926	-12.641312
1952.817143	-12.621676
1954.090017	-12.602210
1955.364551	-12.582894
1956.640749	-12.563790
1957.918615	-12.545041
1959.198150	-12.526696
1960.479359	-12.508656
1961.762244	-12.490681
1963.046810	-12.472571
1964.333059	-12.454374
1965.620995	-12.436516
1966.910621	-12.419538
1968.201940	-12.403697
1969.494956	-12.388793
1970.789672	-12.374394
1972.086091	-12.360310
1973.384217	-12.346816
1974.684053	-12.334366
1975.985602	-12.323156
1977.288869	-12.312917
1978.593855	-12.303081
1979.900566	-12.293204
1981.209003	-12.283182
1982.519171	-12.273269
1983.831073	-12.263824
1985.144712	-12.255068
1986.460093	-12.246931
1987.777217	-12.239040
1989.096089	-12.230933
1990.416713	-12.222369
1991.739092	-12.213531
1993.063228	-12.204915
1994.389127	-12.196895
1995.716791	-12.189372
1997.046223	-12.181849
1998.377428	-12.173850
1999.710409	-12.165234
2001.045169	-12.156333
2002.381713	-12.147747
2003.720043	-12.139915
2005.060163	-12.132691
2006.402077	-12.125379
2007.745788	-12.117430
2009.091301	-12.108947
2010.438618	-12.100610
2011.787743	-12.093000
2013.138680	-12.086037
2014.491433	-12.079100
2015.846005	-12.071744
2017.202399	-12.064190
2018.560621	-12.057084
2019.920673	-12.050850
2021.282558	-12.045471
2022.646281	-12.040631
2024.011846	-12.036070
2025.379256	-12.031845
2026.748515	-12.028363
2028.119626	-12.026075
2029.492594	-12.025017
2030.867422	-12.024868
2032.244114	-12.025345
2033.622673	-12.026498
2035.003104	-12.028461
2036.385411	-12.031297
2037.769597	-12.035040
2039.155665	-12.039742
2040.543621	-12.045320
2041.933467	-12.051408
2043.325208	-12.057608
2044.718847	-12.063913
2046.114389	-12.070671
2047.511837	-12.078046
2048.911195	-12.085761
2050.312467	-12.093492
2051.715657	-12.101242
2053.120769	-12.109248
2054.527807	-12.117619
2055.936775	-12.126222
2057.347677	-12.134881
2058.760516	-12.143539
2060.175297	-12.152214
2061.592025	-12.160866
2063.010701	-12.169403
2064.431332	-12.177752
2065.853921	-12.185829
2067.278472	-12.193513
2068.704988	-12.200689
2070.133475	-12.207310
2071.563936	-12.213457
2072.996375	-12.219511
2074.430796	-12.225967
2075.867204	-12.232860
2077.305603	-12.239779
2078.745996	-12.246695
2080.188389	-12.254470
2081.632784	-12.263929
2083.079187	-12.274920
2084.527601	-12.286643
2085.978030	-12.298708
2087.430480	-12.311432
2088.884954	-12.325246
2090.341455	-12.340129
2091.799990	-12.355774
2093.260561	-12.372095
2094.723173	-12.389410
2096.187831	-12.408107
2097.654538	-12.428376
2099.123300	-12.450181
2100.594119	-12.473459
2102.067001	-12.498214
2103.541950	-12.524521
2105.018971	-12.552482
2106.498067	-12.582294
2107.979243	-12.613991
2109.462503	-12.647045
2110.947853	-12.680554
2112.435295	-12.714162
2113.924836	-12.748227
2115.416478	-12.782687
2116.910227	-12.816498
2118.406087	-12.848678
2119.904063	-12.879167
2121.404158	-12.908391
2122.906378	-12.936335
2124.410727	-12.962519
2125.917210	-12.986739
2127.425831	-13.009425
2128.936594	-13.031341
2130.449505	-13.053052
2131.964567	-13.074729
2133.481786	-13.096457
2135.001166	-13.118630
2136.522711	-13.141794
2138.046427	-13.166339
2139.572317	-13.192593
2141.100388	-13.220595
2142.630642	-13.249651
2144.163085	-13.278946
2145.697722	-13.308662
2147.234558	-13.339682
2148.773596	-13.372070
2150.314842	-13.404800
2151.858301	-13.437315
2153.403977	-13.470369
2154.951875	-13.504946
2156.502000	-13.540991
2158.054357	-13.578035
2159.608950	-13.616592
2161.165785	-13.657790
2162.724866	-13.701998
2164.286198	-13.748733
2165.849786	-13.797779
2167.415635	-13.849424
2168.983749	-13.903726
2170.554134	-13.960382
2172.126795	-14.019111
2173.701737	-14.079631
2175.278964	-14.141210
2176.858481	-14.203066
2178.440294	-14.265292
2180.024408	-14.328269
2181.610827	-14.391462
2183.199557	-14.453973
2184.790602	-14.516076
2186.383968	-14.578713
2187.979660	-14.641684
2189.577683	-14.703900
2191.178041	-14.765419
2192.780741	-14.827380
2194.385787	-14.889856
2195.993185	-14.951802
2197.602939	-15.012788
2199.215054	-15.073241
2200.829537	-15.133257
2202.446392	-15.192040
2204.065624	-15.248672
2205.687239	-15.303258
2207.311242	-15.356738
2208.937638	-15.409511
2210.566433	-15.461494
2212.197631	-15.513184
2213.831239	-15.565159
2215.467261	-15.617808
2217.105703	-15.672283
2218.746570	-15.729616
2220.389867	-15.789166
2222.035601	-15.850860
2223.683776	-15.916780
2225.334398	-15.987811
2226.987472	-16.062110
2228.643004	-16.138890
2230.300999	-16.220143
2231.961463	-16.307109
2233.624402	-16.397690
2235.289820	-16.489446
2236.957723	-16.582964
2238.628118	-16.679410
2240.301009	-16.777249
2241.976402	-16.874342
2243.654303	-16.970866
2245.334717	-17.067978
2247.017650	-17.165320
2248.703108	-17.261450
2250.391096	-17.355385
2252.081620	-17.446818
2253.774686	-17.536765
2255.470300	-17.626981
2257.168467	-17.716731
2258.869193	-17.803899
2260.572484	-17.889746
2262.278345	-17.977047
2263.986783	-18.065190
2265.697804	-18.152476
2267.411412	-18.240332
2269.127615	-18.330975
2270.846417	-18.423612
2272.567826	-18.515824
2274.291846	-18.607957
2276.018484	-18.703344
2277.747745	-18.803163
2279.479637	-18.904576
2281.214164	-19.005984
2282.951333	-19.109478
2284.691149	-19.216493
2286.433619	-19.325793
2288.178750	-19.436050
2289.926546	-19.547842
2291.677014	-19.663353
2293.430161	-19.781942
2295.185992	-19.900227
2296.944513	-20.019709
2298.705732	-20.144814
2300.469653	-20.273947
2302.236283	-20.403276
2304.005629	-20.532701
2305.777696	-20.664099
2307.552492	-20.798504
2309.330022	-20.933872
2311.110292	-21.066970
2312.893310	-21.198621
2314.679080	-21.330873
2316.467611	-21.461181
2318.258907	-21.585736
2320.052976	-21.705639
2321.849824	-21.824346
2323.649457	-21.940962
2325.451883	-22.054219
2327.257106	-22.168682
2329.065135	-22.285102
2330.875975	-22.397217
2332.689633	-22.506967
2334.506116	-22.621348
2336.325430	-22.738135
2338.147581	-22.853665
2339.972578	-22.970348
2341.800425	-23.091361
2343.631130	-23.218252
2345.464700	-23.349948
2347.301141	-23.483525
2349.140461	-23.618961
2350.982665	-23.759552
2352.827760	-23.905639
2354.675754	-24.054558
2356.526653	-24.208610
2358.380464	-24.369048
2360.237195	-24.528242
2362.096851	-24.685570
2363.959440	-24.849056
2365.824968	-25.017214
2367.693444	-25.184119
2369.564873	-25.353644
2371.439263	-25.526481
2373.316620	-25.698134
2375.196953	-25.872801
2377.080267	-26.050408
2378.966570	-26.223794
2380.855869	-26.392529
2382.748171	-26.556564
2384.643484	-26.716279
2386.541815	-26.872083
2388.443170	-27.018423
2390.347557	-27.153843
2392.254984	-27.284894
2394.165457	-27.415237
2396.078984	-27.538629
2397.995572	-27.655996
2399.915229	-27.776909
2401.837961	-27.897810
2403.763777	-28.015247
2405.692684	-28.133692
2407.624689	-28.256513
2409.559800	-28.387313
2411.498023	-28.525661
2413.439368	-28.670049
2415.383840	-28.828008
2417.331449	-29.001282
2419.282201	-29.179510
2421.236104	-29.358789
2423.193165	-29.548161
2425.153393	-29.755552
2427.116795	-29.968182
2429.083378	-30.166537
2431.053151	-30.361927
2433.026121	-30.579027
2435.002297	-30.799664
2436.981685	-30.994522
2438.964293	-31.198779
2440.950131	-31.430306
2442.939204	-31.641260
2444.931522	-31.840569
2446.927092	-32.070546
2448.925923	-32.306302
2450.928022	-32.506184
2452.933397	-32.685612
2454.942056	-32.877211
2456.954008	-33.051671
2458.969260	-33.172208
2460.987821	-33.286658
2463.009699	-33.413571
2465.034902	-33.491090
2467.063437	-33.549087
2469.095315	-33.647950
2471.130542	-33.735399
2473.169127	-33.801911
2475.211078	-33.898641
2477.256404	-34.010128
2479.305112	-34.135446
2481.357212	-34.277101
2483.412713	-34.418188
2485.471621	-34.594931
2487.533946	-34.800423
2489.599696	-35.001873
2491.668880	-35.219049
2493.741507	-35.466747
2495.817585	-35.734381
2497.897122	-35.991302
2499.980127	-36.246143
2502.066609	-36.540322
2504.156578	-36.826991
2506.250040	-37.088274
2508.347006	-37.414346
2510.447483	-37.729771
2512.551482	-37.979757
2514.659010	-38.294183
2516.770076	-38.632357
2518.884690	-38.897642
2521.002861	-39.169656
2523.124597	-39.470062
2525.249907	-39.693128
2527.378801	-39.850316
2529.511287	-40.038074
2531.647375	-40.170741
2533.787074	-40.140877
2535.930393	-40.127823
2538.077340	-40.160035
2540.227927	-40.082259
2542.382160	-40.012250
2544.540051	-40.017644
2546.701608	-39.984043
2548.866840	-39.965680
2551.035757	-40.038765
2553.208369	-40.138657
2555.384684	-40.220717
2557.564713	-40.369306
2559.748465	-40.575268
2561.935948	-40.742895
2564.127174	-40.980355
2566.322152	-41.267129
2568.520890	-41.486752
2570.723399	-41.790403
2572.929689	-42.155386
2575.139769	-42.459757
2577.353649	-42.830063
2579.571340	-43.271800
2581.792849	-43.719886
2584.018189	-44.185390
2586.247368	-44.720378
2588.480396	-45.249210
2590.717284	-45.782885
2592.958041	-46.351894
2595.202678	-46.862328
2597.451204	-47.447524
2599.703630	-47.970087
2601.959966	-48.375370
2604.220222	-48.801092
2606.484408	-48.890712
2608.752535	-48.728490
2611.024612	-48.560129
2613.300651	-48.123102
2615.580661	-47.658867
2617.864653	-47.402578
2620.152638	-47.087262
2622.444625	-46.772467
2624.740626	-46.645223
2627.040651	-46.526249
2629.344710	-46.448650
2631.652814	-46.497806
2633.964974	-46.484382
2636.281200	-46.479674
2638.601504	-46.582855
2640.925896	-46.649592
2643.254386	-46.776702
2645.586987	-46.985606
2647.923707	-47.157379
2650.264559	-47.422253
2652.609554	-47.753932
2654.958702	-47.994184
2657.312015	-48.405702
2659.669503	-48.933259
2662.031178	-49.341509
2664.397051	-49.908973
2666.767132	-50.648188
2669.141434	-51.344304
2671.519968	-52.211579
2673.902745	-53.360051
2676.289776	-54.599805
2678.681072	-56.103019
2681.076646	-57.957273
2683.476508	-59.671384
2685.880671	-61.241559
2688.289145	-62.139011
2690.701942	-60.922862
2693.119075	-59.337716
2695.540554	-58.332781
2697.966391	-57.111586
2700.396599	-56.210232
2702.831189	-55.566524
2705.270172	-55.094244
2707.713561	-54.911749
2710.161368	-54.648420
2712.613605	-54.268325
2715.070283	-54.002128
2717.531416	-53.865182
2719.997014	-53.670970
2722.467090	-53.325775
2724.941657	-53.013243
2727.420726	-53.109958
2729.904310	-53.069897
2732.392421	-53.025889
2734.885072	-52.970431
2737.382275	-53.027319
2739.884042	-53.331830
2742.390387	-53.362204
2744.901321	-53.363904
2747.416857	-53.857167
2749.937008	-54.616581
2752.461787	-55.068163
2754.991206	-55.705178
2757.525279	-56.536175
2760.064017	-58.028803
2762.607434	-59.655197
2765.155544	-60.989464
2767.708358	-62.991179
2770.265890	-66.907239
2772.828153	-69.743510
2775.395160	-71.739730
2777.966924	-72.587044
2780.543459	-71.668980
2783.124778	-70.173312
2785.710894	-69.441796
2788.301821	-71.305860
2790.897572	-71.065924
2793.498160	-69.284577
2796.103599	-69.907214
2798.713903	-67.268448
2801.329085	-66.378037
2803.949159	-64.844126
2806.574139	-63.400334
2809.204038	-62.944677
2811.838871	-61.581447
2814.478650	-61.131230
2817.123391	-60.829290
2819.773107	-59.113317
2822.427812	-59.340854
2825.087521	-58.944137
2827.752247	-58.247933
2830.422005	-58.765454
2833.096808	-58.590776
2835.776672	-58.941796
2838.461611	-59.667364
2841.151638	-59.701830
2843.846769	-61.806416
2846.547019	-62.217577
2849.252401	-63.055281
2851.962930	-65.967838
2854.678621	-66.502599
2857.399489	-69.271803
2860.125549	-69.899431
2862.856815	-71.130090
2865.593302	-69.090611
2868.335026	-68.076066
2871.082002	-69.742230
2873.834244	-67.848119
2876.591767	-68.857959
2879.354588	-70.032397
2882.122721	-70.914024
2884.896181	-74.888581
2887.674984	-73.434502
2890.459146	-75.610878
2893.248681	-77.998685
2896.043606	-77.428845
2898.843937	-75.742354
2901.649687	-73.839211
2904.460875	-70.756074
2907.277515	-68.993757
2910.099623	-68.166187
2912.927215	-66.939028
2915.760308	-65.220952
2918.598916	-65.865374
2921.443057	-65.145564
2924.292747	-65.219745
2927.148002	-65.148511
2930.008837	-65.641330
2932.875270	-67.430329
2935.747318	-67.482989
2938.624995	-69.278084
2941.508320	-71.731760
2944.397308	-73.751724
2947.291977	-78.896114
2950.192343	-77.652904
2953.098423	-79.607536
2956.010234	-74.615017
2958.927792	-71.888291
2961.851116	-74.088311
2964.780221	-72.467359
2967.715126	-71.614968
2970.655847	-73.011745
2973.602402	-72.426912
2976.554808	-71.823264
2979.513083	-70.473429
2982.477243	-71.306747
2985.447308	-70.274785
2988.423293	-71.239218
2991.405218	-70.747906
2994.393099	-71.592380
2997.386955	-73.576432
