# 2022-03-21_18.30.11
# shape = sech2
# FWHM_ps = 0.1
# carrier_nm = 1542
# frep_MHz = 12126
# pow_mW = 8000
# GDD = 0.0
# propa_len = 0.16
# untap_len = 0.01
# taper_len = 0.1
# waist_len = 0.02
# uptap_len = 0.02
# untap_scale = 1.0
# waist_scale = 0.2111111111111111
# workingDir = NL_20110305_12 (Spirou)
# axis = slow
# window_ps = 10.0
# steps = 200
# points = 21700
# 
# wavelength [nm]	 power spectral density [dB]
600.043425	-99.976686
600.163550	-99.406967
600.283723	-99.185786
600.403943	-99.476607
600.524212	-100.181228
600.644529	-101.183356
600.764895	-102.381927
600.885308	-103.452528
601.005770	-104.249172
601.126280	-105.095516
601.246839	-106.858765
601.367446	-109.063184
601.488101	-108.017509
601.608804	-104.300815
601.729557	-101.514126
601.850357	-99.927672
601.971206	-99.156982
602.092104	-98.693641
602.213050	-98.146789
602.334045	-97.438294
602.455089	-96.806191
602.576181	-96.679773
602.697322	-97.081976
602.818511	-97.778968
602.939749	-98.239553
603.061036	-98.181260
603.182372	-98.019556
603.303757	-98.488413
603.425191	-99.885563
603.546673	-101.478816
603.668204	-101.580545
603.789785	-99.826396
603.911414	-98.150999
604.033092	-97.210418
604.154820	-96.882994
604.276596	-96.781219
604.398422	-96.491331
604.520297	-95.918112
604.642220	-95.529637
604.764193	-95.558641
604.886216	-95.833044
605.008287	-96.020402
605.130408	-95.960730
605.252578	-95.830710
605.374798	-95.995517
605.497066	-96.576521
605.619385	-97.498337
605.741752	-98.682168
605.864169	-99.732829
605.986636	-99.388606
606.109152	-97.703933
606.231718	-95.978582
606.354333	-94.805384
606.476998	-94.197198
606.599712	-94.071226
606.722476	-94.314578
606.845290	-94.846646
606.968154	-95.311187
607.091067	-95.203484
607.214030	-94.559892
607.337043	-93.913686
607.460106	-93.730277
607.583219	-94.109959
607.706381	-94.885311
607.829594	-95.683587
607.952856	-96.041905
608.076169	-95.706240
608.199531	-94.946160
608.322944	-94.338598
608.446407	-94.277848
608.569920	-94.838425
608.693483	-95.808367
608.817096	-96.596593
608.940759	-96.583043
609.064473	-95.947465
609.188237	-95.189519
609.312051	-94.597280
609.435916	-94.412509
609.559831	-94.681847
609.683796	-95.362708
609.807812	-96.249895
609.931878	-96.778982
610.055995	-96.462882
610.180162	-95.425736
610.304380	-94.201653
610.428648	-93.232220
610.552967	-92.755697
610.677337	-92.786373
610.801757	-93.331382
610.926228	-94.275470
611.050750	-95.434498
611.175323	-96.437978
611.299946	-96.896589
611.424620	-96.599377
611.549345	-95.684650
611.674121	-94.330508
611.798948	-92.925272
611.923826	-91.782603
612.048755	-91.028872
612.173734	-90.688188
612.298765	-90.646975
612.423847	-90.766772
612.548980	-91.006522
612.674165	-91.333258
612.799400	-91.666875
612.924687	-91.912505
613.050025	-91.973343
613.175414	-91.885109
613.300854	-91.560223
613.426346	-91.094861
613.551889	-90.735178
613.677484	-90.682450
613.803130	-91.002955
613.928827	-91.570535
614.054576	-92.286663
614.180377	-93.291294
614.306229	-94.495108
614.432132	-95.113782
614.558087	-94.255292
614.684094	-92.545570
614.810153	-90.933974
614.936263	-89.735346
615.062425	-89.005206
615.188639	-88.785978
615.314904	-89.066845
615.441222	-89.793131
615.567591	-90.942104
615.694012	-92.685229
615.820486	-95.538594
615.947011	-100.655507
616.073588	-107.211247
616.200217	-100.908744
616.326898	-96.423090
616.453632	-93.907512
616.580417	-92.310276
616.707255	-91.303689
616.834144	-90.764686
616.961086	-90.606623
617.088081	-90.811938
617.215127	-91.428100
617.342226	-92.557531
617.469378	-94.263834
617.596581	-96.585079
617.723837	-99.381849
617.851146	-102.864804
617.978507	-107.985432
618.105920	-117.944922
618.233386	-116.773574
618.360905	-110.681100
618.488476	-108.537346
618.616100	-107.982804
618.743777	-108.424255
618.871506	-109.902683
618.999288	-111.418875
619.127123	-110.822783
619.255011	-108.661263
619.382951	-106.658021
619.510945	-105.496137
619.638991	-104.827666
619.767090	-103.861365
619.895243	-102.547382
620.023448	-101.392311
620.151706	-100.694630
620.280017	-100.337247
620.408382	-100.389370
620.536799	-101.073926
620.665270	-102.726185
620.793794	-105.364437
620.922371	-108.830090
621.051002	-113.627124
621.179686	-112.133259
621.308423	-105.486519
621.437213	-101.612281
621.566057	-99.742632
621.694954	-99.082921
621.823905	-98.765564
621.952909	-98.366273
622.081967	-97.909699
622.211079	-97.621131
622.340244	-97.583690
622.469462	-98.079630
622.598735	-99.346111
622.728061	-101.147123
622.857441	-102.168988
622.986874	-101.988349
623.116361	-101.885246
623.245903	-101.903560
623.375498	-101.053620
623.505147	-99.750986
623.634850	-98.775477
623.764606	-97.975407
623.894417	-96.957538
624.024282	-95.749798
624.154201	-94.676169
624.284174	-93.795358
624.414202	-93.291187
624.544283	-93.281802
624.674419	-93.632019
624.804609	-93.999021
624.934853	-94.244198
625.065151	-94.666891
625.195504	-95.447589
625.325911	-95.952551
625.456373	-95.452820
625.586889	-94.362964
625.717460	-93.261155
625.848085	-92.373714
625.978764	-91.750630
626.109498	-91.362831
626.240287	-91.021003
626.371131	-90.653624
626.502029	-90.503329
626.632982	-90.706998
626.763989	-91.108740
626.895052	-91.343259
627.026169	-91.405405
627.157341	-91.703957
627.288568	-92.288412
627.419850	-92.836993
627.551187	-93.094519
627.682579	-93.108377
627.814026	-92.955236
627.945528	-92.688911
628.077085	-92.439481
628.208697	-92.230442
628.340364	-91.742824
628.472087	-90.921405
628.603865	-90.158547
628.735698	-89.709297
628.867586	-89.503779
628.999530	-89.360970
629.131529	-89.288017
629.263584	-89.402952
629.395694	-89.835063
629.527859	-90.601119
629.660080	-91.621753
629.792357	-92.662075
629.924689	-93.207321
630.057077	-93.049043
630.189520	-92.578349
630.322019	-91.911326
630.454574	-90.930916
630.587184	-89.833742
630.719851	-88.994149
630.852573	-88.542381
630.985351	-88.406814
631.118185	-88.454345
631.251075	-88.641486
631.384021	-88.941638
631.517023	-89.380837
631.650081	-90.018927
631.783195	-90.821108
631.916365	-91.563506
632.049592	-91.941369
632.182874	-92.057834
632.316213	-92.233966
632.449608	-92.351123
632.583059	-92.063602
632.716567	-91.428724
632.850131	-90.853481
632.983751	-90.576109
633.117428	-90.541874
633.251161	-90.639651
633.384951	-90.766651
633.518797	-90.847191
633.652700	-91.108584
633.786660	-91.693443
633.920676	-92.474130
634.054749	-93.119960
634.188879	-93.611475
634.323065	-94.356296
634.457308	-95.631740
634.591608	-97.331492
634.725965	-98.575447
634.860379	-98.726682
634.994850	-97.957086
635.129377	-97.012386
635.263962	-96.272413
635.398604	-95.810370
635.533303	-95.723500
635.668058	-96.226681
635.802872	-97.557563
635.937742	-99.881152
636.072669	-102.864705
636.207654	-106.164013
636.342696	-110.428585
636.477796	-113.258407
636.612953	-106.131266
636.748167	-101.157935
636.883439	-98.205384
637.018768	-96.380491
637.154155	-95.307199
637.289599	-94.647075
637.425101	-94.273203
637.560660	-94.158177
637.696277	-94.368499
637.831952	-94.975981
637.967685	-95.910067
638.103475	-96.927237
638.239324	-97.869789
638.375230	-98.891483
638.511194	-99.687464
638.647215	-98.737871
638.783295	-96.389646
638.919433	-94.220285
639.055629	-92.690972
639.191883	-91.721280
639.328195	-91.112892
639.464565	-90.658110
639.600994	-90.242453
639.737481	-89.933258
639.874025	-89.885340
640.010629	-90.058169
640.147290	-90.249714
640.284010	-90.238542
640.420789	-90.208470
640.557625	-90.301737
640.694521	-90.283749
640.831474	-89.857647
640.968487	-89.083228
641.105558	-88.195735
641.242687	-87.350431
641.379876	-86.620439
641.517123	-85.987553
641.654429	-85.382641
641.791793	-84.889676
641.929216	-84.675157
642.066699	-84.732467
642.204240	-84.876433
642.341840	-84.946656
642.479499	-85.039454
642.617217	-85.286511
642.754994	-85.635255
642.892830	-85.949703
643.030726	-86.088844
643.168680	-85.988811
643.306694	-85.761061
643.444767	-85.475394
643.582899	-85.062354
643.721091	-84.546474
643.859342	-84.130945
643.997652	-83.982169
644.136022	-84.046713
644.274451	-84.205793
644.412940	-84.450630
644.551488	-84.861652
644.690096	-85.494274
644.828763	-86.330947
644.967490	-87.185209
645.106277	-87.741989
645.245124	-87.911705
645.384030	-87.918496
645.522997	-87.809717
645.662023	-87.471777
645.801109	-87.004633
645.940255	-86.728657
646.079460	-86.702875
646.218726	-86.834413
646.358052	-87.002581
646.497438	-87.197366
646.636884	-87.527012
646.776391	-88.182587
646.915957	-89.277147
647.055584	-90.774221
647.195271	-92.492986
647.335019	-94.241737
647.474826	-96.201670
647.614695	-98.213484
647.754623	-98.848356
647.894612	-97.230050
648.034662	-95.159940
648.174772	-93.521905
648.314943	-92.259004
648.455174	-91.205428
648.595466	-90.217900
648.735819	-89.422274
648.876233	-89.030363
649.016707	-89.066403
649.157242	-89.308824
649.297838	-89.466870
649.438495	-89.536251
649.579213	-89.780435
649.719992	-90.433971
649.860832	-91.455517
650.001733	-92.131797
650.142695	-91.703234
650.283718	-90.584196
650.424803	-89.330593
650.565949	-88.092009
650.707156	-87.018751
650.848424	-86.282318
650.989754	-85.960695
651.131145	-85.952858
651.272597	-86.135016
651.414111	-86.482110
651.555687	-87.147242
651.697324	-88.373942
651.839022	-90.250632
651.980782	-92.021374
652.122604	-92.411196
652.264488	-91.855580
652.406433	-91.278426
652.548441	-90.651585
652.690510	-89.996263
652.832640	-89.554466
652.974833	-89.456985
653.117088	-89.787750
653.259405	-90.587008
653.401784	-91.835479
653.544224	-93.803812
653.686727	-97.417658
653.829293	-104.052201
653.971920	-103.469091
654.114609	-98.492109
654.257361	-95.935040
654.400175	-94.440021
654.543052	-93.480975
654.685991	-93.028067
654.828992	-93.358785
654.972056	-94.709609
655.115183	-96.968563
655.258372	-99.264978
655.401623	-100.156505
655.544937	-98.485152
655.688314	-95.240715
655.831754	-92.265305
655.975256	-90.262917
656.118822	-89.059740
656.262450	-88.363087
656.406141	-87.996666
656.549894	-87.949936
656.693711	-88.297273
656.837591	-89.133917
656.981534	-90.310056
657.125540	-91.194203
657.269610	-91.461866
657.413742	-91.389631
657.557938	-90.984332
657.702196	-90.226953
657.846519	-89.391758
657.990904	-88.753981
658.135353	-88.518498
658.279866	-88.703435
658.424441	-89.047470
658.569081	-89.380565
658.713784	-89.959758
658.858550	-91.076381
659.003381	-92.684753
659.148274	-94.253495
659.293232	-94.833279
659.438253	-94.438497
659.583339	-93.889712
659.728488	-93.208659
659.873701	-92.065885
660.018978	-90.871508
660.164318	-89.977127
660.309723	-89.366183
660.455192	-88.906880
660.600725	-88.566701
660.746323	-88.425773
660.891984	-88.618747
661.037710	-89.071504
661.183500	-89.285540
661.329354	-88.962416
661.475272	-88.538634
661.621255	-88.450919
661.767303	-88.530170
661.913415	-88.180304
662.059591	-87.465426
662.205833	-86.985341
662.352138	-86.987197
662.498509	-87.403335
662.644944	-88.072268
662.791443	-88.887974
662.938008	-89.863519
663.084638	-90.776586
663.231332	-90.872486
663.378091	-90.503298
663.524915	-90.451128
663.671804	-90.155484
663.818759	-89.204972
663.965778	-88.389545
664.112863	-88.128314
664.260012	-88.428635
664.407227	-89.025127
664.554507	-89.316934
664.701853	-89.394249
664.849264	-89.923037
664.996740	-90.594956
665.144282	-90.520914
665.291889	-89.788937
665.439561	-88.889258
665.587300	-88.072213
665.735103	-87.452413
665.882973	-87.136386
666.030908	-87.349457
666.178909	-87.962729
666.326976	-88.252796
666.475109	-88.081381
666.623307	-87.955389
666.771571	-87.708927
666.919902	-86.858418
667.068298	-85.500809
667.216761	-84.263265
667.365289	-83.507458
667.513884	-83.083141
667.662545	-82.846948
667.811272	-82.929955
667.960065	-83.458995
668.108925	-84.348595
668.257851	-85.325367
668.406843	-85.985136
668.555902	-86.171101
668.705027	-85.968334
668.854219	-85.293563
669.003478	-84.544431
669.152803	-84.140871
669.302195	-84.150739
669.451653	-84.483024
669.601179	-84.976652
669.750771	-85.587121
669.900430	-86.429120
670.050156	-87.578888
670.199949	-88.567783
670.349808	-89.038461
670.499735	-89.458842
670.649729	-89.658359
670.799790	-89.274699
670.949918	-88.635300
671.100114	-88.335716
671.250377	-88.713304
671.400707	-89.573706
671.551104	-90.670395
671.701569	-92.402468
671.852101	-95.533929
672.002700	-100.674895
672.153368	-101.427907
672.304102	-96.175061
672.454905	-92.522088
672.605775	-90.253390
672.756713	-89.123180
672.907718	-89.115266
673.058791	-89.935478
673.209933	-91.139317
673.361142	-92.746640
673.512419	-94.474094
673.663764	-94.413641
673.815177	-92.404570
673.966658	-89.999132
674.118207	-88.206563
674.269825	-87.221602
674.421510	-86.703219
674.573264	-86.440382
674.725086	-86.534552
674.876977	-86.936812
675.028936	-87.428136
675.180963	-88.060661
675.333059	-88.921631
675.485224	-89.865543
675.637457	-90.644918
675.789758	-90.218912
675.942129	-88.169092
676.094568	-85.894951
676.247075	-83.905994
676.399652	-82.160994
676.552298	-80.780885
676.705012	-79.860631
676.857795	-79.390529
677.010648	-79.355376
677.163569	-79.612958
677.316560	-79.965702
677.469619	-80.344691
677.622748	-80.586874
677.775946	-80.409135
677.929214	-79.810806
678.082551	-78.966734
678.235957	-78.143076
678.389432	-77.602180
678.542977	-77.435554
678.696592	-77.675050
678.850276	-78.295552
679.004030	-79.193934
679.157853	-80.249560
679.311746	-81.264378
679.465709	-81.744426
679.619742	-81.490592
679.773844	-80.776952
679.928017	-80.088353
680.082259	-79.889766
680.236571	-80.338828
680.390954	-81.339107
680.545406	-82.900448
680.699929	-85.363175
680.854522	-89.653887
681.009185	-94.399531
681.163918	-89.475129
681.318722	-85.544631
681.473596	-83.317020
681.628540	-82.023624
681.783555	-81.517936
681.938641	-81.553583
682.093797	-81.590257
682.249023	-81.168564
682.404321	-80.198701
682.559689	-78.866296
682.715128	-77.405925
682.870637	-76.153748
683.026218	-75.395813
683.181869	-75.122961
683.337591	-75.175579
683.493385	-75.565336
683.649249	-76.321900
683.805185	-77.182690
683.961191	-77.552116
684.117269	-77.097359
684.273418	-76.195972
684.429639	-75.318775
684.585930	-74.665045
684.742294	-74.378023
684.898728	-74.562219
685.055234	-75.183013
685.211812	-76.151704
685.368461	-77.435550
685.525182	-78.850270
685.681975	-79.852535
685.838839	-79.964316
685.995775	-79.589625
686.152783	-79.385631
686.309863	-79.482187
686.467014	-79.762953
686.624238	-80.418160
686.781534	-81.930192
686.938902	-84.861221
687.096342	-89.792050
687.253854	-94.736658
687.411438	-91.661610
687.569095	-88.171350
687.726824	-85.910952
687.884626	-84.538075
688.042499	-84.000335
688.200446	-84.305051
688.358465	-85.585997
688.516556	-88.433792
688.674720	-94.930990
688.832957	-100.111971
688.991266	-90.589357
689.149649	-86.370015
689.308104	-83.676683
689.466632	-81.720684
689.625233	-80.563740
689.783906	-80.360443
689.942653	-81.039651
690.101473	-82.143278
690.260367	-82.898249
690.419333	-82.617060
690.578372	-81.048427
690.737485	-79.051416
690.896672	-77.443898
691.055931	-76.360810
691.215264	-75.715008
691.374671	-75.527267
691.534151	-75.930445
691.693704	-76.995014
691.853332	-78.372720
692.013033	-79.208890
692.172807	-79.053341
692.332656	-78.143677
692.492578	-76.939752
692.652575	-75.956366
692.812645	-75.448812
692.972789	-75.425857
693.133007	-75.819268
693.293300	-76.579707
693.453666	-77.689593
693.614107	-78.951316
693.774622	-79.988277
693.935211	-80.612258
694.095875	-80.767295
694.256613	-80.504302
694.417426	-80.263569
694.578313	-80.492467
694.739274	-81.427649
694.900311	-83.189232
695.061421	-85.928807
695.222607	-89.934220
695.383868	-93.538949
695.545203	-91.438923
695.706613	-88.986364
695.868098	-88.367132
696.029658	-89.625731
696.191293	-93.402625
696.353003	-97.878297
696.514789	-90.824813
696.676649	-85.635117
696.838585	-82.634474
697.000596	-80.955925
697.162682	-80.267643
697.324844	-80.495492
697.487081	-81.762149
697.649394	-84.258453
697.811782	-87.494137
697.974246	-87.772669
698.136786	-84.709768
698.299401	-82.001203
698.462092	-80.252048
698.624859	-79.437097
698.787702	-79.565785
698.950621	-80.647457
699.113616	-82.748901
699.276686	-86.442807
699.439833	-94.031697
699.603056	-97.989937
699.766355	-88.863960
699.929731	-85.156065
700.093183	-83.192694
700.256711	-82.083534
700.420315	-81.590559
700.583996	-81.689373
700.747754	-82.429043
700.911588	-83.898591
701.075499	-86.357684
701.239486	-90.820849
701.403550	-101.539787
701.567691	-94.284361
701.731909	-87.918879
701.896203	-84.840699
702.060575	-83.252396
702.225024	-82.793159
702.389549	-83.564204
702.554152	-85.784895
702.718832	-89.468054
702.883589	-91.357712
703.048424	-87.472038
703.213335	-83.821486
703.378324	-81.624501
703.543391	-80.700547
703.708535	-80.920538
703.873757	-82.409689
704.039056	-85.778294
704.204433	-92.095355
704.369887	-89.695356
704.535420	-83.979649
704.701030	-80.881577
704.866718	-79.230757
705.032484	-78.728572
705.198328	-79.458406
705.364250	-81.752845
705.530250	-86.763577
705.696328	-105.126822
705.862485	-88.886137
706.028720	-82.590962
706.195033	-79.584588
706.361424	-78.183200
706.527894	-77.864783
706.694442	-78.324144
706.861069	-79.312220
707.027775	-80.496951
707.194559	-81.500597
707.361422	-82.175717
707.528363	-82.779651
707.695384	-83.432137
707.862483	-83.405769
708.029661	-81.702944
708.196918	-79.268471
708.364254	-77.326368
708.531670	-76.159593
708.699164	-75.787187
708.866738	-76.311254
709.034391	-78.139605
709.202123	-82.313053
709.369935	-89.824493
709.537826	-82.921356
709.705796	-77.532149
709.873847	-74.711212
710.041976	-73.311517
710.210186	-72.904927
710.378475	-73.315590
710.546844	-74.574807
710.715292	-76.974491
710.883821	-81.299437
711.052429	-87.470542
711.221118	-83.066816
711.389887	-78.593677
711.558735	-76.232492
711.727664	-74.946385
711.896673	-74.345425
712.065763	-74.339899
712.234932	-74.972599
712.404183	-76.314800
712.573513	-78.392101
712.742924	-81.062289
712.912416	-82.504212
713.081988	-80.444620
713.251641	-77.624059
713.421375	-75.465006
713.591190	-74.025904
713.761085	-73.266965
713.931061	-73.220865
714.101119	-73.986476
714.271257	-75.641260
714.441476	-78.363961
714.611777	-82.648283
714.782159	-87.073120
714.952622	-83.505381
715.123166	-79.681528
715.293792	-77.729661
715.464499	-77.029064
715.635288	-77.165670
715.806158	-77.857826
715.977110	-78.750918
716.148143	-79.357348
716.319259	-79.581902
716.490456	-79.989718
716.661735	-81.475518
716.833096	-85.519284
717.004538	-98.045331
717.176063	-85.653107
717.347670	-79.167461
717.519359	-75.597513
717.691130	-73.447387
717.862984	-72.340242
718.034920	-72.103172
718.206938	-72.665534
718.379039	-74.098857
718.551222	-76.731243
718.723488	-81.595033
718.895836	-95.840568
719.068267	-85.792084
719.240781	-78.591902
719.413377	-74.842048
719.586057	-72.498250
719.758819	-71.131370
719.931664	-70.659320
720.104593	-71.119737
720.277604	-72.689215
720.450699	-75.895474
720.623876	-81.429764
720.797137	-79.660742
720.970482	-74.019790
721.143910	-70.792607
721.317421	-69.130665
721.491016	-68.654358
721.664694	-69.290518
721.838456	-71.155352
722.012302	-74.692682
722.186231	-81.190919
722.360244	-84.559107
722.534342	-78.383986
722.708523	-75.839459
722.882788	-75.597365
723.057137	-76.851133
723.231570	-77.800477
723.406088	-75.817489
723.580689	-73.066954
723.755375	-71.332561
723.930146	-70.826174
724.105000	-71.685863
724.279940	-74.517356
724.454963	-81.989117
724.630072	-84.516427
724.805265	-74.540435
724.980543	-70.499458
725.155905	-68.544464
725.331353	-67.931947
725.506885	-68.502228
725.682503	-70.395282
725.858205	-74.243535
726.033993	-82.713769
726.209865	-83.319263
726.385823	-75.616358
726.561866	-72.576853
726.737995	-71.456014
726.914209	-71.606174
727.090508	-72.885185
727.266893	-75.362841
727.443364	-78.850536
727.619920	-80.542982
727.796562	-78.131825
727.973290	-75.521385
728.150103	-73.854170
728.327003	-73.108292
728.503988	-73.303779
728.681060	-74.603670
728.858218	-77.435808
729.035461	-82.261555
729.212791	-81.995552
729.390208	-76.911322
729.567710	-73.901017
729.745299	-72.597937
729.922975	-72.756098
730.100737	-74.679653
730.278586	-79.750657
730.456521	-87.974144
730.634543	-77.594877
730.812652	-72.815107
730.990848	-70.512258
731.169130	-69.701999
731.347500	-70.163637
731.525957	-72.027832
731.704500	-75.985710
731.883131	-85.803621
732.061850	-85.210824
732.240655	-77.152183
732.419548	-74.479794
732.598528	-74.031204
732.777596	-75.329391
732.956751	-78.609894
733.135994	-83.942062
733.315325	-83.242136
733.494744	-79.339934
733.674250	-77.702287
733.853844	-77.808985
734.033526	-79.031480
734.213296	-79.636911
734.393154	-78.287591
734.573101	-76.830050
734.753135	-76.576582
734.933258	-78.092568
735.113469	-81.755613
735.293769	-81.995149
735.474157	-76.743750
735.654633	-73.310966
735.835198	-71.681511
736.015852	-71.547794
736.196594	-72.803199
736.377426	-74.979492
736.558346	-75.364195
736.739355	-72.515330
736.920453	-69.783029
737.101640	-68.252000
737.282916	-67.899021
737.464282	-68.671366
737.645736	-70.686088
737.827280	-74.088837
738.008914	-76.598017
738.190637	-74.185656
738.372449	-71.643359
738.554351	-70.509481
738.736342	-70.680496
738.918424	-72.178204
739.100595	-75.105005
739.282855	-79.383431
739.465206	-83.125932
739.647647	-84.562674
739.830178	-89.730300
740.012799	-92.405770
740.195510	-79.870405
740.378311	-74.729061
740.561203	-72.046429
740.744185	-71.032858
740.927258	-71.559927
741.110421	-73.859780
741.293674	-78.946570
741.477018	-85.300776
741.660453	-78.034680
741.843979	-74.227859
742.027596	-73.065770
742.211303	-73.897674
742.395102	-77.224581
742.578991	-86.968614
742.762972	-84.507201
742.947044	-77.114325
743.131207	-74.802163
743.315461	-75.009847
743.499807	-77.547206
743.684244	-80.276973
743.868773	-75.954325
744.053394	-71.947734
744.238106	-69.873351
744.422910	-69.307646
744.607805	-70.129272
744.792793	-72.540852
744.977872	-77.265113
745.163044	-85.538186
745.348307	-83.398905
745.533663	-80.039882
745.719111	-80.020067
745.904651	-80.343190
746.090283	-77.653826
746.276008	-74.688365
746.461826	-73.340117
746.647735	-73.945418
746.833738	-76.690625
747.019833	-77.826948
747.206021	-73.017168
747.392302	-69.230263
747.578676	-67.172380
747.765143	-66.531851
747.951703	-67.203520
748.138356	-69.244245
748.325102	-72.532306
748.511941	-74.400163
748.698874	-72.519460
748.885900	-70.902031
749.073019	-70.831469
749.260232	-72.475844
749.447539	-76.117372
749.634939	-79.744545
749.822433	-77.581755
750.010021	-75.732063
750.197703	-76.402130
750.385479	-78.889496
750.573348	-77.071474
750.761312	-72.710999
750.949370	-70.209842
751.137523	-69.602875
751.325769	-70.970406
751.514110	-75.258208
751.702545	-88.131770
751.891075	-78.237284
752.079700	-73.192806
752.268419	-72.348473
752.457233	-74.955099
752.646142	-83.600472
752.835145	-75.703525
753.024244	-69.495911
753.213437	-66.771830
753.402726	-66.118004
753.592110	-67.389473
753.781589	-71.355817
753.971163	-79.265311
754.160833	-72.498564
754.350598	-67.656397
754.540459	-65.825081
754.730415	-65.968797
754.920467	-68.081381
755.110615	-73.142286
755.300858	-81.995152
755.491198	-74.518534
755.681633	-70.871585
755.872164	-70.383200
756.062792	-71.973417
756.253515	-73.729279
756.444335	-72.001484
756.635252	-69.610400
756.826264	-68.870646
757.017373	-70.273914
757.208579	-75.279897
757.399881	-92.640169
757.591280	-73.601423
757.782776	-68.926495
757.974368	-67.497647
758.166058	-68.354290
758.357844	-71.942070
758.549728	-80.430526
758.741708	-75.127419
758.933786	-69.975605
759.125961	-68.479155
759.318233	-69.531546
759.510603	-73.849779
759.703071	-83.918453
759.895635	-74.125217
760.088298	-69.573567
760.281058	-68.290002
760.473916	-69.332017
760.666872	-73.281186
760.859926	-84.557596
761.053078	-77.917000
761.246328	-72.508862
761.439676	-71.340586
761.633122	-73.148560
761.826667	-79.683673
762.020310	-86.809643
762.214052	-75.575882
762.407892	-72.695399
762.601831	-73.113946
762.795868	-76.175346
762.990004	-76.779143
763.184239	-72.235121
763.378573	-69.549389
763.573006	-69.116695
763.767538	-70.924805
763.962169	-74.704386
764.156900	-73.654007
764.351729	-69.264157
764.546658	-67.088744
764.741687	-66.961035
764.936815	-68.665205
765.132042	-71.245841
765.327370	-69.838216
765.522797	-66.597602
765.718324	-64.927507
765.913950	-65.002128
766.109677	-67.035853
766.305504	-72.050313
766.501431	-82.438337
766.697458	-75.025268
766.893586	-71.711964
767.089814	-72.547696
767.286142	-78.211324
767.482571	-79.719265
767.679100	-71.947672
767.875730	-69.195897
768.072461	-69.385679
768.269293	-72.736715
768.466225	-79.983676
768.663259	-73.668149
768.860393	-69.051196
769.057629	-67.634668
769.254966	-68.556709
769.452404	-72.047447
769.649944	-79.266054
769.847585	-79.718047
770.045328	-76.292461
770.243172	-76.422687
770.441118	-73.935650
770.639166	-69.017444
770.837315	-65.767562
771.035567	-64.324092
771.233920	-64.513700
771.432376	-66.193947
771.630934	-68.333976
771.829594	-67.757774
772.028356	-65.636617
772.227220	-64.667990
772.426188	-65.380951
772.625257	-68.000599
772.824430	-72.949945
773.023705	-78.670995
773.223083	-79.610842
773.422563	-85.194129
773.622147	-77.110917
773.821834	-69.229281
774.021624	-65.348748
774.221517	-63.659923
774.421513	-63.610451
774.621613	-64.953766
774.821816	-67.029979
775.022122	-67.760693
775.222532	-66.847364
775.423046	-66.634507
775.623664	-68.330776
775.824385	-73.118679
776.025211	-86.816566
776.226140	-78.986397
776.427173	-76.320844
776.628311	-77.112505
776.829553	-71.091582
777.030899	-65.637649
777.232350	-62.618343
777.433905	-61.408319
777.635564	-61.682709
777.837328	-63.188472
778.039197	-65.241695
778.241171	-66.242066
778.443250	-66.228959
778.645433	-67.262298
778.847722	-71.174717
779.050116	-84.694415
779.252615	-73.814776
779.455219	-68.765789
779.657929	-67.800283
779.860744	-68.695214
780.063665	-67.587117
780.266691	-63.879830
780.469823	-61.123248
780.673061	-59.888370
780.876405	-60.013882
781.079855	-61.300598
781.283410	-63.211314
781.487072	-64.668099
781.690840	-65.570654
781.894715	-67.482360
782.098695	-73.095731
782.302783	-83.979598
782.506976	-69.699644
782.711277	-65.765824
782.915684	-64.807680
783.120198	-65.438672
783.324818	-65.464827
783.529546	-63.316951
783.734381	-61.090825
783.939322	-59.986535
784.144372	-60.153857
784.349528	-61.466359
784.554792	-63.492922
784.760163	-65.438350
784.965642	-67.221609
785.171228	-70.907463
785.376922	-81.547306
785.582724	-70.382306
785.788634	-64.680528
785.994651	-62.387254
786.200777	-62.041043
786.407011	-62.826978
786.613353	-63.261444
786.819804	-62.205482
787.026363	-60.899258
787.233030	-60.452097
787.439806	-61.009051
787.646691	-62.223171
787.853684	-63.368303
788.060786	-64.349451
788.267997	-66.320188
788.475317	-70.826108
788.682746	-72.067406
788.890285	-66.131399
789.097932	-63.056488
789.305689	-62.127735
789.513555	-62.561777
789.721531	-63.214651
789.929617	-62.879526
790.137812	-62.082862
790.346117	-61.831334
790.554531	-62.121460
790.763056	-62.247907
790.971691	-62.044254
791.180436	-62.407828
791.389291	-64.357911
791.598256	-68.701097
791.807332	-69.918521
792.016518	-65.155508
792.225815	-62.563012
792.435222	-61.718943
792.644740	-61.561221
792.854369	-61.192740
793.064109	-60.637488
793.273960	-60.506876
793.483922	-60.909541
793.693995	-61.073819
793.904180	-60.344181
794.114475	-59.490780
794.324882	-59.558373
794.535401	-61.101691
794.746031	-64.352298
794.956774	-67.245190
795.167627	-65.436308
795.378593	-63.491039
795.589671	-62.738883
795.800861	-62.181003
796.012162	-61.291509
796.223577	-60.668030
796.435103	-60.868167
796.646742	-61.631564
796.858493	-61.740399
797.070357	-60.655779
797.282334	-59.729517
797.494423	-59.928898
797.706626	-61.614859
797.918941	-65.108306
798.131369	-68.610593
798.343911	-66.437306
798.556566	-63.546765
798.769334	-61.887131
798.982215	-60.695377
799.195210	-59.709119
799.408319	-59.241948
799.621541	-59.534852
799.834877	-60.380484
800.048327	-60.773700
800.261890	-60.087457
800.475568	-59.352122
800.689360	-59.625975
800.903266	-61.399102
801.117287	-64.633028
801.331422	-66.440899
801.545671	-64.033052
801.760036	-61.748140
801.974514	-60.332680
802.189108	-59.283927
802.403816	-58.539423
802.618640	-58.517524
802.833578	-59.558578
803.048632	-61.331836
803.263800	-62.026725
803.479085	-60.988630
803.694484	-60.440444
803.909999	-61.391219
804.125630	-63.701830
804.341376	-65.295842
804.557239	-64.140926
804.773217	-62.263884
804.989311	-60.349143
805.205521	-58.512785
805.421847	-57.284707
805.638290	-57.113706
805.854849	-58.162420
806.071524	-60.159222
806.288316	-61.697339
806.505225	-61.747199
806.722250	-61.913786
806.939393	-63.126346
807.156652	-64.677694
807.374028	-65.383608
807.591521	-65.732598
807.809132	-64.767294
808.026859	-61.322188
808.244705	-58.257758
808.462667	-56.767864
808.680748	-56.793666
808.898946	-58.007922
809.117261	-59.599987
809.335695	-60.532946
809.554246	-61.109801
809.772916	-61.932748
809.991704	-62.063894
810.210610	-61.049246
810.429634	-60.628683
810.648777	-61.759031
810.868039	-63.088907
811.087419	-61.008024
811.306918	-58.306730
811.526535	-57.124877
811.746272	-57.447763
811.966127	-58.870336
812.186102	-60.788685
812.406196	-63.059802
812.626409	-66.061268
812.846742	-66.522906
813.067194	-62.799869
813.287766	-60.362265
813.508457	-59.832718
813.729269	-60.555637
813.950200	-60.648282
814.171251	-59.058494
814.392422	-57.462549
814.613714	-56.814309
814.835126	-57.151111
815.056658	-58.292558
815.278311	-60.090424
815.500084	-62.544504
815.721978	-65.006011
815.943993	-63.909319
816.166128	-61.081390
816.388385	-59.572965
816.610762	-59.630754
816.833261	-60.798784
817.055881	-61.466907
817.278623	-60.064066
817.501486	-58.366456
817.724471	-57.619195
817.947577	-57.808917
818.170805	-58.612589
818.394155	-59.812229
818.617627	-61.257617
818.841221	-61.931274
819.064937	-60.545744
819.288775	-58.804398
819.512736	-58.315300
819.736819	-59.246996
819.961025	-60.474141
820.185354	-59.823231
820.409805	-58.258504
820.634379	-57.294133
820.859076	-56.961359
821.083897	-57.063043
821.308840	-57.926151
821.533907	-60.307860
821.759097	-64.264837
821.984411	-63.742037
822.209848	-60.469187
822.435409	-59.100452
822.661093	-58.802141
822.886902	-58.075933
823.112834	-56.867983
823.338891	-56.063081
823.565072	-55.638890
823.791377	-55.136173
824.017807	-54.897428
824.244361	-55.860004
824.471039	-58.985652
824.697843	-65.128876
824.924771	-64.421623
825.151824	-60.202284
825.379002	-58.106522
825.606306	-56.463666
825.833734	-55.073627
826.061288	-54.561011
826.288967	-54.843245
826.516772	-54.931343
826.744703	-54.400527
826.972759	-54.381909
827.200941	-55.930214
827.429249	-59.620647
827.657683	-63.337670
827.886243	-61.319209
828.114930	-58.660092
828.343743	-56.368243
828.572682	-54.541091
828.801748	-53.869123
829.030941	-54.560842
829.260260	-55.916023
829.489706	-56.242829
829.719280	-55.837696
829.948980	-56.421446
830.178808	-58.069571
830.408763	-58.975698
830.638845	-58.303423
830.869055	-56.975775
831.099393	-54.907637
831.329858	-52.869939
831.560451	-51.856524
831.791173	-52.129355
832.022022	-53.318709
832.252999	-54.408677
832.484105	-54.857971
832.715339	-55.360314
832.946702	-56.018121
833.178193	-56.280208
833.409813	-56.576550
833.641561	-57.222280
833.873439	-56.401681
834.105445	-54.059101
834.337581	-52.468427
834.569846	-52.192744
834.802241	-52.834996
835.034764	-53.726416
835.267418	-54.558360
835.500201	-55.347344
835.733114	-55.450264
835.966157	-54.678161
836.199329	-54.232448
836.432632	-54.619770
836.666065	-54.743908
836.899629	-53.547867
837.133323	-52.207143
837.367147	-51.627334
837.601102	-51.743907
837.835188	-52.271672
838.069405	-53.175977
838.303752	-54.367387
838.538231	-54.727011
838.772841	-53.685745
839.007582	-52.743405
839.242455	-52.634342
839.477459	-52.828962
839.712595	-52.458596
839.947863	-51.692888
840.183263	-51.196992
840.418794	-51.091729
840.654458	-51.358143
840.890254	-52.275819
841.126182	-53.992981
841.362242	-55.270494
841.598435	-54.388354
841.834761	-53.140332
842.071220	-52.758141
842.307811	-52.680077
842.544536	-52.189095
842.781393	-51.597061
843.018384	-51.163745
843.255508	-50.665325
843.492765	-50.313608
843.730156	-50.714585
843.967681	-51.878891
844.205339	-52.432156
844.443132	-51.610759
844.681058	-50.928019
844.919118	-50.844675
845.157313	-50.726048
845.395642	-50.500502
845.634105	-50.662420
845.872703	-50.839606
846.111436	-50.277343
846.350303	-49.772806
846.589306	-50.370958
846.828443	-51.853429
847.067716	-52.605445
847.307124	-52.321473
847.546667	-52.166286
847.786345	-51.657110
848.026160	-50.604708
848.266110	-50.133694
848.506195	-50.347245
848.746417	-50.001220
848.986775	-49.056913
849.227269	-48.867657
849.467899	-49.767863
849.708666	-50.875745
849.949569	-51.304376
850.190609	-51.488617
850.431785	-51.055436
850.673099	-49.641334
850.914549	-48.656170
851.156137	-48.709332
851.397861	-49.009586
851.639723	-48.680728
851.881723	-48.414793
852.123860	-48.947938
852.366135	-49.914209
852.608547	-50.665690
852.851098	-51.355467
853.093786	-51.386548
853.336613	-49.882290
853.579578	-48.448186
853.822681	-48.087473
854.065923	-48.388531
854.309304	-48.513363
854.552823	-48.514361
854.796481	-48.880839
855.040278	-49.343775
855.284215	-49.592872
855.528290	-50.049026
855.772505	-50.382242
856.016859	-49.429612
856.261353	-48.023181
856.505987	-47.394780
856.750760	-47.476292
856.995673	-47.679267
857.240727	-47.911410
857.485920	-48.392366
857.731254	-48.771109
857.976729	-48.811398
858.222343	-49.182771
858.468099	-50.035262
858.713995	-49.906956
858.960032	-48.551936
859.206211	-47.542125
859.452530	-47.088296
859.698991	-46.741963
859.945593	-46.609646
860.192336	-46.964542
860.439222	-47.385064
860.686248	-47.440962
860.933417	-47.868285
861.180728	-49.188269
861.428181	-49.997130
861.675776	-49.039902
861.923514	-47.948506
862.171394	-47.141450
862.419417	-46.339689
862.667582	-46.083960
862.915890	-46.718451
863.164342	-47.424335
863.412936	-47.491263
863.661674	-47.951769
863.910555	-49.057109
864.159579	-48.900960
864.408747	-47.564894
864.658059	-46.523408
864.907515	-45.470899
865.157114	-44.524656
865.406858	-44.530315
865.656746	-45.589079
865.906778	-46.701329
866.156955	-47.378755
866.407277	-48.670466
866.657743	-49.983502
866.908354	-49.219678
867.159110	-48.074977
867.410011	-47.034851
867.661057	-45.469964
867.912249	-44.497307
868.163586	-44.857362
868.415069	-45.925458
868.666697	-46.523031
868.918472	-47.056273
869.170392	-47.796010
869.422458	-47.287872
869.674671	-46.355342
869.927030	-46.163145
870.179536	-45.648858
870.432188	-44.576089
870.684987	-44.329786
870.937933	-45.205111
871.191026	-46.225068
871.444266	-46.962048
871.697653	-47.921066
871.951188	-47.692576
872.204870	-46.271200
872.458700	-45.698797
872.712677	-45.679778
872.966803	-44.991267
873.221076	-44.338781
873.475498	-44.594591
873.730068	-45.243713
873.984787	-45.765901
874.239654	-46.685584
874.494669	-47.305970
874.749834	-46.279453
875.005147	-45.376825
875.260610	-45.448473
875.516222	-45.387080
875.771983	-44.833779
876.027894	-44.706366
876.283954	-44.794276
876.540164	-44.621445
876.796524	-44.894893
877.053033	-45.671699
877.309693	-45.510972
877.566503	-44.817484
877.823464	-44.977576
878.080575	-45.457766
878.337837	-45.399839
878.595249	-45.483702
878.852813	-45.488877
879.110528	-44.713574
879.368393	-44.391933
879.626410	-45.058834
879.884579	-45.263104
880.142899	-44.739899
880.401371	-44.882890
880.659994	-45.153804
880.918770	-44.781486
881.177698	-44.763556
881.436778	-44.714394
881.696010	-43.661714
881.955395	-43.114649
882.214933	-43.815102
882.474623	-44.517131
882.734467	-44.643731
882.994463	-45.278036
883.254613	-45.453666
883.514916	-44.598701
883.775372	-44.467603
884.035982	-44.415415
884.296746	-43.257061
884.557664	-42.703999
884.818735	-43.364582
885.079961	-44.020387
885.341341	-44.478095
885.602876	-45.466595
885.864565	-45.184711
886.126409	-43.933103
886.388407	-43.770184
886.650561	-43.640211
886.912870	-42.648660
887.175334	-42.311228
887.437953	-42.758752
887.700728	-43.035615
887.963658	-43.670982
888.226745	-44.853713
888.489987	-44.373383
888.753385	-43.281492
889.016940	-43.213015
889.280651	-43.016476
889.544518	-42.442618
889.808543	-42.525545
890.072723	-42.721415
890.337061	-42.646376
890.601556	-43.385015
890.866208	-44.290325
891.131017	-43.545126
891.395984	-42.813597
891.661109	-42.675916
891.926391	-42.238093
892.191831	-42.045210
892.457429	-42.264182
892.723186	-41.863471
892.989100	-41.561223
893.255173	-42.254717
893.521405	-42.794653
893.787796	-42.575159
894.054345	-42.662474
894.321053	-42.511621
894.587921	-42.032563
894.854948	-42.210351
895.122134	-42.143579
895.389480	-41.295535
895.656986	-41.178980
895.924651	-41.735139
896.192477	-41.882600
896.460463	-42.113573
896.728609	-42.313203
896.996915	-41.578965
897.265382	-41.237004
897.534010	-41.523586
897.802799	-41.055260
898.071749	-40.561506
898.340860	-40.857549
898.610132	-41.071611
898.879566	-41.292505
899.149162	-41.961995
899.418919	-41.611720
899.688838	-40.831794
899.958919	-40.988976
900.229162	-41.032985
900.499568	-40.612371
900.770136	-40.683120
901.040867	-40.602694
901.311761	-40.321477
901.582817	-40.765593
901.854037	-40.909602
902.125420	-40.227405
902.396966	-40.186315
902.668676	-40.465738
902.940550	-40.355789
903.212587	-40.489070
903.484788	-40.276474
903.757153	-39.519447
904.029683	-39.519459
904.302377	-39.920496
904.575236	-39.782918
904.848259	-39.872666
905.121447	-40.158025
905.394800	-40.052085
905.668319	-40.220692
905.942002	-40.134563
906.215852	-39.224935
906.489866	-38.841513
906.764047	-39.051406
907.038393	-39.130908
907.312906	-39.401934
907.587584	-39.641675
907.862429	-39.352192
908.137441	-39.397382
908.412619	-39.523690
908.687964	-38.886460
908.963476	-38.414554
909.239155	-38.372291
909.515002	-38.370915
909.791015	-38.769386
910.067197	-39.190763
910.343546	-38.923605
910.620063	-38.869808
910.896748	-39.004908
911.173601	-38.568872
911.450623	-38.179668
911.727813	-37.936954
912.005171	-37.700427
912.282699	-38.051051
912.560395	-38.540851
912.838261	-38.338106
913.116296	-38.236762
913.394500	-38.250306
913.672874	-37.958052
913.951418	-37.871712
914.230131	-37.672265
914.509015	-37.306799
914.788068	-37.585526
915.067292	-37.966123
915.346687	-37.765081
915.626252	-37.683336
915.905988	-37.547642
916.185895	-37.399724
916.465973	-37.726249
916.746223	-37.657360
917.026644	-37.196392
917.307236	-37.224567
917.588000	-37.178426
917.868937	-36.996226
918.150045	-37.091513
918.431325	-36.969822
918.712778	-37.080510
918.994404	-37.723907
919.276202	-37.689168
919.558173	-37.221021
919.840317	-36.928786
920.122634	-36.534151
920.405125	-36.546217
920.687789	-36.772001
920.970627	-36.592348
921.253639	-36.739749
921.536824	-37.126745
921.820184	-37.017923
922.103718	-36.846329
922.387427	-36.509817
922.671310	-36.184581
922.955368	-36.452659
923.239601	-36.603838
923.524009	-36.385301
923.808592	-36.445944
924.093351	-36.489487
924.378285	-36.573277
924.663396	-36.719564
924.948682	-36.330082
925.234144	-36.076308
925.519782	-36.195064
925.805597	-36.040518
926.091589	-35.896023
926.377757	-35.829711
926.664102	-35.759336
926.950624	-36.128504
927.237323	-36.335770
927.524200	-36.015134
927.811255	-35.951371
928.098487	-35.966419
928.385897	-35.982897
928.673485	-36.090586
928.961251	-35.774706
929.249196	-35.594883
929.537319	-35.774518
929.825621	-35.606247
930.114102	-35.433629
930.402762	-35.414640
930.691601	-35.401897
930.980620	-35.717906
931.269818	-35.690254
931.559196	-35.210888
931.848753	-35.139729
932.138491	-35.209134
932.428409	-35.341778
932.718508	-35.559704
933.008787	-35.411242
933.299246	-35.452620
933.589887	-35.579208
933.880709	-35.164042
934.171712	-34.837969
934.462896	-34.709997
934.754262	-34.787673
935.045810	-35.143053
935.337539	-35.035577
935.629451	-34.771873
935.921545	-34.856583
936.213822	-34.884384
936.506281	-34.916634
936.798922	-34.822754
937.091747	-34.646730
937.384755	-34.819511
937.677946	-34.773416
937.971321	-34.419613
938.264879	-34.288963
938.558621	-34.341570
938.852547	-34.655755
939.146657	-34.788674
939.440952	-34.447446
939.735431	-34.326558
940.030095	-34.347616
940.324943	-34.292705
940.619977	-34.235392
940.915196	-34.106572
941.210600	-34.274163
941.506189	-34.484787
941.801965	-34.206769
942.097926	-33.928662
942.394074	-33.823110
942.690407	-33.878817
942.986927	-33.933105
943.283634	-33.641160
943.580527	-33.545743
943.877608	-33.785474
944.174875	-33.891506
944.472330	-33.844762
944.769972	-33.652045
945.067802	-33.650240
945.365820	-33.869240
945.664026	-33.720875
945.962420	-33.517151
946.261002	-33.532279
946.559773	-33.613927
946.858733	-33.622697
947.157881	-33.279612
947.457219	-33.102109
947.756746	-33.351707
948.056462	-33.498711
948.356368	-33.427375
948.656464	-33.223442
948.956749	-33.186661
949.257225	-33.344951
949.557891	-33.180647
949.858748	-32.989909
950.159796	-33.067402
950.461034	-33.211321
950.762463	-33.171067
951.064084	-32.782949
951.365896	-32.611583
951.667900	-32.837892
951.970095	-32.978584
952.272483	-32.906262
952.575063	-32.754775
952.877835	-32.782766
953.180799	-32.840198
953.483956	-32.590135
953.787307	-32.428553
954.090850	-32.549052
954.394586	-32.688270
954.698516	-32.521824
955.002640	-32.141728
955.306957	-32.077602
955.611469	-32.268643
955.916174	-32.282105
956.221074	-32.123710
956.526169	-32.050242
956.831458	-32.169749
957.136942	-32.165801
957.442622	-31.935149
957.748496	-31.884495
958.054567	-32.021998
958.360833	-31.991281
958.667294	-31.686411
958.973952	-31.477500
959.280806	-31.662290
959.587857	-31.880120
959.895104	-31.772124
960.202548	-31.609099
960.510189	-31.629803
960.818027	-31.713209
961.126062	-31.552117
961.434295	-31.356993
961.742726	-31.444923
962.051355	-31.503983
962.360182	-31.261944
962.669207	-30.943948
962.978431	-30.956395
963.287854	-31.219031
963.597475	-31.196018
963.907296	-30.964556
964.217315	-30.870975
964.527535	-30.939505
964.837954	-30.906782
965.148573	-30.745658
965.459392	-30.826146
965.770411	-30.983059
966.081630	-30.814773
966.393051	-30.430958
966.704672	-30.300057
967.016494	-30.554112
967.328517	-30.712053
967.640742	-30.613845
967.953169	-30.553017
968.265797	-30.624244
968.578627	-30.575356
968.891660	-30.346861
969.204895	-30.339665
969.518332	-30.521585
969.831972	-30.472838
970.145816	-30.146661
970.459862	-29.997564
970.774112	-30.206547
971.088565	-30.350755
971.403223	-30.249460
971.718084	-30.197566
972.033149	-30.295862
972.348419	-30.233441
972.663893	-29.946304
972.979572	-29.873496
973.295456	-30.059923
973.611546	-30.084683
973.927840	-29.843282
974.244340	-29.735269
974.561046	-29.898755
974.877958	-29.934475
975.195076	-29.748605
975.512401	-29.722032
975.829932	-29.873578
976.147670	-29.825932
976.465615	-29.527557
976.783767	-29.442179
977.102126	-29.606371
977.420693	-29.591014
977.739468	-29.393213
978.058451	-29.364445
978.377642	-29.532078
978.697041	-29.468266
979.016649	-29.241514
979.336466	-29.275328
979.656492	-29.462340
979.976727	-29.384609
980.297171	-29.076875
980.617825	-29.016221
980.938689	-29.124205
981.259763	-29.061298
981.581048	-28.940895
981.902542	-29.035311
982.224248	-29.165931
982.546164	-28.959104
982.868291	-28.737520
983.190630	-28.822231
983.513180	-28.966091
983.835942	-28.794991
984.158916	-28.567747
984.482101	-28.612923
984.805500	-28.682936
985.129110	-28.589213
985.452934	-28.566982
985.776970	-28.742051
986.101220	-28.723444
986.425683	-28.427462
986.750359	-28.334566
987.075250	-28.525437
987.400354	-28.587951
987.725673	-28.373923
988.051206	-28.300159
988.376954	-28.411687
988.702916	-28.378678
989.029094	-28.291105
989.355487	-28.412979
989.682095	-28.573787
990.008919	-28.352773
990.335959	-28.084064
990.663216	-28.159701
990.990688	-28.333782
991.318377	-28.249519
991.646283	-28.090504
991.974406	-28.176127
992.302746	-28.213865
992.631304	-28.122819
992.960079	-28.156503
993.289072	-28.341237
993.618283	-28.249143
993.947713	-27.922666
994.277361	-27.894696
994.607227	-28.092306
994.937313	-28.148719
995.267618	-28.014517
995.598142	-28.072665
995.928886	-28.140998
996.259849	-28.022638
996.591033	-27.960756
996.922437	-28.111460
997.254061	-28.136929
997.585906	-27.862733
997.917972	-27.775431
998.250260	-27.923852
998.582768	-27.996290
998.915498	-27.883002
999.248450	-27.939831
999.581624	-28.021325
999.915020	-27.855089
1000.248639	-27.691239
1000.582480	-27.784216
1000.916545	-27.875159
1001.250832	-27.684371
1001.585343	-27.595119
1001.920077	-27.694430
1002.255035	-27.724483
1002.590218	-27.611832
1002.925624	-27.689178
1003.261255	-27.796963
1003.597111	-27.604284
1003.933192	-27.385662
1004.269497	-27.444712
1004.606029	-27.586712
1004.942785	-27.498501
1005.279768	-27.483812
1005.616977	-27.570778
1005.954412	-27.529869
1006.292074	-27.372183
1006.629962	-27.473056
1006.968077	-27.620170
1007.306420	-27.449479
1007.644990	-27.217044
1007.983787	-27.260136
1008.322813	-27.412462
1008.662067	-27.417722
1009.001549	-27.473972
1009.341259	-27.493756
1009.681199	-27.318671
1010.021367	-27.128668
1010.361765	-27.282211
1010.702392	-27.431627
1011.043250	-27.287609
1011.384337	-27.110359
1011.725654	-27.193214
1012.067202	-27.287542
1012.408980	-27.318790
1012.750989	-27.394913
1013.093230	-27.351478
1013.435702	-27.082885
1013.778405	-26.985266
1014.121341	-27.239052
1014.464508	-27.380373
1014.807908	-27.230197
1015.151540	-27.153393
1015.495405	-27.260198
1015.839503	-27.249021
1016.183835	-27.233797
1016.528400	-27.288482
1016.873198	-27.194188
1017.218231	-26.961591
1017.563498	-27.037789
1017.908999	-27.306840
1018.254735	-27.300071
1018.600707	-27.098320
1018.946913	-27.096226
1019.293354	-27.126826
1019.640032	-27.023617
1019.986945	-27.017768
1020.334094	-27.071039
1020.681480	-26.944403
1021.029102	-26.859097
1021.376961	-27.061407
1021.725058	-27.141506
1022.073391	-26.914353
1022.421962	-26.784806
1022.770772	-26.889336
1023.119819	-26.854226
1023.469104	-26.763965
1023.818628	-26.811984
1024.168391	-26.835920
1024.518393	-26.720843
1024.868634	-26.794765
1025.219115	-26.897166
1025.569836	-26.714257
1025.920796	-26.506832
1026.271997	-26.623863
1026.623438	-26.727537
1026.975121	-26.637248
1027.327044	-26.590902
1027.679208	-26.632817
1028.031614	-26.553104
1028.384262	-26.547149
1028.737152	-26.616740
1029.090284	-26.472683
1029.443659	-26.255100
1029.797276	-26.375970
1030.151137	-26.566433
1030.505240	-26.473659
1030.859587	-26.353013
1031.214178	-26.383567
1031.569013	-26.315496
1031.924093	-26.267585
1032.279417	-26.378818
1032.634985	-26.352730
1032.990799	-26.151449
1033.346858	-26.234516
1033.703162	-26.468735
1034.059712	-26.386171
1034.416509	-26.184050
1034.773551	-26.204486
1035.130841	-26.200636
1035.488377	-26.162342
1035.846160	-26.275647
1036.204190	-26.303844
1036.562468	-26.093235
1036.920994	-26.098730
1037.279768	-26.270722
1037.638790	-26.158586
1037.998061	-25.935677
1038.357581	-25.980343
1038.717350	-26.025584
1039.077368	-25.980462
1039.437636	-26.043775
1039.798154	-26.033006
1040.158922	-25.793119
1040.519940	-25.762605
1040.881209	-25.909117
1041.242729	-25.801052
1041.604501	-25.620093
1041.966524	-25.715700
1042.328798	-25.764467
1042.691325	-25.653222
1043.054103	-25.634768
1043.417135	-25.588734
1043.780419	-25.395545
1044.143956	-25.408705
1044.507746	-25.538740
1044.871791	-25.425544
1045.236088	-25.300790
1045.600641	-25.378096
1045.965447	-25.317212
1046.330508	-25.155033
1046.695824	-25.157098
1047.061395	-25.112640
1047.427222	-24.978037
1047.793304	-25.053103
1048.159642	-25.126215
1048.526237	-24.900270
1048.893088	-24.797574
1049.260196	-24.876858
1049.627561	-24.787479
1049.995183	-24.668078
1050.363063	-24.770957
1050.731201	-24.747464
1051.099597	-24.627273
1051.468251	-24.685007
1051.837164	-24.663599
1052.206336	-24.456209
1052.575767	-24.475044
1052.945458	-24.603457
1053.315409	-24.499009
1053.685619	-24.453533
1054.056090	-24.523604
1054.426821	-24.397191
1054.797814	-24.286177
1055.169067	-24.373264
1055.540582	-24.308996
1055.912359	-24.189564
1056.284398	-24.299206
1056.656698	-24.308468
1057.029262	-24.113900
1057.402088	-24.105738
1057.775177	-24.113104
1058.148530	-23.968672
1058.522146	-23.992246
1058.896027	-24.090792
1059.270171	-23.951038
1059.644580	-23.865189
1060.019254	-23.925830
1060.394193	-23.790403
1060.769397	-23.690554
1061.144867	-23.785900
1061.520602	-23.739739
1061.896604	-23.630505
1062.272872	-23.684615
1062.649407	-23.597423
1063.026210	-23.419271
1063.403279	-23.460417
1063.780616	-23.460717
1064.158221	-23.313846
1064.536094	-23.337966
1064.914235	-23.351363
1065.292645	-23.134622
1065.671325	-23.094194
1066.050273	-23.128610
1066.429491	-22.978253
1066.808979	-22.944197
1067.188738	-23.027415
1067.568766	-22.912464
1067.949066	-22.797722
1068.329636	-22.840395
1068.710478	-22.726011
1069.091592	-22.641238
1069.472977	-22.743043
1069.854635	-22.682476
1070.236565	-22.554716
1070.618768	-22.589524
1071.001243	-22.522244
1071.383993	-22.386702
1071.767016	-22.443638
1072.150313	-22.439504
1072.533884	-22.337052
1072.917730	-22.380083
1073.301850	-22.358628
1073.686246	-22.197814
1074.070917	-22.221552
1074.455864	-22.264710
1074.841087	-22.153323
1075.226586	-22.188717
1075.612362	-22.208029
1075.998415	-22.058090
1076.384745	-22.033126
1076.771353	-22.057942
1077.158238	-21.965545
1077.545401	-21.985678
1077.932843	-22.055163
1078.320564	-21.921797
1078.708564	-21.861829
1079.096842	-21.904180
1079.485401	-21.809373
1079.874240	-21.809530
1080.263358	-21.885120
1080.652757	-21.774820
1081.042438	-21.720066
1081.432399	-21.738306
1081.822641	-21.610848
1082.213166	-21.565455
1082.603972	-21.634181
1082.995061	-21.551323
1083.386433	-21.460049
1083.778087	-21.459953
1084.170025	-21.347069
1084.562246	-21.289138
1084.954751	-21.357915
1085.347541	-21.284943
1085.740615	-21.235687
1086.133973	-21.263935
1086.527617	-21.153568
1086.921546	-21.097226
1087.315761	-21.135348
1087.710262	-21.075194
1088.105050	-21.043588
1088.500124	-21.047133
1088.895485	-20.911029
1089.291134	-20.823376
1089.687070	-20.847325
1090.083294	-20.765373
1090.479806	-20.728487
1090.876607	-20.758056
1091.273696	-20.634131
1091.671075	-20.579440
1092.068744	-20.625774
1092.466702	-20.574397
1092.864950	-20.593829
1093.263489	-20.648421
1093.662319	-20.569583
1094.061440	-20.543780
1094.460852	-20.559375
1094.860555	-20.486958
1095.260551	-20.504067
1095.660840	-20.536847
1096.061421	-20.410514
1096.462295	-20.350915
1096.863462	-20.336394
1097.264923	-20.246103
1097.666678	-20.266128
1098.068727	-20.283857
1098.471071	-20.186600
1098.873710	-20.183596
1099.276644	-20.190441
1099.679874	-20.141627
1100.083400	-20.191900
1100.487222	-20.220046
1100.891340	-20.190887
1101.295756	-20.215227
1101.700468	-20.159752
1102.105478	-20.110706
1102.510787	-20.184989
1102.916393	-20.133197
1103.322298	-20.017999
1103.728502	-20.003240
1104.135005	-19.912816
1104.541807	-19.818676
1104.948909	-19.801849
1105.356312	-19.721293
1105.764015	-19.673200
1106.172019	-19.641616
1106.580324	-19.530557
1106.988931	-19.530588
1107.397840	-19.584192
1107.807051	-19.543475
1108.216564	-19.556810
1108.626380	-19.558984
1109.036500	-19.497462
1109.446923	-19.540294
1109.857649	-19.558652
1110.268680	-19.498242
1110.680016	-19.503013
1111.091657	-19.440478
1111.503602	-19.345501
1111.915854	-19.347565
1112.328411	-19.284828
1112.741275	-19.206069
1113.154445	-19.180523
1113.567922	-19.076908
1113.981706	-19.010124
1114.395798	-19.007633
1114.810198	-18.967342
1115.224906	-18.982782
1115.639923	-18.970848
1116.055249	-18.901191
1116.470884	-18.960049
1116.886829	-19.027666
1117.303084	-19.031073
1117.719650	-19.078599
1118.136526	-19.064466
1118.553713	-19.054981
1118.971212	-19.126314
1119.389022	-19.104868
1119.807145	-19.072985
1120.225580	-19.078983
1120.644328	-19.004811
1121.063389	-18.957143
1121.482763	-18.926418
1121.902452	-18.866700
1122.322454	-18.848857
1122.742771	-18.757116
1123.163404	-18.647418
1123.584351	-18.655722
1124.005614	-18.634214
1124.427193	-18.582993
1124.849089	-18.564907
1125.271301	-18.525420
1125.693830	-18.534551
1126.116677	-18.549430
1126.539842	-18.536493
1126.963324	-18.579664
1127.387126	-18.556695
1127.811246	-18.502046
1128.235685	-18.545238
1128.660444	-18.546533
1129.085522	-18.512233
1129.510922	-18.485802
1129.936641	-18.413268
1130.362682	-18.392348
1130.789044	-18.369697
1131.215728	-18.293221
1131.642734	-18.253344
1132.070063	-18.168294
1132.497714	-18.084679
1132.925689	-18.074819
1133.353987	-18.016329
1133.782610	-17.964887
1134.211556	-17.937888
1134.640827	-17.874791
1135.070424	-17.873075
1135.500345	-17.884975
1135.930593	-17.867557
1136.361166	-17.871127
1136.792067	-17.841746
1137.223294	-17.851054
1137.654848	-17.904411
1138.086730	-17.901351
1138.518940	-17.915405
1138.951479	-17.921740
1139.384346	-17.910303
1139.817543	-17.953966
1140.251069	-17.957148
1140.684925	-17.932536
1141.119111	-17.915052
1141.553628	-17.868594
1141.988475	-17.868763
1142.423655	-17.855087
1142.859166	-17.794370
1143.295009	-17.755354
1143.731185	-17.692027
1144.167694	-17.658613
1144.604536	-17.637187
1145.041711	-17.554221
1145.479221	-17.501640
1145.917065	-17.444093
1146.355245	-17.390340
1146.793759	-17.388010
1147.232609	-17.330206
1147.671795	-17.275980
1148.111317	-17.250472
1148.551177	-17.210654
1148.991373	-17.218384
1149.431907	-17.186192
1149.872779	-17.129590
1150.313989	-17.127581
1150.755538	-17.110606
1151.197426	-17.117502
1151.639653	-17.112491
1152.082220	-17.071086
1152.525128	-17.075089
1152.968376	-17.065610
1153.411966	-17.063729
1153.855897	-17.061466
1154.300169	-17.013032
1154.744784	-17.010457
1155.189742	-17.007266
1155.635042	-16.995957
1156.080687	-16.995605
1156.526674	-16.946213
1156.973007	-16.932615
1157.419683	-16.928761
1157.866705	-16.900230
1158.314072	-16.887952
1158.761786	-16.838400
1159.209845	-16.819126
1159.658251	-16.822019
1160.107004	-16.790982
1160.556104	-16.774321
1161.005553	-16.729353
1161.455349	-16.704692
1161.905494	-16.703008
1162.355989	-16.663473
1162.806832	-16.642345
1163.258026	-16.601569
1163.709570	-16.584077
1164.161464	-16.591697
1164.613710	-16.548831
1165.066307	-16.526881
1165.519256	-16.493864
1165.972558	-16.471748
1166.426212	-16.475343
1166.880219	-16.429088
1167.334580	-16.409447
1167.789295	-16.391212
1168.244364	-16.372710
1168.699788	-16.378201
1169.155567	-16.328450
1169.611702	-16.304218
1170.068193	-16.290297
1170.525041	-16.265518
1170.982245	-16.266903
1171.439807	-16.216148
1171.897726	-16.197635
1172.356004	-16.193707
1172.814640	-16.162844
1173.273635	-16.153562
1173.732989	-16.096093
1174.192703	-16.077141
1174.652778	-16.070136
1175.113213	-16.032345
1175.574009	-16.019999
1176.035167	-15.973212
1176.496687	-15.964693
1176.958569	-15.954103
1177.420814	-15.908204
1177.883422	-15.891012
1178.346394	-15.852290
1178.809730	-15.850249
1179.273430	-15.839712
1179.737496	-15.802793
1180.201927	-15.792905
1180.666723	-15.765833
1181.131886	-15.767121
1181.597416	-15.741376
1182.063312	-15.703869
1182.529576	-15.699078
1182.996209	-15.682837
1183.463209	-15.681546
1183.930579	-15.646915
1184.398317	-15.618470
1184.866426	-15.616684
1185.334904	-15.585102
1185.803754	-15.567808
1186.272974	-15.524860
1186.742566	-15.507302
1187.212529	-15.505156
1187.682865	-15.463359
1188.153574	-15.447887
1188.624656	-15.399303
1189.096112	-15.392629
1189.567942	-15.368491
1190.040147	-15.326323
1190.512726	-15.317089
1190.985681	-15.279413
1191.459012	-15.291519
1191.932720	-15.249174
1192.406804	-15.227624
1192.881265	-15.208065
1193.356104	-15.191411
1193.831322	-15.187967
1194.306918	-15.151139
1194.782893	-15.149245
1195.259248	-15.142757
1195.735982	-15.128965
1196.213097	-15.109939
1196.690593	-15.079322
1197.168471	-15.080043
1197.646730	-15.063768
1198.125371	-15.041684
1198.604395	-15.027619
1199.083803	-15.000220
1199.563594	-15.001563
1200.043769	-14.953952
1200.524329	-14.934321
1201.005273	-14.900416
1201.486604	-14.887862
1201.968320	-14.860888
1202.450422	-14.822498
1202.932912	-14.798262
1203.415789	-14.773028
1203.899054	-14.734298
1204.382707	-14.708844
1204.866748	-14.658579
1205.351179	-14.670026
1205.836000	-14.614404
1206.321211	-14.615523
1206.806812	-14.560341
1207.292805	-14.560510
1207.779189	-14.533995
1208.265965	-14.497244
1208.753134	-14.505258
1209.240696	-14.460443
1209.728651	-14.497887
1210.217000	-14.423592
1210.705744	-14.457160
1211.194883	-14.397761
1211.684417	-14.425431
1212.174347	-14.379381
1212.664673	-14.384090
1213.155396	-14.368845
1213.646516	-14.359981
1214.138034	-14.336999
1214.629951	-14.313242
1215.122266	-14.295580
1215.614980	-14.291596
1216.108095	-14.252398
1216.601609	-14.257768
1217.095524	-14.212478
1217.589841	-14.222898
1218.084559	-14.161765
1218.579679	-14.159427
1219.075202	-14.129111
1219.571128	-14.111102
1220.067458	-14.106982
1220.564191	-14.048686
1221.061330	-14.085749
1221.558874	-13.991079
1222.056823	-14.052086
1222.555178	-13.935609
1223.053940	-14.029698
1223.553109	-13.909444
1224.052686	-13.994170
1224.552671	-13.876095
1225.053065	-13.948969
1225.553867	-13.852392
1226.055079	-13.897179
1226.556702	-13.837755
1227.058735	-13.860886
1227.561179	-13.830505
1228.064035	-13.805106
1228.567303	-13.809188
1229.070983	-13.755904
1229.575077	-13.798065
1230.079585	-13.707900
1230.584506	-13.789438
1231.089842	-13.669882
1231.595594	-13.765232
1232.101761	-13.618528
1232.608345	-13.731366
1233.115345	-13.592626
1233.622762	-13.694461
1234.130597	-13.575514
1234.638851	-13.646691
1235.147523	-13.563652
1235.656615	-13.579098
1236.166126	-13.553334
1236.676058	-13.529071
1237.186411	-13.558783
1237.697185	-13.479654
1238.208381	-13.547051
1238.719999	-13.435360
1239.232040	-13.520448
1239.744505	-13.401601
1240.257394	-13.498793
1240.770708	-13.392812
1241.284446	-13.459369
1241.798610	-13.373103
1242.313201	-13.410743
1242.828218	-13.362526
1243.343662	-13.365951
1243.859534	-13.361190
1244.375834	-13.333681
1244.892563	-13.346769
1245.409721	-13.287763
1245.927309	-13.324794
1246.445327	-13.262211
1246.963777	-13.304184
1247.482657	-13.244966
1248.001970	-13.278985
1248.521716	-13.221062
1249.041894	-13.234892
1249.562506	-13.202306
1250.083553	-13.207136
1250.605034	-13.190115
1251.126950	-13.176708
1251.649302	-13.169348
1252.172091	-13.140796
1252.695316	-13.139310
1253.218979	-13.120205
1253.743079	-13.124450
1254.267619	-13.105195
1254.792597	-13.093712
1255.318015	-13.084909
1255.843874	-13.062267
1256.370173	-13.068694
1256.896913	-13.042763
1257.424095	-13.062578
1257.951720	-13.016631
1258.479787	-13.035305
1259.008298	-12.990191
1259.537254	-13.015259
1260.066654	-12.974810
1260.596499	-12.998780
1261.126790	-12.960478
1261.657527	-12.963755
1262.188711	-12.936661
1262.720342	-12.940624
1263.252422	-12.928307
1263.784950	-12.917678
1264.317928	-12.914128
1264.851355	-12.887037
1265.385232	-12.885766
1265.919560	-12.859403
1266.454340	-12.872215
1266.989572	-12.836842
1267.525256	-12.842527
1268.061394	-12.801772
1268.597985	-12.803951
1269.135031	-12.766346
1269.672531	-12.775407
1270.210487	-12.740137
1270.748899	-12.733781
1271.287768	-12.696287
1271.827094	-12.690902
1272.366877	-12.661309
1272.907119	-12.657269
1273.447820	-12.635037
1273.988981	-12.619714
1274.530601	-12.593455
1275.072683	-12.580435
1275.615226	-12.567599
1276.158230	-12.552827
1276.701697	-12.541854
1277.245627	-12.518550
1277.790021	-12.503042
1278.334879	-12.479500
1278.880202	-12.477420
1279.425991	-12.451433
1279.972245	-12.442894
1280.518966	-12.409804
1281.066155	-12.399137
1281.613811	-12.366950
1282.161936	-12.366650
1282.710529	-12.334808
1283.259593	-12.324218
1283.809126	-12.288199
1284.359131	-12.280640
1284.909607	-12.251574
1285.460555	-12.249765
1286.011976	-12.222147
1286.563870	-12.210189
1287.116237	-12.181903
1287.669080	-12.176547
1288.222397	-12.158315
1288.776191	-12.152399
1289.330460	-12.133143
1289.885207	-12.118293
1290.440431	-12.100218
1290.996133	-12.094206
1291.552314	-12.084901
1292.108975	-12.072050
1292.666115	-12.058397
1293.223737	-12.041710
1293.781839	-12.032353
1294.340424	-12.024799
1294.899491	-12.019857
1295.459041	-12.002845
1296.019075	-11.993233
1296.579593	-11.980072
1297.140597	-11.977897
1297.702086	-11.970637
1298.264061	-11.967679
1298.826524	-11.950575
1299.389474	-11.945382
1299.952912	-11.939695
1300.516839	-11.940674
1301.081255	-11.933177
1301.646162	-11.929414
1302.211559	-11.914813
1302.777448	-11.915247
1303.343829	-11.914395
1303.910702	-11.912579
1304.478069	-11.905010
1305.045930	-11.899979
1305.614285	-11.891380
1306.183136	-11.896125
1306.752483	-11.895806
1307.322326	-11.890057
1307.892666	-11.884991
1308.463504	-11.880668
1309.034841	-11.882140
1309.606677	-11.885548
1310.179012	-11.883744
1310.751849	-11.875342
1311.325186	-11.875516
1311.899025	-11.873041
1312.473366	-11.881390
1313.048211	-11.874316
1313.623559	-11.872671
1314.199412	-11.862321
1314.775770	-11.868307
1315.352634	-11.863930
1315.930004	-11.869085
1316.507881	-11.849804
1317.086266	-11.854175
1317.665159	-11.841890
1318.244562	-11.851127
1318.824474	-11.838940
1319.404897	-11.837425
1319.985831	-11.817376
1320.567276	-11.829412
1321.149234	-11.814427
1321.731706	-11.821750
1322.314691	-11.801533
1322.898190	-11.800916
1323.482205	-11.790736
1324.066736	-11.800795
1324.651783	-11.782240
1325.237347	-11.783165
1325.823430	-11.765182
1326.410031	-11.769274
1326.997151	-11.763707
1327.584791	-11.758964
1328.172952	-11.741292
1328.761634	-11.737224
1329.350839	-11.729877
1329.940566	-11.727044
1330.530817	-11.716707
1331.121592	-11.698261
1331.712891	-11.692230
1332.304716	-11.684337
1332.897068	-11.680333
1333.489946	-11.661216
1334.083352	-11.652779
1334.677287	-11.635584
1335.271750	-11.639941
1335.866744	-11.622163
1336.462268	-11.615211
1337.058323	-11.594846
1337.654910	-11.597019
1338.252029	-11.585312
1338.849682	-11.583972
1339.447869	-11.562305
1340.046591	-11.559523
1340.645848	-11.553907
1341.245641	-11.552220
1341.845972	-11.539637
1342.446840	-11.528641
1343.048246	-11.523462
1343.650191	-11.521756
1344.252677	-11.518486
1344.855702	-11.500442
1345.459269	-11.498219
1346.063379	-11.488483
1346.668030	-11.494204
1347.273226	-11.478006
1347.878965	-11.472798
1348.485250	-11.461210
1349.092080	-11.469768
1349.699456	-11.459089
1350.307380	-11.455710
1350.915851	-11.444271
1351.524871	-11.448310
1352.134441	-11.450465
1352.744560	-11.443815
1353.355231	-11.439239
1353.966453	-11.435196
1354.578227	-11.445625
1355.190555	-11.439269
1355.803436	-11.440489
1356.416872	-11.429435
1357.030863	-11.443540
1357.645411	-11.439847
1358.260515	-11.442670
1358.876177	-11.433109
1359.492397	-11.440295
1360.109176	-11.446508
1360.726516	-11.445901
1361.344416	-11.444028
1361.962877	-11.441953
1362.581901	-11.457754
1363.201487	-11.454958
1363.821637	-11.461743
1364.442352	-11.453656
1365.063632	-11.472775
1365.685478	-11.475601
1366.307891	-11.481660
1366.930871	-11.479996
1367.554420	-11.490094
1368.178538	-11.506835
1368.803226	-11.505848
1369.428485	-11.514533
1370.054315	-11.514861
1370.680717	-11.539863
1371.307693	-11.538888
1371.935242	-11.548216
1372.563366	-11.549770
1373.192065	-11.568801
1373.821341	-11.579642
1374.451193	-11.577600
1375.081623	-11.590386
1375.712632	-11.595409
1376.344221	-11.619778
1376.976389	-11.610654
1377.609139	-11.624155
1378.242470	-11.631973
1378.876384	-11.648414
1379.510881	-11.654160
1380.145963	-11.651828
1380.781629	-11.674078
1381.417881	-11.679146
1382.054720	-11.696271
1382.692147	-11.687801
1383.330161	-11.711128
1383.968765	-11.722944
1384.607959	-11.730307
1385.247743	-11.738927
1385.888119	-11.742868
1386.529087	-11.774425
1387.170648	-11.768719
1387.812804	-11.784390
1388.455554	-11.789433
1389.098899	-11.812451
1389.742842	-11.822990
1390.387381	-11.818815
1391.032519	-11.844950
1391.678256	-11.849637
1392.324592	-11.872833
1392.971529	-11.864536
1393.619068	-11.885098
1394.267208	-11.905071
1394.915952	-11.905735
1395.565300	-11.921228
1396.215253	-11.920161
1396.865812	-11.954551
1397.516977	-11.949851
1398.168749	-11.960209
1398.821130	-11.978488
1399.474120	-11.990432
1400.127719	-12.012241
1400.781930	-12.001750
1401.436752	-12.036630
1402.092186	-12.046036
1402.748234	-12.056926
1403.404897	-12.069581
1404.062174	-12.080355
1404.720067	-12.116729
1405.378577	-12.107101
1406.037705	-12.133079
1406.697451	-12.150973
1407.357817	-12.169350
1408.018803	-12.187313
1408.680410	-12.188174
1409.342639	-12.234187
1410.005492	-12.236289
1410.668968	-12.252945
1411.333068	-12.272545
1411.997795	-12.289094
1412.663147	-12.317510
1413.329127	-12.306890
1413.995736	-12.345734
1414.662973	-12.362202
1415.330840	-12.371295
1415.999339	-12.393927
1416.668469	-12.404120
1417.338232	-12.444604
1418.008628	-12.437447
1418.679659	-12.461060
1419.351325	-12.495216
1420.023628	-12.500424
1420.696568	-12.528422
1421.370145	-12.535952
1422.044362	-12.577098
1422.719219	-12.587998
1423.394717	-12.592163
1424.070856	-12.638452
1424.747638	-12.646573
1425.425064	-12.674095
1426.103134	-12.692846
1426.781850	-12.727334
1427.461212	-12.766605
1428.141221	-12.765696
1428.821878	-12.816970
1429.503185	-12.844253
1430.185141	-12.860446
1430.867749	-12.896453
1431.551008	-12.921691
1432.234920	-12.972417
1432.919486	-12.984545
1433.604707	-13.023637
1434.290583	-13.079465
1434.977116	-13.086512
1435.664307	-13.125657
1436.352156	-13.156614
1437.040664	-13.187511
1437.729833	-13.214822
1438.419663	-13.234682
1439.110156	-13.298497
1439.801312	-13.319303
1440.493132	-13.347006
1441.185617	-13.407571
1441.878768	-13.426402
1442.572586	-13.454729
1443.267072	-13.476857
1443.962228	-13.509148
1444.658053	-13.537053
1445.354549	-13.542205
1446.051717	-13.603050
1446.749558	-13.638285
1447.448073	-13.657385
1448.147263	-13.717744
1448.847128	-13.749110
1449.547671	-13.774000
1450.248891	-13.792970
1450.950789	-13.815895
1451.653368	-13.843636
1452.356627	-13.838354
1453.060568	-13.882316
1453.765192	-13.931620
1454.470500	-13.947694
1455.176492	-14.016060
1455.883170	-14.071925
1456.590534	-14.104575
1457.298586	-14.142543
1458.007327	-14.166861
1458.716758	-14.188356
1459.426880	-14.178663
1460.137693	-14.191580
1460.849199	-14.231030
1461.561398	-14.235077
1462.274293	-14.294357
1462.987883	-14.380965
1463.702170	-14.431383
1464.417155	-14.518296
1465.132838	-14.598295
1465.849222	-14.642029
1466.566306	-14.672685
1467.284093	-14.685599
1468.002582	-14.693798
1468.721775	-14.672758
1469.441674	-14.673155
1470.162278	-14.716756
1470.883590	-14.735867
1471.605609	-14.808422
1472.328338	-14.929425
1473.051777	-15.009390
1473.775928	-15.123651
1474.500790	-15.237643
1475.226367	-15.282094
1475.952657	-15.311260
1476.679663	-15.306559
1477.407386	-15.254147
1478.135826	-15.187380
1478.864985	-15.127848
1479.594863	-15.098977
1480.325463	-15.084615
1481.056784	-15.129637
1481.788828	-15.242792
1482.521597	-15.351771
1483.255090	-15.508927
1483.989309	-15.684023
1484.724256	-15.771311
1485.459931	-15.834708
1486.196336	-15.835220
1486.933471	-15.699159
1487.671337	-15.533183
1488.409937	-15.328163
1489.149270	-15.065659
1489.889337	-14.845261
1490.630141	-14.656948
1491.371682	-14.493584
1492.113961	-14.413278
1492.856979	-14.399395
1493.600738	-14.449663
1494.345238	-14.585141
1495.090481	-14.799660
1495.836467	-15.081305
1496.583198	-15.421060
1497.330675	-15.817472
1498.078899	-16.220117
1498.827872	-16.581853
1499.577593	-16.895623
1500.328065	-17.074631
1501.079289	-17.093225
1501.831265	-17.019162
1502.583995	-16.829025
1503.337480	-16.583768
1504.091721	-16.399910
1504.846719	-16.244517
1505.602475	-16.175732
1506.358991	-16.265892
1507.116268	-16.438594
1507.874306	-16.740735
1508.633108	-17.185337
1509.392673	-17.623790
1510.153004	-18.027115
1510.914101	-18.258799
1511.675965	-18.062845
1512.438599	-17.461917
1513.202002	-16.556772
1513.966176	-15.424863
1514.731122	-14.282216
1515.496842	-13.215807
1516.263336	-12.214487
1517.030607	-11.356937
1517.798654	-10.627020
1518.567479	-9.997881
1519.337083	-9.513209
1520.107468	-9.133513
1520.878634	-8.855763
1521.650584	-8.706858
1522.423317	-8.644178
1523.196836	-8.689640
1523.971141	-8.851022
1524.746233	-9.096086
1525.522115	-9.465848
1526.298786	-9.948407
1527.076249	-10.535885
1527.854504	-11.279199
1528.633553	-12.146078
1529.413397	-13.161353
1530.194037	-14.337536
1530.975474	-15.560066
1531.757709	-16.723154
1532.540745	-17.426872
1533.324581	-17.306784
1534.109220	-16.391788
1534.894662	-15.008543
1535.680909	-13.563462
1536.467961	-12.191263
1537.255821	-10.967707
1538.044489	-9.904087
1538.833967	-8.982265
1539.624256	-8.202313
1540.415357	-7.543550
1541.207271	-7.001875
1542.000000	-6.565332
1542.793545	-6.226321
1543.587907	-5.985476
1544.383087	-5.826657
1545.179088	-5.757567
1545.975909	-5.771055
1546.773552	-5.856355
1547.572019	-6.029237
1548.371311	-6.270951
1549.171428	-6.584520
1549.972373	-6.982146
1550.774147	-7.438475
1551.576751	-7.971755
1552.380185	-8.578774
1553.184453	-9.237462
1553.989554	-9.968576
1554.795490	-10.745536
1555.602263	-11.548595
1556.409873	-12.368703
1557.218322	-13.143741
1558.027612	-13.830713
1558.837743	-14.358366
1559.648717	-14.663992
1560.460536	-14.738020
1561.273200	-14.569294
1562.086710	-14.232833
1562.901069	-13.799287
1563.716278	-13.292574
1564.532337	-12.795994
1565.349249	-12.323537
1566.167014	-11.874654
1566.985634	-11.494695
1567.805111	-11.162760
1568.625444	-10.887577
1569.446637	-10.680801
1570.268690	-10.527116
1571.091605	-10.440183
1571.915382	-10.406128
1572.740024	-10.432608
1573.565532	-10.518527
1574.391907	-10.644127
1575.219150	-10.834075
1576.047262	-11.062253
1576.876246	-11.325319
1577.706103	-11.638879
1578.536833	-11.967916
1579.368439	-12.326619
1580.200922	-12.700911
1581.034282	-13.078399
1581.868522	-13.463159
1582.703643	-13.823789
1583.539646	-14.181517
1584.376532	-14.502773
1585.214304	-14.779332
1586.052962	-15.033839
1586.892508	-15.216323
1587.732943	-15.357459
1588.574269	-15.445763
1589.416487	-15.474642
1590.259599	-15.467924
1591.103605	-15.404396
1591.948508	-15.327437
1592.794309	-15.214046
1593.641009	-15.082397
1594.488609	-14.961478
1595.337112	-14.817837
1596.186518	-14.694130
1597.036829	-14.573224
1597.888047	-14.462985
1598.740172	-14.370042
1599.593207	-14.276958
1600.447153	-14.214356
1601.302010	-14.144894
1602.157782	-14.092581
1603.014469	-14.055855
1603.872072	-14.015835
1604.730593	-13.999631
1605.590034	-13.981789
1606.450397	-13.987761
1607.311681	-13.997363
1608.173890	-14.018078
1609.037024	-14.063209
1609.901085	-14.100332
1610.766075	-14.161269
1611.631995	-14.217341
1612.498846	-14.280794
1613.366630	-14.339743
1614.235349	-14.387495
1615.105004	-14.441333
1615.975596	-14.464915
1616.847128	-14.494266
1617.719600	-14.503768
1618.593014	-14.508404
1619.467372	-14.506291
1620.342675	-14.494351
1621.218924	-14.495079
1622.096122	-14.477913
1622.974270	-14.481988
1623.853369	-14.481595
1624.733420	-14.495014
1625.614427	-14.516773
1626.496389	-14.546086
1627.379308	-14.598854
1628.263187	-14.644226
1629.148026	-14.717663
1630.033828	-14.785179
1630.920593	-14.867301
1631.808324	-14.945931
1632.697022	-15.026007
1633.586688	-15.111874
1634.477324	-15.178188
1635.368932	-15.257605
1636.261514	-15.314369
1637.155070	-15.380069
1638.049602	-15.426330
1638.945113	-15.478826
1639.841603	-15.527989
1640.739075	-15.569666
1641.637529	-15.625090
1642.536968	-15.669651
1643.437393	-15.735362
1644.338806	-15.784932
1645.241209	-15.857678
1646.144602	-15.920851
1647.048988	-15.991820
1647.954368	-16.058908
1648.860744	-16.121641
1649.768118	-16.189250
1650.676491	-16.234596
1651.585865	-16.292624
1652.496241	-16.326932
1653.407621	-16.373931
1654.320008	-16.395367
1655.233401	-16.428500
1656.147804	-16.448717
1657.063218	-16.470033
1657.979645	-16.488828
1658.897085	-16.503277
1659.815542	-16.527927
1660.735016	-16.533648
1661.655509	-16.553872
1662.577023	-16.552722
1663.499560	-16.567515
1664.423121	-16.554884
1665.347709	-16.555019
1666.273324	-16.536237
1667.199969	-16.522095
1668.127645	-16.492880
1669.056353	-16.462553
1669.986097	-16.431452
1670.916877	-16.391213
1671.848695	-16.357600
1672.781553	-16.311442
1673.715452	-16.280418
1674.650395	-16.229363
1675.586383	-16.192165
1676.523418	-16.134038
1677.461501	-16.091194
1678.400635	-16.026991
1679.340821	-15.975935
1680.282061	-15.910039
1681.224357	-15.855917
1682.167710	-15.789478
1683.112122	-15.729927
1684.057595	-15.664816
1685.004132	-15.603866
1685.951732	-15.541274
1686.900400	-15.478914
1687.850135	-15.419568
1688.800940	-15.355288
1689.752818	-15.294924
1690.705768	-15.227622
1691.659795	-15.169065
1692.614898	-15.101505
1693.571081	-15.043973
1694.528345	-14.977878
1695.486691	-14.924640
1696.446122	-14.860384
1697.406640	-14.807134
1698.368245	-14.743146
1699.330941	-14.692295
1700.294729	-14.630002
1701.259611	-14.578690
1702.225588	-14.517423
1703.192664	-14.470061
1704.160838	-14.413378
1705.130114	-14.367549
1706.100493	-14.311597
1707.071977	-14.267686
1708.044568	-14.215083
1709.018268	-14.173444
1709.993079	-14.123538
1710.969003	-14.084929
1711.946041	-14.038160
1712.924196	-14.001160
1713.903469	-13.956559
1714.883862	-13.922620
1715.865378	-13.880958
1716.848017	-13.847860
1717.831783	-13.807000
1718.816677	-13.775627
1719.802701	-13.737421
1720.789857	-13.707412
1721.778147	-13.670167
1722.767573	-13.641484
1723.758136	-13.606691
1724.749840	-13.579687
1725.742685	-13.546583
1726.736673	-13.521003
1727.731808	-13.489949
1728.728090	-13.464944
1729.725521	-13.434737
1730.724105	-13.410493
1731.723842	-13.382858
1732.724735	-13.359803
1733.726785	-13.333786
1734.729995	-13.311182
1735.734366	-13.287301
1736.739902	-13.264903
1737.746603	-13.241739
1738.754472	-13.218680
1739.763510	-13.197318
1740.773721	-13.174750
1741.785105	-13.154629
1742.797665	-13.131649
1743.811403	-13.113216
1744.826321	-13.091318
1745.842422	-13.074385
1746.859706	-13.052620
1747.878177	-13.036598
1748.897835	-13.016210
1749.918685	-13.001486
1750.940726	-12.982620
1751.963963	-12.968774
1752.988395	-12.952335
1754.014027	-12.939358
1755.040860	-12.924634
1756.068895	-12.911276
1757.098135	-12.898356
1758.128583	-12.885382
1759.160240	-12.874469
1760.193109	-12.861720
1761.227191	-12.852486
1762.262488	-12.840474
1763.299004	-12.832385
1764.336740	-12.820810
1765.375697	-12.813206
1766.415880	-12.802959
1767.457288	-12.795784
1768.499926	-12.786860
1769.543794	-12.779574
1770.588895	-12.772663
1771.635231	-12.765817
1772.682805	-12.760431
1773.731619	-12.752945
1774.781674	-12.748086
1775.832973	-12.740774
1776.885519	-12.736760
1777.939312	-12.730403
1778.994357	-12.726861
1780.050654	-12.722124
1781.108207	-12.718766
1782.167017	-12.715195
1783.227087	-12.710756
1784.288418	-12.707898
1785.351013	-12.703523
1786.414875	-12.702454
1787.480006	-12.699003
1788.546407	-12.698570
1789.614082	-12.695883
1790.683032	-12.695611
1791.753259	-12.694675
1792.824767	-12.694515
1793.897557	-12.694850
1794.971632	-12.693818
1796.046994	-12.694784
1797.123645	-12.694151
1798.201588	-12.696844
1799.280824	-12.698253
1800.361357	-12.701418
1801.443188	-12.703479
1802.526320	-12.704998
1803.610756	-12.707339
1804.696497	-12.708393
1805.783546	-12.712116
1806.871906	-12.713916
1807.961578	-12.717892
1809.052565	-12.720689
1810.144870	-12.724529
1811.238494	-12.729006
1812.333441	-12.732648
1813.429713	-12.738261
1814.527311	-12.742463
1815.626239	-12.748494
1816.726499	-12.753843
1817.828094	-12.759156
1818.931025	-12.766293
1820.035295	-12.771597
1821.140906	-12.780342
1822.247862	-12.785271
1823.356165	-12.792569
1824.465816	-12.797507
1825.576819	-12.803397
1826.689175	-12.810685
1827.802888	-12.816098
1828.917960	-12.825026
1830.034394	-12.829855
1831.152191	-12.837943
1832.271354	-12.842558
1833.391887	-12.848695
1834.513790	-12.854113
1835.637068	-12.859148
1836.761722	-12.865508
1837.887755	-12.870178
1839.015169	-12.876308
1840.143968	-12.881151
1841.274153	-12.887211
1842.405727	-12.892542
1843.538693	-12.899079
1844.673053	-12.904294
1845.808810	-12.911274
1846.945966	-12.916498
1848.084525	-12.923339
1849.224488	-12.930005
1850.365858	-12.936391
1851.508638	-12.945614
1852.652831	-12.951831
1853.798438	-12.962363
1854.945463	-12.969965
1856.093909	-12.980128
1857.243777	-12.990609
1858.395071	-12.999460
1859.547794	-13.012207
1860.701947	-13.021389
1861.857533	-13.033956
1863.014556	-13.044678
1864.173018	-13.055353
1865.332922	-13.068469
1866.494270	-13.078677
1867.657065	-13.091555
1868.821309	-13.102351
1869.987006	-13.113789
1871.154158	-13.126974
1872.322768	-13.138134
1873.492839	-13.150687
1874.664373	-13.161480
1875.837373	-13.171508
1877.011841	-13.182650
1878.187782	-13.192120
1879.365197	-13.202898
1880.544089	-13.213670
1881.724460	-13.222868
1882.906315	-13.232862
1884.089655	-13.241273
1885.274483	-13.249795
1886.460803	-13.259793
1887.648616	-13.268767
1888.837927	-13.279953
1890.028736	-13.291290
1891.221049	-13.300850
1892.414866	-13.312364
1893.610192	-13.323030
1894.807028	-13.334675
1896.005379	-13.347585
1897.205246	-13.357826
1898.406633	-13.370804
1899.609542	-13.383608
1900.813977	-13.396584
1902.019940	-13.411599
1903.227434	-13.425577
1904.436462	-13.439674
1905.647028	-13.454475
1906.859133	-13.468028
1908.072781	-13.483089
1909.287976	-13.498333
1910.504719	-13.511914
1911.723013	-13.525869
1912.942863	-13.538743
1914.164270	-13.551197
1915.387238	-13.564342
1916.611770	-13.576613
1917.837868	-13.589752
1919.065536	-13.603466
1920.294777	-13.615097
1921.525594	-13.626533
1922.757989	-13.637648
1923.991967	-13.648272
1925.227529	-13.658947
1926.464679	-13.668643
1927.703420	-13.677680
1928.943755	-13.687302
1930.185688	-13.695441
1931.429221	-13.703195
1932.674356	-13.711880
1933.921099	-13.719379
1935.169451	-13.726535
1936.419415	-13.733212
1937.670996	-13.740472
1938.924195	-13.748457
1940.179017	-13.755781
1941.435463	-13.762148
1942.693538	-13.770023
1943.953245	-13.777782
1945.214586	-13.784748
1946.477566	-13.791955
1947.742186	-13.798493
1949.008451	-13.804570
1950.276363	-13.811323
1951.545926	-13.818073
1952.817143	-13.825477
1954.090017	-13.832345
1955.364551	-13.838173
1956.640749	-13.844052
1957.918615	-13.849497
1959.198150	-13.854276
1960.479359	-13.860083
1961.762244	-13.865429
1963.046810	-13.869447
1964.333059	-13.873128
1965.620995	-13.875304
1966.910621	-13.876005
1968.201940	-13.877093
1969.494956	-13.877832
1970.789672	-13.877393
1972.086091	-13.876388
1973.384217	-13.872859
1974.684053	-13.867068
1975.985602	-13.861958
1977.288869	-13.857353
1978.593855	-13.852979
1979.900566	-13.848926
1981.209003	-13.844075
1982.519171	-13.837656
1983.831073	-13.830852
1985.144712	-13.822681
1986.460093	-13.813810
1987.777217	-13.806021
1989.096089	-13.799959
1990.416713	-13.795355
1991.739092	-13.791657
1993.063228	-13.787569
1994.389127	-13.781612
1995.716791	-13.774335
1997.046223	-13.766572
1998.377428	-13.759182
1999.710409	-13.753368
2001.045169	-13.749326
2002.381713	-13.746266
2003.720043	-13.744389
2005.060163	-13.741957
2006.402077	-13.736704
2007.745788	-13.727984
2009.091301	-13.718440
2010.438618	-13.710654
2011.787743	-13.705964
2013.138680	-13.704067
2014.491433	-13.702939
2015.846005	-13.700740
2017.202399	-13.696977
2018.560621	-13.690028
2019.920673	-13.677673
2021.282558	-13.658505
2022.646281	-13.633462
2024.011846	-13.604281
2025.379256	-13.572934
2026.748515	-13.542140
2028.119626	-13.515427
2029.492594	-13.496458
2030.867422	-13.487350
2032.244114	-13.488189
2033.622673	-13.497031
2035.003104	-13.510657
2036.385411	-13.525318
2037.769597	-13.535588
2039.155665	-13.535105
2040.543621	-13.520192
2041.933467	-13.491646
2043.325208	-13.451502
2044.718847	-13.402477
2046.114389	-13.349315
2047.511837	-13.297669
2048.911195	-13.251996
2050.312467	-13.215672
2051.715657	-13.190736
2053.120769	-13.177096
2054.527807	-13.173038
2055.936775	-13.177714
2057.347677	-13.189443
2058.760516	-13.205771
2060.175297	-13.224389
2061.592025	-13.243323
2063.010701	-13.260629
2064.431332	-13.274665
2065.853921	-13.285347
2067.278472	-13.293049
2068.704988	-13.298161
2070.133475	-13.301234
2071.563936	-13.302835
2072.996375	-13.303342
2074.430796	-13.302902
2075.867204	-13.301337
2077.305603	-13.297438
2078.745996	-13.290353
2080.188389	-13.279772
2081.632784	-13.265501
2083.079187	-13.246828
2084.527601	-13.222959
2085.978030	-13.193514
2087.430480	-13.158005
2088.884954	-13.117470
2090.341455	-13.074683
2091.799990	-13.033127
2093.260561	-12.993986
2094.723173	-12.958493
2096.187831	-12.929210
2097.654538	-12.909404
2099.123300	-12.901065
2100.594119	-12.902898
2102.067001	-12.914755
2103.541950	-12.935975
2105.018971	-12.963267
2106.498067	-12.992027
2107.979243	-13.016859
2109.462503	-13.033602
2110.947853	-13.039380
2112.435295	-13.033537
2113.924836	-13.018181
2115.416478	-12.997079
2116.910227	-12.975523
2118.406087	-12.957231
2119.904063	-12.943907
2121.404158	-12.937640
2122.906378	-12.937810
2124.410727	-12.941620
2125.917210	-12.947088
2127.425831	-12.952882
2128.936594	-12.959352
2130.449505	-12.964581
2131.964567	-12.965088
2133.481786	-12.960553
2135.001166	-12.952780
2136.522711	-12.943743
2138.046427	-12.935775
2139.572317	-12.930281
2141.100388	-12.928511
2142.630642	-12.930433
2144.163085	-12.934335
2145.697722	-12.939068
2147.234558	-12.944059
2148.773596	-12.947931
2150.314842	-12.951868
2151.858301	-12.958411
2153.403977	-12.967812
2154.951875	-12.978588
2156.502000	-12.989417
2158.054357	-13.000393
2159.608950	-13.012101
2161.165785	-13.023914
2162.724866	-13.034825
2164.286198	-13.045625
2165.849786	-13.057228
2167.415635	-13.068571
2168.983749	-13.078694
2170.554134	-13.087883
2172.126795	-13.096320
2173.701737	-13.102776
2175.278964	-13.107778
2176.858481	-13.112580
2178.440294	-13.117030
2180.024408	-13.120577
2181.610827	-13.124720
2183.199557	-13.131463
2184.790602	-13.139655
2186.383968	-13.148658
2187.979660	-13.160581
2189.577683	-13.176399
2191.178041	-13.193782
2192.780741	-13.212099
2194.385787	-13.231919
2195.993185	-13.253553
2197.602939	-13.276887
2199.215054	-13.300778
2200.829537	-13.324975
2202.446392	-13.349803
2204.065624	-13.374836
2205.687239	-13.401111
2207.311242	-13.427022
2208.937638	-13.450811
2210.566433	-13.474222
2212.197631	-13.498080
2213.831239	-13.520702
2215.467261	-13.541396
2217.105703	-13.562190
2218.746570	-13.583685
2220.389867	-13.604705
2222.035601	-13.625361
2223.683776	-13.646840
2225.334398	-13.669786
2226.987472	-13.692382
2228.643004	-13.713978
2230.300999	-13.735848
2231.961463	-13.759207
2233.624402	-13.784572
2235.289820	-13.810545
2236.957723	-13.837116
2238.628118	-13.865550
2240.301009	-13.897159
2241.976402	-13.930792
2243.654303	-13.965431
2245.334717	-14.002746
2247.017650	-14.043609
2248.703108	-14.086287
2250.391096	-14.130381
2252.081620	-14.176347
2253.774686	-14.223359
2255.470300	-14.270444
2257.168467	-14.316700
2258.869193	-14.361808
2260.572484	-14.406358
2262.278345	-14.449205
2263.986783	-14.489419
2265.697804	-14.528751
2267.411412	-14.568198
2269.127615	-14.606572
2270.846417	-14.643311
2272.567826	-14.679696
2274.291846	-14.717285
2276.018484	-14.756168
2277.747745	-14.795087
2279.479637	-14.834419
2281.214164	-14.875249
2282.951333	-14.917753
2284.691149	-14.961814
2286.433619	-15.007717
2288.178750	-15.056458
2289.926546	-15.108539
2291.677014	-15.162341
2293.430161	-15.218873
2295.185992	-15.278912
2296.944513	-15.341261
2298.705732	-15.406087
2300.469653	-15.473025
2302.236283	-15.541934
2304.005629	-15.612401
2305.777696	-15.683695
2307.552492	-15.754561
2309.330022	-15.825597
2311.110292	-15.896690
2312.893310	-15.964514
2314.679080	-16.029986
2316.467611	-16.094357
2318.258907	-16.155482
2320.052976	-16.215237
2321.849824	-16.273176
2323.649457	-16.330300
2325.451883	-16.387652
2327.257106	-16.445277
2329.065135	-16.504867
2330.875975	-16.565479
2332.689633	-16.627015
2334.506116	-16.691574
2336.325430	-16.760260
2338.147581	-16.830886
2339.972578	-16.902010
2341.800425	-16.977941
2343.631130	-17.058972
2345.464700	-17.142056
2347.301141	-17.228038
2349.140461	-17.316570
2350.982665	-17.408021
2352.827760	-17.502597
2354.675754	-17.598424
2356.526653	-17.696455
2358.380464	-17.797183
2360.237195	-17.897284
2362.096851	-17.999238
2363.959440	-18.099691
2365.824968	-18.196748
2367.693444	-18.292814
2369.564873	-18.382319
2371.439263	-18.467577
2373.316620	-18.550169
2375.196953	-18.629615
2377.080267	-18.708502
2378.966570	-18.786658
2380.855869	-18.865971
2382.748171	-18.950500
2384.643484	-19.035151
2386.541815	-19.120590
2388.443170	-19.212844
2390.347557	-19.306700
2392.254984	-19.402195
2394.165457	-19.497815
2396.078984	-19.597226
2397.995572	-19.706280
2399.915229	-19.816905
2401.837961	-19.929708
2403.763777	-20.051044
2405.692684	-20.174316
2407.624689	-20.301631
2409.559800	-20.432211
2411.498023	-20.564621
2413.439368	-20.702028
2415.383840	-20.835617
2417.331449	-20.967974
2419.282201	-21.099229
2421.236104	-21.222411
2423.193165	-21.343342
2425.153393	-21.459040
2427.116795	-21.566223
2429.083378	-21.670130
2431.053151	-21.767409
2433.026121	-21.867282
2435.002297	-21.968110
2436.981685	-22.065592
2438.964293	-22.169089
2440.950131	-22.279509
2442.939204	-22.390154
2444.931522	-22.499053
2446.927092	-22.616476
2448.925923	-22.745445
2450.928022	-22.865458
2452.933397	-22.986569
2454.942056	-23.127571
2456.954008	-23.269466
2458.969260	-23.406434
2460.987821	-23.560975
2463.009699	-23.731779
2465.034902	-23.898405
2467.063437	-24.062002
2469.095315	-24.240506
2471.130542	-24.418096
2473.169127	-24.579958
2475.211078	-24.742826
2477.256404	-24.906333
2479.305112	-25.051822
2481.357212	-25.183554
2483.412713	-25.313836
2485.471621	-25.440316
2487.533946	-25.547630
2489.599696	-25.660344
2491.668880	-25.777598
2493.741507	-25.884081
2495.817585	-25.998225
2497.897122	-26.123914
2499.980127	-26.249424
2502.066609	-26.374683
2504.156578	-26.515270
2506.250040	-26.655522
2508.347006	-26.788946
2510.447483	-26.931154
2512.551482	-27.079842
2514.659010	-27.239406
2516.770076	-27.414695
2518.884690	-27.604792
2521.002861	-27.810031
2523.124597	-28.022536
2525.249907	-28.242326
2527.378801	-28.465216
2529.511287	-28.683203
2531.647375	-28.886518
2533.787074	-29.098890
2535.930393	-29.296676
2538.077340	-29.466518
2540.227927	-29.623190
2542.382160	-29.766973
2544.540051	-29.889614
2546.701608	-30.003002
2548.866840	-30.120442
2551.035757	-30.229082
2553.208369	-30.345561
2555.384684	-30.469332
2557.564713	-30.596484
2559.748465	-30.728956
2561.935948	-30.852285
2564.127174	-30.984430
2566.322152	-31.106442
2568.520890	-31.241604
2570.723399	-31.379948
2572.929689	-31.538315
2575.139769	-31.712280
2577.353649	-31.926495
2579.571340	-32.162426
2581.792849	-32.411088
2584.018189	-32.690822
2586.247368	-32.975324
2588.480396	-33.271142
2590.717284	-33.557128
2592.958041	-33.851491
2595.202678	-34.121071
2597.451204	-34.368617
2599.703630	-34.582547
2601.959966	-34.776685
2604.220222	-34.921905
2606.484408	-35.045116
2608.752535	-35.154545
2611.024612	-35.262762
2613.300651	-35.377177
2615.580661	-35.498701
2617.864653	-35.613377
2620.152638	-35.720276
2622.444625	-35.822813
2624.740626	-35.891915
2627.040651	-35.950670
2629.344710	-36.016452
2631.652814	-36.095289
2633.964974	-36.175667
2636.281200	-36.298307
2638.601504	-36.462698
2640.925896	-36.684527
2643.254386	-36.947222
2645.586987	-37.248576
2647.923707	-37.586073
2650.264559	-37.968408
2652.609554	-38.339303
2654.958702	-38.729312
2657.312015	-39.161400
2659.669503	-39.593837
2662.031178	-39.968284
2664.397051	-40.299271
2666.767132	-40.589657
2669.141434	-40.837866
2671.519968	-41.088404
2673.902745	-41.305267
2676.289776	-41.513116
2678.681072	-41.741406
2681.076646	-41.881117
2683.476508	-41.905538
2685.880671	-41.932937
2688.289145	-41.860791
2690.701942	-41.729437
2693.119075	-41.630482
2695.540554	-41.517580
2697.966391	-41.444143
2700.396599	-41.455420
2702.831189	-41.476568
2705.270172	-41.552617
2707.713561	-41.731731
2710.161368	-41.890373
2712.613605	-42.124516
2715.070283	-42.430597
2717.531416	-42.771918
2719.997014	-43.168070
2722.467090	-43.678687
2724.941657	-44.126189
2727.420726	-44.629671
2729.904310	-45.126451
2732.392421	-45.571034
2734.885072	-46.040135
2737.382275	-46.633929
2739.884042	-47.213207
2742.390387	-47.894319
2744.901321	-48.627475
2747.416857	-49.117044
2749.937008	-49.599906
2752.461787	-49.846157
2754.991206	-49.744489
2757.525279	-49.558286
2760.064017	-49.154418
2762.607434	-48.751477
2765.155544	-48.462771
2767.708358	-48.105334
2770.265890	-47.904007
2772.828153	-47.738400
2775.395160	-47.611946
2777.966924	-47.511471
2780.543459	-47.615163
2783.124778	-47.710131
2785.710894	-47.880376
2788.301821	-48.173940
2790.897572	-48.409931
2793.498160	-48.615478
2796.103599	-48.718234
2798.713903	-48.898849
2801.329085	-49.076992
2803.949159	-49.470197
2806.574139	-49.897169
2809.204038	-50.549869
2811.838871	-51.535934
2814.478650	-52.282350
2817.123391	-53.550818
2819.773107	-54.949256
2822.427812	-56.171288
2825.087521	-57.529159
2827.752247	-58.258871
2830.422005	-59.007354
2833.096808	-58.933159
2835.776672	-58.575354
2838.461611	-58.311593
2841.151638	-57.528308
2843.846769	-56.815729
2846.547019	-56.483115
2849.252401	-56.189641
2851.962930	-55.994386
2854.678621	-56.109562
2857.399489	-56.227372
2860.125549	-56.077715
2862.856815	-55.546768
2865.593302	-55.037160
2868.335026	-54.527732
2871.082002	-54.124817
2873.834244	-53.977275
2876.591767	-53.966618
2879.354588	-54.048199
2882.122721	-54.210568
2884.896181	-54.739014
2887.674984	-55.330558
2890.459146	-56.029250
2893.248681	-56.952698
2896.043606	-57.862982
2898.843937	-59.012031
2901.649687	-60.153004
2904.460875	-61.430130
2907.277515	-62.915797
2910.099623	-64.082885
2912.927215	-65.050589
2915.760308	-64.812001
2918.598916	-64.759011
2921.443057	-64.597292
2924.292747	-64.658610
2927.148002	-66.100615
2930.008837	-68.580254
2932.875270	-71.284468
2935.747318	-72.735181
2938.624995	-70.234454
2941.508320	-67.212375
2944.397308	-65.691095
2947.291977	-63.668176
2950.192343	-62.450993
2953.098423	-61.542694
2956.010234	-61.148595
2958.927792	-60.564828
2961.851116	-60.675016
2964.780221	-60.680563
2967.715126	-60.766210
2970.655847	-61.049817
2973.602402	-61.626276
2976.554808	-62.389859
2979.513083	-63.358533
2982.477243	-65.297516
2985.447308	-66.843368
2988.423293	-68.337004
2991.405218	-68.453865
2994.393099	-67.170608
2997.386955	-65.725250
