# 2022-03-21_21.15.18
# shape = sech2
# FWHM_ps = 0.1
# carrier_nm = 1542
# frep_MHz = 12126
# pow_mW = 8000
# GDD = 0.0
# propa_len = 0.098
# untap_len = 0.01
# taper_len = 0.038
# waist_len = 0.02
# uptap_len = 0.02
# untap_scale = 1.0
# waist_scale = 0.17894736842105266
# workingDir = NL_20110305_12 (Spirou)
# axis = slow
# window_ps = 10.0
# steps = 200
# points = 21700
# 
# wavelength [nm]	 power spectral density [dB]
600.043425	-77.976051
600.163550	-77.552998
600.283723	-76.985214
600.403943	-77.006593
600.524212	-77.589658
600.644529	-78.016807
600.764895	-77.824465
600.885308	-77.341071
601.005770	-77.081573
601.126280	-77.075922
601.246839	-77.007598
601.367446	-76.582584
601.488101	-76.031750
601.608804	-75.966110
601.729557	-76.715248
601.850357	-77.829703
601.971206	-78.485717
602.092104	-78.473311
602.213050	-77.828605
602.334045	-76.789684
602.455089	-75.738401
602.576181	-74.843916
602.697322	-74.375339
602.818511	-74.672325
602.939749	-75.951725
603.061036	-78.295789
603.182372	-80.500542
603.303757	-79.757548
603.425191	-77.507297
603.546673	-75.552790
603.668204	-74.272756
603.789785	-73.711035
603.911414	-73.775619
604.033092	-74.572159
604.154820	-76.413465
604.276596	-79.323512
604.398422	-81.185413
604.520297	-79.353934
604.642220	-76.852443
604.764193	-75.215549
604.886216	-74.277525
605.008287	-73.829576
605.130408	-73.942079
605.252578	-74.816217
605.374798	-76.600361
605.497066	-79.227932
605.619385	-81.094738
605.741752	-79.537629
605.864169	-77.073597
605.986636	-75.426913
606.109152	-74.449413
606.231718	-73.933788
606.354333	-74.092800
606.476998	-75.134797
606.599712	-76.952436
606.722476	-79.316933
606.845290	-80.645863
606.968154	-78.783280
607.091067	-76.638885
607.214030	-75.489206
607.337043	-74.959191
607.460106	-74.734689
607.583219	-74.781419
607.706381	-75.222422
607.829594	-76.190814
607.952856	-77.435890
608.076169	-78.303496
608.199531	-78.249320
608.322944	-77.537425
608.446407	-76.772914
608.569920	-75.793875
608.693483	-74.611138
608.817096	-73.783213
608.940759	-73.622880
609.064473	-74.353464
609.188237	-76.049658
609.312051	-78.142907
609.435916	-79.703852
609.559831	-78.999979
609.683796	-76.615848
609.807812	-74.692501
609.931878	-73.333144
610.055995	-72.575884
610.180162	-72.894111
610.304380	-74.284226
610.428648	-76.485587
610.552967	-79.727279
610.677337	-81.336103
610.801757	-78.527264
610.926228	-75.751466
611.050750	-73.563301
611.175323	-72.320642
611.299946	-72.141725
611.424620	-72.884591
611.549345	-74.949004
611.674121	-79.088604
611.798948	-83.559674
611.923826	-81.028616
612.048755	-76.460482
612.173734	-73.467349
612.298765	-72.059964
612.423847	-71.571119
612.548980	-72.077318
612.674165	-74.318185
612.799400	-78.934744
612.924687	-85.422393
613.050025	-81.203857
613.175414	-75.947064
613.300854	-73.396150
613.426346	-72.187491
613.551889	-71.648096
613.677484	-72.170639
613.803130	-74.222827
613.928827	-78.054221
614.054576	-83.390440
614.180377	-80.733014
614.306229	-76.261748
614.432132	-73.943118
614.558087	-72.668849
614.684094	-72.083263
614.810153	-72.369739
614.936263	-73.765758
615.062425	-76.552820
615.188639	-80.278103
615.314904	-80.235665
615.441222	-77.095170
615.567591	-74.766598
615.694012	-73.330725
615.820486	-72.629108
615.947011	-72.757019
616.073588	-73.890230
616.200217	-76.091587
616.326898	-78.709735
616.453632	-78.700282
616.580417	-76.944966
616.707255	-75.746715
616.834144	-74.801103
616.961086	-74.151323
617.088081	-74.040667
617.215127	-74.410270
617.342226	-75.440507
617.469378	-76.855260
617.596581	-77.333932
617.723837	-77.181285
617.851146	-77.152416
617.978507	-76.537876
618.105920	-75.436243
618.233386	-74.479218
618.360905	-74.017052
618.488476	-74.423804
618.616100	-75.740495
618.743777	-77.130262
618.871506	-77.806916
618.999288	-77.547950
619.127123	-76.142282
619.255011	-74.649813
619.382951	-73.877623
619.510945	-73.857432
619.638991	-74.603528
619.767090	-75.983228
619.895243	-77.121228
620.023448	-77.214455
620.151706	-76.499909
620.280017	-75.312581
620.408382	-74.156009
620.536799	-73.656310
620.665270	-73.992216
620.793794	-75.074403
620.922371	-76.834213
621.051002	-78.138641
621.179686	-77.194379
621.308423	-75.555562
621.437213	-74.315620
621.566057	-73.486694
621.694954	-73.358626
621.823905	-74.260348
621.952909	-76.377463
622.081967	-79.540570
622.211079	-79.968151
622.340244	-76.369097
622.469462	-73.796848
622.598735	-72.702708
622.728061	-72.635392
622.857441	-73.557710
622.986874	-75.939424
623.116361	-79.949737
623.245903	-81.382558
623.375498	-77.650832
623.505147	-74.513481
623.634850	-72.877477
623.764606	-72.511612
623.894417	-73.090146
624.024282	-74.508535
624.154201	-77.073198
624.284174	-80.496120
624.414202	-79.599174
624.544283	-76.147756
624.674419	-73.867738
624.804609	-72.774904
624.934853	-72.755335
625.065151	-73.492628
625.195504	-74.682115
625.325911	-76.739156
625.456373	-79.628163
625.586889	-79.226178
625.717460	-76.102752
625.848085	-73.920319
625.978764	-72.922620
626.109498	-72.918535
626.240287	-73.744198
626.371131	-75.190302
626.502029	-77.177582
626.632982	-79.105482
626.763989	-78.581122
626.895052	-76.678613
627.026169	-75.328135
627.157341	-74.236356
627.288568	-73.424562
627.419850	-73.328557
627.551187	-74.162234
627.682579	-76.289520
627.814026	-80.003910
627.945528	-81.112922
628.077085	-77.586960
628.208697	-74.815272
628.340364	-72.968151
628.472087	-71.944599
628.603865	-72.088590
628.735698	-73.662133
628.867586	-77.198703
628.999530	-84.285065
629.131529	-80.806466
629.263584	-75.178587
629.395694	-72.514502
629.527859	-71.301013
629.660080	-71.315222
629.792357	-72.781650
629.924689	-75.996478
630.057077	-81.351491
630.189520	-82.979008
630.322019	-77.392796
630.454574	-73.843984
630.587184	-71.927755
630.719851	-71.161582
630.852573	-71.649605
630.985351	-73.871267
631.118185	-78.842378
631.251075	-86.984650
631.384021	-79.108951
631.517023	-74.206866
631.650081	-72.046729
631.783195	-71.476843
631.916365	-72.090312
632.049592	-74.029537
632.182874	-77.922119
632.316213	-83.770511
632.449608	-80.611650
632.583059	-75.571576
632.716567	-72.796665
632.850131	-71.752837
632.983751	-72.190803
633.117428	-74.068415
633.251161	-77.523189
633.384951	-81.020397
633.518797	-79.216631
633.652700	-76.324091
633.786660	-74.419430
633.920676	-73.273873
634.054749	-72.757189
634.188879	-72.866240
634.323065	-73.874462
634.457308	-76.534147
634.591608	-82.069803
634.725965	-80.782091
634.860379	-75.030743
634.994850	-72.297545
635.129377	-71.482551
635.263962	-72.071386
635.398604	-73.857314
635.533303	-76.955384
635.668058	-81.516270
635.802872	-81.976159
635.937742	-76.834540
636.072669	-73.343511
636.207654	-71.511472
636.342696	-70.901817
636.477796	-71.633696
636.612953	-74.463353
636.748167	-82.184065
636.883439	-84.614834
637.018768	-75.128453
637.154155	-71.751397
637.289599	-70.724312
637.425101	-71.061817
637.560660	-72.227488
637.696277	-74.426309
637.831952	-79.080974
637.967685	-87.221658
638.103475	-77.798984
638.239324	-72.427121
638.375230	-69.870572
638.511194	-69.178981
638.647215	-70.188853
638.783295	-73.558274
638.919433	-83.976606
639.055629	-80.004123
639.191883	-72.742080
639.328195	-70.511699
639.464565	-70.548959
639.600994	-72.325679
639.737481	-75.146460
639.874025	-76.539387
640.010629	-76.713214
640.147290	-77.834566
640.284010	-78.160317
640.420789	-75.329239
640.557625	-72.192556
640.694521	-70.568260
640.831474	-70.817885
640.968487	-73.282738
641.105558	-79.933274
641.242687	-81.718041
641.379876	-73.923395
641.517123	-71.403473
641.654429	-71.418773
641.791793	-72.967384
641.929216	-74.768291
642.066699	-74.678781
642.204240	-73.984348
642.341840	-74.695664
642.479499	-76.454842
642.617217	-76.639598
642.754994	-73.966394
642.892830	-71.338435
643.030726	-70.387389
643.168680	-71.428233
643.306694	-74.761505
643.444767	-80.102905
643.582899	-77.050406
643.721091	-73.097060
643.859342	-71.569912
643.997652	-71.177372
644.136022	-71.585089
644.274451	-73.188369
644.412940	-75.609572
644.551488	-76.607007
644.690096	-74.943252
644.828763	-72.957047
644.967490	-71.809282
645.106277	-71.326341
645.245124	-71.660619
645.384030	-73.285469
645.522997	-75.203384
645.662023	-74.586374
645.801109	-73.180494
645.940255	-72.432547
646.079460	-71.981556
646.218726	-71.804376
646.358052	-72.176926
646.497438	-73.180275
646.636884	-73.743663
646.776391	-72.865609
646.915957	-72.082494
647.055584	-72.021270
647.195271	-72.221022
647.335019	-72.668253
647.474826	-73.087090
647.614695	-72.467283
647.754623	-71.315000
647.894612	-70.891056
648.034662	-71.811646
648.174772	-73.516385
648.314943	-73.463150
648.455174	-71.968075
648.595466	-70.908769
648.735819	-70.416886
648.876233	-70.629686
649.016707	-71.672340
649.157242	-72.761387
649.297838	-72.508654
649.438495	-71.349029
649.579213	-70.569412
649.719992	-70.329168
649.860832	-70.379885
650.001733	-70.851514
650.142695	-71.765168
650.283718	-71.969768
650.424803	-71.017753
650.565949	-70.115102
650.707156	-69.936734
650.848424	-70.452004
650.989754	-71.100875
651.131145	-71.322083
651.272597	-70.815618
651.414111	-69.967592
651.555687	-69.571305
651.697324	-69.934040
651.839022	-70.698093
651.980782	-70.981208
652.122604	-70.478914
652.264488	-69.781278
652.406433	-69.260282
652.548441	-69.034931
652.690510	-69.353017
652.832640	-70.233689
652.974833	-70.882107
653.117088	-70.318015
653.259405	-69.105948
653.401784	-68.253741
653.544224	-68.149145
653.686727	-68.875205
653.829293	-70.236932
653.971920	-70.910176
654.114609	-69.776603
654.257361	-68.308640
654.400175	-67.629737
654.543052	-67.836910
654.685991	-68.603510
654.828992	-69.533443
654.972056	-70.031640
655.115183	-69.412522
655.258372	-68.307487
655.401623	-67.570614
655.544937	-67.418892
655.688314	-67.811600
655.831754	-68.588308
655.975256	-69.355078
656.118822	-69.243775
656.262450	-68.243208
656.406141	-67.362554
656.549894	-67.000832
656.693711	-67.076460
656.837591	-67.500497
656.981534	-68.111372
657.125540	-68.617987
657.269610	-68.454612
657.413742	-67.557639
657.557938	-66.619278
657.702196	-66.072840
657.846519	-66.236333
657.990904	-67.237894
658.135353	-68.638911
658.279866	-69.015550
658.424441	-67.595250
658.569081	-66.036806
658.713784	-65.300170
658.858550	-65.457636
659.003381	-66.536022
659.148274	-68.225845
659.293232	-68.952038
659.438253	-67.519784
659.583339	-65.569964
659.728488	-64.487523
659.873701	-64.517360
660.018978	-65.594770
660.164318	-67.661124
660.309723	-68.991604
660.455192	-67.209719
660.600725	-65.010801
660.746323	-63.883447
660.891984	-64.017353
661.037710	-65.260007
661.183500	-67.164581
661.329354	-68.268366
661.475272	-66.727584
661.621255	-64.788503
661.767303	-63.804919
661.913415	-63.815229
662.059591	-64.795492
662.205833	-66.349753
662.352138	-67.336343
662.498509	-66.371647
662.644944	-64.594026
662.791443	-63.645538
662.938008	-63.667762
663.084638	-64.413526
663.231332	-65.603743
663.378091	-66.245237
663.524915	-65.624083
663.671804	-64.417205
663.818759	-63.646283
663.965778	-63.576159
664.112863	-63.917923
664.260012	-64.658159
664.407227	-65.381448
664.554507	-65.214587
664.701853	-64.301879
664.849264	-63.459066
664.996740	-63.213045
665.144282	-63.562552
665.291889	-64.281083
665.439561	-64.968572
665.587300	-64.671998
665.735103	-63.709368
665.882973	-63.066799
666.030908	-62.952806
666.178909	-63.320334
666.326976	-63.906736
666.475109	-64.320039
666.623307	-63.950315
666.771571	-63.099541
666.919902	-62.607291
667.068298	-62.624364
667.216761	-63.071905
667.365289	-63.698749
667.513884	-63.819293
667.662545	-63.157665
667.811272	-62.399555
667.960065	-62.200169
668.108925	-62.598573
668.257851	-63.124153
668.406843	-63.370920
668.555902	-63.024504
668.705027	-62.374345
668.854219	-62.026193
669.003478	-62.181818
669.152803	-62.587567
669.302195	-62.808366
669.451653	-62.700839
669.601179	-62.341193
669.750771	-61.897888
669.900430	-61.758847
670.050156	-62.014044
670.199949	-62.241361
670.349808	-62.236333
670.499735	-62.018699
670.649729	-61.698523
670.799790	-61.513078
670.949918	-61.587999
671.100114	-61.757262
671.250377	-61.697007
671.400707	-61.550542
671.551104	-61.567900
671.701569	-61.595170
671.852101	-61.579080
672.002700	-61.414364
672.153368	-61.130348
672.304102	-61.002419
672.454905	-61.186440
672.605775	-61.558372
672.756713	-61.578567
672.907718	-61.135785
673.058791	-60.604121
673.209933	-60.280342
673.361142	-60.431996
673.512419	-60.978807
673.663764	-61.433895
673.815177	-61.220758
673.966658	-60.491799
674.118207	-59.881074
674.269825	-59.768526
674.421510	-60.319546
674.573264	-61.213864
674.725086	-61.475409
674.876977	-60.710898
675.028936	-59.722008
675.180963	-59.295798
675.333059	-59.638556
675.485224	-60.560199
675.637457	-61.217086
675.789758	-60.728427
675.942129	-59.651315
676.094568	-58.937925
676.247075	-58.958143
676.399652	-59.645016
676.552298	-60.560354
676.705012	-60.737248
676.857795	-59.893762
677.010648	-58.938255
677.163569	-58.548075
677.316560	-58.940139
677.469619	-59.929882
677.622748	-60.678722
677.775946	-60.242588
677.929214	-59.081080
678.082551	-58.300455
678.235957	-58.309832
678.389432	-59.081990
678.542977	-60.076434
678.696592	-60.209297
678.850276	-59.253055
679.004030	-58.189673
679.157853	-57.777553
679.311746	-58.188832
679.465709	-59.191783
679.619742	-60.022898
679.773844	-59.623531
679.928017	-58.418343
680.082259	-57.543830
680.236571	-57.546732
680.390954	-58.414523
680.545406	-59.612418
680.699929	-59.864248
680.854522	-58.708990
681.009185	-57.494579
681.163918	-57.103283
681.318722	-57.632225
681.473596	-58.774714
681.628540	-59.528877
681.783555	-58.896936
681.938641	-57.633642
682.093797	-56.875311
682.249023	-56.999405
682.404321	-57.873705
682.559689	-58.922190
682.715128	-59.020449
682.870637	-57.965402
683.026218	-56.955871
683.181869	-56.681339
683.337591	-57.225822
683.493385	-58.201250
683.649249	-58.733525
683.805185	-58.168271
683.961191	-57.153866
684.117269	-56.611080
684.273418	-56.735666
684.429639	-57.364684
684.585930	-58.026481
684.742294	-58.077895
684.898728	-57.402459
685.055234	-56.660765
685.211812	-56.387683
685.368461	-56.631570
685.525182	-57.269721
685.681975	-57.802612
685.838839	-57.570973
685.995775	-56.815183
686.152783	-56.250742
686.309863	-56.207884
686.467014	-56.688198
686.624238	-57.386559
686.781534	-57.551323
686.938902	-56.954788
687.096342	-56.231153
687.253854	-55.891503
687.411438	-56.119349
687.569095	-56.799827
687.726824	-57.278907
687.884626	-56.929378
688.042499	-56.119523
688.200446	-55.558000
688.358465	-55.618171
688.516556	-56.287211
688.674720	-56.982306
688.832957	-56.878679
688.991266	-56.103342
689.149649	-55.468466
689.308104	-55.420732
689.466632	-56.003203
689.625233	-56.700876
689.783906	-56.747196
689.942653	-56.060424
690.101473	-55.362912
690.260367	-55.158788
690.419333	-55.534088
690.578372	-56.179775
690.737485	-56.361043
690.896672	-55.860666
691.055931	-55.162508
691.215264	-54.888692
691.374671	-55.212342
691.534151	-55.854682
691.693704	-56.193668
691.853332	-55.802469
692.013033	-55.177172
692.172807	-54.869036
692.332656	-55.116162
692.492578	-55.622544
692.652575	-55.876512
692.812645	-55.560297
692.972789	-54.961695
693.133007	-54.642303
693.293300	-54.729241
693.453666	-55.130718
693.614107	-55.410836
693.774622	-55.255631
693.935211	-54.787345
694.095875	-54.476157
694.256613	-54.593418
694.417426	-54.976210
694.578313	-55.326981
694.739274	-55.173312
694.900311	-54.725008
695.061421	-54.427520
695.222607	-54.490855
695.383868	-54.792020
695.545203	-54.969940
695.706613	-54.784781
695.868098	-54.357973
696.029658	-54.129124
696.191293	-54.178746
696.353003	-54.451474
696.514789	-54.671019
696.676649	-54.542961
696.838585	-54.213739
697.000596	-54.003534
697.162682	-54.127322
697.324844	-54.451844
697.487081	-54.670737
697.649394	-54.428455
697.811782	-53.975934
697.974246	-53.771601
698.136786	-53.919165
698.299401	-54.274854
698.462092	-54.362430
698.624859	-54.007950
698.787702	-53.546864
698.950621	-53.437689
699.113616	-53.709949
699.276686	-54.123431
699.439833	-54.238483
699.603056	-53.840219
699.766355	-53.415441
699.929731	-53.341359
700.093183	-53.693036
700.256711	-54.139757
700.420315	-54.154967
700.583996	-53.605831
700.747754	-53.116428
700.911588	-53.090718
701.075499	-53.486138
701.239486	-53.926502
701.403550	-53.780983
701.567691	-53.198972
701.731909	-52.808058
701.896203	-52.924866
702.060575	-53.403636
702.225024	-53.801464
702.389549	-53.596330
702.554152	-53.067178
702.718832	-52.783043
702.883589	-52.926368
703.048424	-53.371840
703.213335	-53.642689
703.378324	-53.351311
703.543391	-52.826538
703.708535	-52.551047
703.873757	-52.699645
704.039056	-53.114629
704.204433	-53.312158
704.369887	-52.990022
704.535420	-52.550778
704.701030	-52.394455
704.866718	-52.648760
705.032484	-53.080148
705.198328	-53.179645
705.364250	-52.863329
705.530250	-52.493948
705.696328	-52.421875
705.862485	-52.657633
706.028720	-52.948927
706.195033	-52.881220
706.361424	-52.524463
706.527894	-52.188672
706.694442	-52.160555
706.861069	-52.415974
707.027775	-52.657058
707.194559	-52.576376
707.361422	-52.262349
707.528363	-52.072565
707.695384	-52.190154
707.862483	-52.517604
708.029661	-52.660427
708.196918	-52.469155
708.364254	-52.145692
708.531670	-52.019392
708.699164	-52.124363
708.866738	-52.291363
709.034391	-52.263031
709.202123	-52.047288
709.369935	-51.833482
709.537826	-51.774298
709.705796	-51.904000
709.873847	-52.077307
710.041976	-52.151157
710.210186	-52.043199
710.378475	-51.873487
710.546844	-51.810468
710.715292	-51.923181
710.883821	-52.077508
711.052429	-52.070190
711.221118	-51.831762
711.389887	-51.561806
711.558735	-51.488621
711.727664	-51.617941
711.896673	-51.802498
712.065763	-51.772509
712.234932	-51.547712
712.404183	-51.365369
712.573513	-51.437635
712.742924	-51.724557
712.912416	-51.939133
713.081988	-51.778258
713.251641	-51.432589
713.421375	-51.263263
713.591190	-51.432208
713.761085	-51.716720
713.931061	-51.656347
714.101119	-51.255589
714.271257	-50.950861
714.441476	-51.049580
714.611777	-51.430452
714.782159	-51.619496
714.952622	-51.340194
715.123166	-51.009561
715.293792	-51.012829
715.464499	-51.382277
715.635288	-51.663287
715.806158	-51.441394
715.977110	-50.995966
716.148143	-50.818648
716.319259	-51.034561
716.490456	-51.348657
716.661735	-51.264685
716.833096	-50.849352
717.004538	-50.595637
717.176063	-50.758925
717.347670	-51.185729
717.519359	-51.347915
717.691130	-51.023850
717.862984	-50.682469
718.034920	-50.716381
718.206938	-51.094517
718.379039	-51.326377
718.551222	-51.026630
718.723488	-50.566232
718.895836	-50.433918
719.068267	-50.694111
719.240781	-51.000501
719.413377	-50.895588
719.586057	-50.534668
719.758819	-50.368022
719.931664	-50.563295
720.104593	-50.920000
720.277604	-51.017140
720.450699	-50.753085
720.623876	-50.487984
720.797137	-50.456793
720.970482	-50.660317
721.143910	-50.789975
721.317421	-50.630698
721.491016	-50.329638
721.664694	-50.171631
721.838456	-50.297245
722.012302	-50.555467
722.186231	-50.630731
722.360244	-50.467464
722.534342	-50.278667
722.708523	-50.318464
722.882788	-50.539037
723.057137	-50.667874
723.231570	-50.516488
723.406088	-50.231310
723.580689	-50.079892
723.755375	-50.172547
723.930146	-50.327958
724.105000	-50.340049
724.279940	-50.158454
724.454963	-50.003755
724.630072	-50.063651
724.805265	-50.290349
724.980543	-50.451204
725.155905	-50.348750
725.331353	-50.114183
725.506885	-50.017614
725.682503	-50.106757
725.858205	-50.233425
726.033993	-50.172812
726.209865	-49.969437
726.385823	-49.821225
726.561866	-49.843464
726.737995	-49.994330
726.914209	-50.126507
727.090508	-50.121070
727.266893	-49.998863
727.443364	-49.862445
727.619920	-49.889398
727.796562	-50.071201
727.973290	-50.195896
728.150103	-50.019544
728.327003	-49.652521
728.503988	-49.510132
728.681060	-49.767115
728.858218	-50.121736
729.035461	-50.063253
729.212791	-49.594539
729.390208	-49.365943
729.567710	-49.689849
729.745299	-50.245842
729.922975	-50.258639
730.100737	-49.646057
730.278586	-49.242822
730.456521	-49.505663
730.634543	-50.115062
730.812652	-50.181650
730.990848	-49.508909
731.169130	-49.027928
731.347500	-49.282745
731.525957	-49.995562
731.704500	-50.214147
731.883131	-49.586681
732.061850	-49.076988
732.240655	-49.311068
732.419548	-50.015966
732.598528	-50.208880
732.777596	-49.536568
732.956751	-48.994002
733.135994	-49.156182
733.315325	-49.766325
733.494744	-49.933588
733.674250	-49.414554
733.853844	-48.988798
734.033526	-49.183225
734.213296	-49.727017
734.393154	-49.936921
734.573101	-49.544554
734.753135	-49.174791
734.933258	-49.215246
735.113469	-49.536437
735.293769	-49.659813
735.474157	-49.402528
735.654633	-49.062161
735.835198	-49.017608
736.015852	-49.275017
736.196594	-49.582566
736.377426	-49.548388
736.558346	-49.250572
736.739355	-49.076190
736.920453	-49.281542
737.101640	-49.614266
737.282916	-49.566300
737.464282	-49.089924
737.645736	-48.796288
737.827280	-49.004432
738.008914	-49.468485
738.190637	-49.492151
738.372449	-49.026185
738.554351	-48.783663
738.736342	-49.127125
738.918424	-49.681003
739.100595	-49.583544
739.282855	-48.955846
739.465206	-48.672768
739.647647	-49.045862
739.830178	-49.545023
740.012799	-49.312854
740.195510	-48.692446
740.378311	-48.575476
740.561203	-49.138068
740.744185	-49.665204
740.927258	-49.304477
741.110421	-48.693822
741.293674	-48.692889
741.477018	-49.289555
741.660453	-49.575101
741.843979	-49.006656
742.027596	-48.477214
742.211303	-48.631405
742.395102	-49.264653
742.578991	-49.416649
742.762972	-48.890992
742.947044	-48.523140
743.131207	-48.817308
743.315461	-49.369127
743.499807	-49.362182
743.684244	-48.795142
743.868773	-48.491916
744.053394	-48.763464
744.238106	-49.226880
744.422910	-49.165031
744.607805	-48.664998
744.792793	-48.437779
744.977872	-48.770000
745.163044	-49.284563
745.348307	-49.199229
745.533663	-48.659164
745.719111	-48.419043
745.904651	-48.825100
746.090283	-49.305160
746.276008	-49.058875
746.461826	-48.402721
746.647735	-48.284801
746.833738	-48.854050
747.019833	-49.340144
747.206021	-48.893997
747.392302	-48.277955
747.578676	-48.386875
747.765143	-49.131891
747.951703	-49.367862
748.138356	-48.628220
748.325102	-48.102826
748.511941	-48.463050
748.698874	-49.218239
748.885900	-49.073393
749.073019	-48.269159
749.260232	-48.057055
749.447539	-48.759046
749.634939	-49.385884
749.822433	-48.842788
750.010021	-48.098917
750.197703	-48.240675
750.385479	-49.042970
750.573348	-49.160897
750.761312	-48.332074
750.949370	-47.925734
751.137523	-48.467848
751.325769	-49.174255
751.514110	-48.826182
751.702545	-48.119686
751.891075	-48.190203
752.079700	-48.901474
752.268419	-49.057698
752.457233	-48.349623
752.646142	-47.992838
752.835145	-48.417603
753.024244	-48.898848
753.213437	-48.564088
753.402726	-48.082579
753.592110	-48.248174
753.781589	-48.787095
753.971163	-48.771275
754.160833	-48.258959
754.350598	-48.140829
754.540459	-48.515517
754.730415	-48.670966
754.920467	-48.278837
755.110615	-48.036805
755.300858	-48.312487
755.491198	-48.633954
755.681633	-48.431573
755.872164	-48.129662
756.062792	-48.249125
756.253515	-48.565375
756.444335	-48.457528
756.635252	-48.098268
756.826264	-48.072668
757.017373	-48.356270
757.208579	-48.401372
757.399881	-48.110728
757.591280	-48.050104
757.782776	-48.321580
757.974368	-48.447048
758.166058	-48.165957
758.357844	-48.002921
758.549728	-48.217917
758.741708	-48.361422
758.933786	-48.089546
759.125961	-47.862367
759.318233	-48.095356
759.510603	-48.364618
759.703071	-48.149555
759.895635	-47.846873
760.088298	-48.028540
760.281058	-48.382434
760.473916	-48.194135
760.666872	-47.754493
760.859926	-47.809269
761.053078	-48.238672
761.246328	-48.208144
761.439676	-47.745657
761.633122	-47.691723
761.826667	-48.155411
762.020310	-48.300531
762.214052	-47.832714
762.407892	-47.619389
762.601831	-47.977427
762.795868	-48.206407
762.990004	-47.811348
763.184239	-47.528273
763.378573	-47.821355
763.573006	-48.124610
763.767538	-47.854516
763.962169	-47.557743
764.156900	-47.783565
764.351729	-48.055218
764.546658	-47.783587
764.741687	-47.467751
764.936815	-47.657833
765.132042	-47.947697
765.327370	-47.696201
765.522797	-47.375329
765.718324	-47.606294
765.913950	-47.976254
766.109677	-47.721094
766.305504	-47.284804
766.501431	-47.447740
766.697458	-47.900681
766.893586	-47.682870
767.089814	-47.153631
767.286142	-47.227514
767.482571	-47.799923
767.679100	-47.773090
767.875730	-47.170144
768.072461	-47.080382
768.269293	-47.631716
768.466225	-47.782254
768.663259	-47.162578
768.860393	-46.886705
769.057629	-47.348490
769.254966	-47.704286
769.452404	-47.247151
769.649944	-46.848886
769.847585	-47.155175
770.045328	-47.581277
770.243172	-47.313531
770.441118	-46.848237
770.639166	-46.928807
770.837315	-47.313024
771.035567	-47.261457
771.233920	-46.905518
771.432376	-46.818986
771.630934	-47.074952
771.829594	-47.190530
772.028356	-46.996065
772.227220	-46.798507
772.426188	-46.803481
772.625257	-46.960558
772.824430	-46.997560
773.023705	-46.801786
773.223083	-46.607390
773.422563	-46.715635
773.622147	-46.993890
773.821834	-46.899046
774.021624	-46.497692
774.221517	-46.462287
774.421513	-46.857123
774.621613	-46.913254
774.821816	-46.391496
775.022122	-46.208078
775.222532	-46.692303
775.423046	-46.947665
775.623664	-46.388529
775.824385	-46.052785
776.025211	-46.507640
776.226140	-46.889064
776.427173	-46.328890
776.628311	-45.875925
776.829553	-46.280540
777.030899	-46.783510
777.232350	-46.320744
777.433905	-45.791310
777.635564	-46.114846
777.837328	-46.642747
778.039197	-46.260117
778.241171	-45.689456
778.443250	-45.904396
778.645433	-46.447273
778.847722	-46.182335
779.050116	-45.635881
779.252615	-45.767092
779.455219	-46.265612
779.657929	-46.105461
779.860744	-45.572106
780.063665	-45.614063
780.266691	-46.039739
780.469823	-45.957954
780.673061	-45.510179
780.876405	-45.492958
781.079855	-45.859582
781.283410	-45.836048
781.487072	-45.449144
781.690840	-45.393384
781.894715	-45.649853
782.098695	-45.643360
782.302783	-45.347865
782.506976	-45.294596
782.711277	-45.488714
782.915684	-45.465504
783.120198	-45.259651
783.324818	-45.236003
783.529546	-45.324661
783.734381	-45.247131
783.939322	-45.125804
784.144372	-45.171516
784.349528	-45.174750
784.554792	-45.016067
784.760163	-44.998927
784.965642	-45.141405
785.171228	-45.045111
785.376922	-44.785356
785.582724	-44.846417
785.788634	-45.084466
785.994651	-44.879955
786.200777	-44.527290
786.407011	-44.703114
786.613353	-45.042956
786.819804	-44.727226
787.026363	-44.306923
787.233030	-44.575261
787.439806	-44.969692
787.646691	-44.518023
787.853684	-44.065533
788.060786	-44.466281
788.267997	-44.884411
788.475317	-44.312729
788.682746	-43.886012
788.890285	-44.395637
789.097932	-44.761705
789.305689	-44.056797
789.513555	-43.700434
789.721531	-44.324528
789.929617	-44.582167
790.137812	-43.813115
790.346117	-43.591008
790.554531	-44.285994
790.763056	-44.374405
790.971691	-43.558645
791.180436	-43.491682
791.389291	-44.204482
791.598256	-44.086226
791.807332	-43.343150
792.016518	-43.469789
792.225815	-44.127623
792.435222	-43.804616
792.644740	-43.163869
792.854369	-43.439114
793.064109	-43.951614
793.273960	-43.487202
793.483922	-43.044874
793.693995	-43.447509
793.904180	-43.746477
794.114475	-43.221809
794.324882	-42.976368
794.535401	-43.385423
794.746031	-43.453080
794.956774	-42.985297
795.167627	-42.949172
795.378593	-43.280166
795.589671	-43.158857
795.800861	-42.844784
796.012162	-42.930456
796.223577	-43.072398
796.435103	-42.875158
796.646742	-42.756653
796.858493	-42.862370
797.070357	-42.807584
797.282334	-42.675748
797.494423	-42.743768
797.706626	-42.721033
797.918941	-42.514613
798.131369	-42.550188
798.343911	-42.693434
798.556566	-42.458989
798.769334	-42.264973
798.982215	-42.525367
799.195210	-42.586492
799.408319	-42.156941
799.621541	-42.116391
799.834877	-42.513616
800.048327	-42.332803
800.261890	-41.852126
800.475568	-42.076389
800.689360	-42.469354
800.903266	-42.000084
801.117287	-41.662455
801.331422	-42.137563
801.545671	-42.259672
801.760036	-41.616587
801.974514	-41.591449
802.189108	-42.171277
802.403816	-41.920752
802.618640	-41.337824
802.833578	-41.669063
803.048632	-42.085975
803.263800	-41.470868
803.479085	-41.183066
803.694484	-41.779159
803.909999	-41.791756
804.125630	-41.100420
804.341376	-41.232880
804.557239	-41.810061
804.773217	-41.350836
804.989311	-40.857051
805.205521	-41.355276
805.421847	-41.619572
805.638290	-40.915918
805.854849	-40.832629
806.071524	-41.478599
806.288316	-41.231912
806.505225	-40.596892
806.722250	-40.934381
806.939393	-41.374735
807.156652	-40.767931
807.374028	-40.491307
807.591521	-41.073597
807.809132	-41.066731
808.026859	-40.406152
808.244705	-40.536771
808.462667	-41.041790
808.680748	-40.627836
808.898946	-40.228259
809.117261	-40.653304
809.335695	-40.821549
809.554246	-40.264350
809.772916	-40.213362
809.991704	-40.646300
810.210610	-40.448518
810.429634	-40.038434
810.648777	-40.261829
810.868039	-40.484362
811.087419	-40.118077
811.306918	-39.966345
811.526535	-40.230683
811.746272	-40.183043
811.966127	-39.888227
812.186102	-39.933109
812.406196	-40.088122
812.626409	-39.936691
812.846742	-39.779279
813.067194	-39.842640
813.287766	-39.862294
813.508457	-39.737659
813.729269	-39.670842
813.950200	-39.697385
814.171251	-39.694384
814.392422	-39.613028
814.613714	-39.515154
814.835126	-39.507199
815.056658	-39.543891
815.278311	-39.454794
815.500084	-39.338902
815.721978	-39.397066
815.943993	-39.426123
816.166128	-39.241629
816.388385	-39.168529
816.610762	-39.298722
816.833261	-39.242721
817.055881	-39.046462
817.278623	-39.094817
817.501486	-39.191259
817.724471	-39.008344
817.947577	-38.884618
818.170805	-39.016841
818.394155	-39.005440
818.617627	-38.803454
818.841221	-38.807230
819.064937	-38.908785
819.288775	-38.776748
819.512736	-38.639124
819.736819	-38.719603
819.961025	-38.741641
820.185354	-38.585666
820.409805	-38.536797
820.634379	-38.612005
820.859076	-38.554457
821.083897	-38.415677
821.308840	-38.424063
821.533907	-38.483041
821.759097	-38.380718
821.984411	-38.266975
822.209848	-38.326146
822.435409	-38.342514
822.661093	-38.177248
822.886902	-38.131155
823.112834	-38.242889
823.338891	-38.160428
823.565072	-37.988326
823.791377	-38.064274
824.017807	-38.123631
824.244361	-37.913773
824.471039	-37.859094
824.697843	-38.024516
824.924771	-37.915908
825.151824	-37.712424
825.379002	-37.840479
825.606306	-37.892141
825.833734	-37.631079
826.061288	-37.625256
826.288967	-37.810291
826.516772	-37.624320
826.744703	-37.453942
826.972759	-37.643977
827.200941	-37.607922
827.429249	-37.336117
827.657683	-37.439000
827.886243	-37.568660
828.114930	-37.298953
828.343743	-37.246946
828.572682	-37.455574
828.801748	-37.274275
829.030941	-37.082002
829.260260	-37.296815
829.489706	-37.270368
829.719280	-36.981572
829.948980	-37.100729
830.178808	-37.218710
830.408763	-36.913350
830.638845	-36.898516
830.869055	-37.135776
831.099393	-36.907031
831.329858	-36.730449
831.560451	-36.986014
831.791173	-36.897547
832.022022	-36.597859
832.252999	-36.798333
832.484105	-36.895025
832.715339	-36.538903
832.946702	-36.590184
833.178193	-36.825192
833.409813	-36.509617
833.641561	-36.392887
833.873439	-36.709434
834.105445	-36.532381
834.337581	-36.246229
834.569846	-36.521955
834.802241	-36.530154
835.034764	-36.148687
835.267418	-36.314127
835.500201	-36.513444
835.733114	-36.122399
835.966157	-36.104903
836.199329	-36.418216
836.432632	-36.122110
836.666065	-35.929169
836.899629	-36.276333
837.133323	-36.148753
837.367147	-35.809183
837.601102	-36.079755
837.835188	-36.135663
838.069405	-35.734994
838.303752	-35.882359
838.538231	-36.100277
838.772841	-35.713183
839.007582	-35.694283
839.242455	-35.998048
839.477459	-35.700368
839.712595	-35.541566
839.947863	-35.877882
840.183263	-35.707776
840.418794	-35.420966
840.654458	-35.713207
840.890254	-35.684747
841.126182	-35.327838
841.362242	-35.551326
841.598435	-35.663714
841.834761	-35.265536
842.071220	-35.368754
842.307811	-35.598332
842.544536	-35.227367
842.781393	-35.213486
843.018384	-35.527929
843.255508	-35.211512
843.492765	-35.055097
843.730156	-35.404329
843.967681	-35.204067
844.205339	-34.935728
844.443132	-35.271155
844.681058	-35.196306
844.919118	-34.827805
845.157313	-35.100259
845.395642	-35.175761
845.634105	-34.765546
845.872703	-34.938324
846.111436	-35.134961
846.350303	-34.717718
846.589306	-34.766788
846.828443	-35.064846
847.067716	-34.703562
847.307124	-34.623735
847.546667	-34.962676
847.786345	-34.684709
848.026160	-34.488779
848.266110	-34.832158
848.506195	-34.673830
848.746417	-34.390640
848.986775	-34.687010
849.227269	-34.641005
849.467899	-34.306611
849.708666	-34.537343
849.949569	-34.601796
850.190609	-34.253318
850.431785	-34.393203
850.673099	-34.528497
850.914549	-34.197528
851.156137	-34.256714
851.397861	-34.446745
851.639723	-34.155480
851.881723	-34.131025
852.123860	-34.337577
852.366135	-34.102900
852.608547	-34.022815
852.851098	-34.235504
853.093786	-34.054372
853.336613	-33.918454
853.579578	-34.112961
853.822681	-33.994550
854.065923	-33.831244
854.309304	-34.002251
854.552823	-33.929187
854.796481	-33.738585
855.040278	-33.880443
855.284215	-33.857670
855.528290	-33.661461
855.772505	-33.770041
856.016859	-33.776553
856.261353	-33.575439
856.505987	-33.659252
856.750760	-33.701090
856.995673	-33.502439
857.240727	-33.555186
857.485920	-33.614998
857.731254	-33.418276
857.976729	-33.453662
858.222343	-33.538962
858.468099	-33.340589
858.713995	-33.348376
858.960032	-33.452272
859.206211	-33.260296
859.452530	-33.254042
859.698991	-33.378345
859.945593	-33.181588
860.192336	-33.152675
860.439222	-33.298924
860.686248	-33.107184
860.933417	-33.063019
861.180728	-33.224226
861.428181	-33.025535
861.675776	-32.964650
861.923514	-33.148090
862.171394	-32.951661
862.419417	-32.875671
862.667582	-33.071888
862.915890	-32.869295
863.164342	-32.785940
863.412936	-33.002746
863.661674	-32.795082
863.910555	-32.701510
864.159579	-32.927160
864.408747	-32.710674
864.658059	-32.618355
864.907515	-32.858576
865.157114	-32.627992
865.406858	-32.535313
865.656746	-32.782527
865.906778	-32.539817
866.156955	-32.462078
866.407277	-32.715571
866.657743	-32.449961
866.908354	-32.385711
867.159110	-32.641514
867.410011	-32.359363
867.661057	-32.320447
867.912249	-32.568978
868.163586	-32.260762
868.415069	-32.250118
868.666697	-32.491707
868.918472	-32.166720
869.170392	-32.190023
869.422458	-32.410051
869.674671	-32.065273
869.927030	-32.131090
870.179536	-32.329826
870.432188	-31.972446
870.684987	-32.074897
870.937933	-32.236110
871.191026	-31.875156
871.444266	-32.023501
871.697653	-32.143087
871.951188	-31.781386
872.204870	-31.966811
872.458700	-32.039183
872.712677	-31.695882
872.966803	-31.918585
873.221076	-31.932672
873.475498	-31.610953
873.730068	-31.863502
873.984787	-31.824725
874.239654	-31.537382
874.494669	-31.805245
874.749834	-31.708522
875.005147	-31.465728
875.260610	-31.743780
875.516222	-31.596891
875.771983	-31.402918
876.027894	-31.674671
876.283954	-31.484286
876.540164	-31.346891
876.796524	-31.603606
877.053033	-31.376888
877.309693	-31.292466
877.566503	-31.522128
877.823464	-31.272168
878.080575	-31.244492
878.337837	-31.438921
878.595249	-31.171931
878.852813	-31.194203
879.110528	-31.348908
879.368393	-31.081940
879.626410	-31.150343
879.884579	-31.255312
880.142899	-30.992936
880.401371	-31.105252
880.659994	-31.162035
880.918770	-30.913269
881.177698	-31.057597
881.436778	-31.058703
881.696010	-30.838507
881.955395	-31.014904
882.214933	-30.955954
882.474623	-30.769319
882.734467	-30.966535
882.994463	-30.850692
883.254613	-30.714843
883.514916	-30.915111
883.775372	-30.738158
884.035982	-30.667864
884.296746	-30.857028
884.557664	-30.629644
884.818735	-30.632342
885.079961	-30.780568
885.341341	-30.526010
885.602876	-30.612836
885.864565	-30.692217
886.126409	-30.433187
886.388407	-30.594564
886.650561	-30.586936
886.912870	-30.364309
887.175334	-30.575114
887.437953	-30.462571
887.700728	-30.314800
887.963658	-30.544956
888.226745	-30.340866
888.489987	-30.291111
888.753385	-30.485501
889.016940	-30.226499
889.280651	-30.293058
889.544518	-30.402847
889.808543	-30.130110
890.072723	-30.294432
890.337061	-30.294087
890.601556	-30.070919
890.866208	-30.290002
891.131017	-30.165415
891.395984	-30.040321
891.661109	-30.263770
891.926391	-30.047533
892.191831	-30.038971
892.457429	-30.198523
892.723186	-29.945549
892.989100	-30.052686
893.255173	-30.104465
893.521405	-29.872409
893.787796	-30.055774
894.054345	-29.990820
894.321053	-29.838303
894.587921	-30.035939
894.854948	-29.869356
895.122134	-29.828135
895.389480	-29.988687
895.656986	-29.768178
895.924651	-29.827767
896.192477	-29.900137
896.460463	-29.689617
896.728609	-29.830466
896.996915	-29.792030
897.265382	-29.633418
897.534010	-29.809828
897.802799	-29.676837
898.071749	-29.608480
898.340860	-29.758976
898.610132	-29.559301
898.879566	-29.600920
899.149162	-29.679305
899.418919	-29.458284
899.688838	-29.593076
899.958919	-29.563070
900.229162	-29.390645
900.499568	-29.576250
900.770136	-29.419438
901.040867	-29.356525
901.311761	-29.525895
901.582817	-29.278477
901.854037	-29.355402
902.125420	-29.416188
902.396966	-29.165381
902.668676	-29.366898
902.940550	-29.255478
903.212587	-29.108106
903.484788	-29.342139
903.757153	-29.077918
904.029683	-29.116157
904.302377	-29.239854
904.575236	-28.932425
904.848259	-29.151941
905.121447	-29.063435
905.394800	-28.868091
905.668319	-29.143938
905.942002	-28.857657
906.215852	-28.893945
906.489866	-29.039047
906.764047	-28.701576
907.038393	-28.950143
907.312906	-28.843116
907.587584	-28.654766
907.862429	-28.943953
908.137441	-28.628004
908.412619	-28.706392
908.687964	-28.818767
908.963476	-28.491705
909.239155	-28.769369
909.515002	-28.606863
909.791015	-28.482955
910.067197	-28.739357
910.343546	-28.411034
910.620063	-28.557302
910.896748	-28.583531
911.173601	-28.324408
911.450623	-28.598528
911.727813	-28.376937
912.005171	-28.358343
912.282699	-28.521669
912.560395	-28.233420
912.838261	-28.425091
913.116296	-28.349897
913.394500	-28.208733
913.672874	-28.413883
913.951418	-28.185956
914.230131	-28.256128
914.509015	-28.298388
914.788068	-28.111350
915.067292	-28.274792
915.346687	-28.151840
915.626252	-28.117944
915.905988	-28.211758
916.185895	-28.054539
916.465973	-28.130286
916.746223	-28.105027
917.026644	-28.017369
917.307236	-28.095073
917.588000	-28.015782
917.868937	-27.997331
918.150045	-28.032056
918.431325	-27.952015
918.712778	-27.964392
918.994404	-27.974936
919.276202	-27.888209
919.558173	-27.935614
919.840317	-27.906773
920.122634	-27.830093
920.405125	-27.919723
920.687789	-27.803028
920.970627	-27.820373
921.253639	-27.866930
921.536824	-27.706479
921.820184	-27.850526
922.103718	-27.735235
922.387427	-27.696247
922.671310	-27.823996
922.955368	-27.596895
923.239601	-27.765044
923.524009	-27.674485
923.808592	-27.575794
924.093351	-27.773202
924.378285	-27.499398
924.663396	-27.671910
924.948682	-27.615992
925.234144	-27.462749
925.519782	-27.709220
925.805597	-27.409902
926.091589	-27.574516
926.377757	-27.550756
926.664102	-27.358938
926.950624	-27.633981
927.237323	-27.325388
927.524200	-27.477446
927.811255	-27.475503
928.098487	-27.263131
928.385897	-27.544205
928.673485	-27.241030
928.961251	-27.379803
929.249196	-27.387615
929.537319	-27.173451
929.825621	-27.442896
930.114102	-27.156995
930.402762	-27.279303
930.691601	-27.288013
930.980620	-27.087098
931.269818	-27.329490
931.559196	-27.069557
931.848753	-27.174704
932.138491	-27.182516
932.428409	-27.001526
932.718508	-27.207270
933.008787	-26.983260
933.299246	-27.065682
933.589887	-27.072235
933.880709	-26.911206
934.171712	-27.082175
934.462896	-26.896314
934.754262	-26.949286
935.045810	-26.966164
935.337539	-26.816895
935.629451	-26.959788
935.921545	-26.804602
936.213822	-26.831212
936.506281	-26.864084
936.798922	-26.710543
937.091747	-26.844082
937.384755	-26.707224
937.677946	-26.714951
937.971321	-26.762758
938.264879	-26.597028
938.558621	-26.740870
938.852547	-26.594780
939.146657	-26.604935
939.440952	-26.656830
939.735431	-26.479871
940.030095	-26.643979
940.324943	-26.468715
940.619977	-26.511306
940.915196	-26.538312
941.210600	-26.367310
941.506189	-26.547013
941.801965	-26.335925
942.097926	-26.428390
942.394074	-26.401874
942.690407	-26.272167
942.986927	-26.440470
943.283634	-26.207318
943.580527	-26.351638
943.877608	-26.257039
944.174875	-26.193930
944.472330	-26.313691
944.769972	-26.096795
945.067802	-26.267949
945.365820	-26.114418
945.664026	-26.127069
945.962420	-26.176726
946.261002	-26.007682
946.559773	-26.166447
946.858733	-25.988354
947.157881	-26.057475
947.457219	-26.038741
947.756746	-25.931426
948.056462	-26.055439
948.356368	-25.883048
948.656464	-25.977456
948.956749	-25.913588
949.257225	-25.856769
949.557891	-25.943682
949.858748	-25.785049
950.159796	-25.896402
950.461034	-25.798944
950.762463	-25.782820
951.064084	-25.840588
951.365896	-25.689838
951.667900	-25.823997
951.970095	-25.677851
952.272483	-25.725346
952.575063	-25.728647
952.877835	-25.607447
953.180799	-25.755256
953.483956	-25.555275
953.787307	-25.692750
954.090850	-25.588661
954.394586	-25.565872
954.698516	-25.652378
955.002640	-25.458938
955.306957	-25.657297
955.611469	-25.439432
955.916174	-25.564962
956.221074	-25.497196
956.526169	-25.429017
956.831458	-25.559185
957.136942	-25.335273
957.442622	-25.547011
957.748496	-25.332501
958.054567	-25.444256
958.360833	-25.393313
958.667294	-25.314169
958.973952	-25.443563
959.280806	-25.231906
959.587857	-25.421352
959.895104	-25.230159
960.202548	-25.323748
960.510189	-25.278910
960.818027	-25.209206
961.126062	-25.309521
961.434295	-25.139916
961.742726	-25.277106
962.051355	-25.134467
962.360182	-25.189628
962.669207	-25.163000
962.978431	-25.095756
963.287854	-25.169866
963.597475	-25.042544
963.907296	-25.122485
964.217315	-25.040017
964.527535	-25.035294
964.837954	-25.057374
965.148573	-24.953523
965.459392	-25.045992
965.770411	-24.915069
966.081630	-24.980747
966.393051	-24.923946
966.704672	-24.879688
967.016494	-24.949090
967.328517	-24.788475
967.640742	-24.941706
967.953169	-24.746198
968.265797	-24.873399
968.578627	-24.758927
968.891660	-24.758704
969.204895	-24.799491
969.518332	-24.642230
969.831972	-24.820217
970.145816	-24.569071
970.459862	-24.780925
970.774112	-24.557054
971.088565	-24.679580
971.403223	-24.591837
971.718084	-24.551364
972.033149	-24.634520
972.348419	-24.442810
972.663893	-24.639573
972.979572	-24.384903
973.295456	-24.583965
973.611546	-24.380930
973.927840	-24.482039
974.244340	-24.408805
974.561046	-24.369986
974.877958	-24.430790
975.195076	-24.283019
975.512401	-24.413746
975.829932	-24.238953
976.147670	-24.352056
976.465615	-24.232912
976.783767	-24.265057
977.102126	-24.240867
977.420693	-24.180984
977.739468	-24.230802
978.058451	-24.124174
978.377642	-24.185292
978.697041	-24.103566
979.016649	-24.109772
979.336466	-24.107513
979.656492	-24.023367
979.976727	-24.109429
980.297171	-23.950616
980.617825	-24.083818
980.938689	-23.912922
981.259763	-24.021347
981.581048	-23.913255
981.902542	-23.928250
982.224248	-23.935970
982.546164	-23.823236
982.868291	-23.957213
983.190630	-23.734268
983.513180	-23.954183
983.835942	-23.681543
984.158916	-23.911596
984.482101	-23.667711
984.805500	-23.829439
985.129110	-23.683975
985.452934	-23.726168
985.776970	-23.714518
986.101220	-23.626162
986.425683	-23.735882
986.750359	-23.547103
987.075250	-23.727760
987.400354	-23.499184
987.725673	-23.686167
988.051206	-23.484513
988.376954	-23.618512
988.702916	-23.491866
989.029094	-23.537974
989.355487	-23.501753
989.682095	-23.461988
990.008919	-23.500182
990.335959	-23.406702
990.663216	-23.477524
990.990688	-23.377588
991.318377	-23.428607
991.646283	-23.369654
991.974406	-23.360360
992.302746	-23.375060
992.631304	-23.287778
992.960079	-23.382292
993.289072	-23.222779
993.618283	-23.376114
993.947713	-23.173317
994.277361	-23.347683
994.607227	-23.146325
994.937313	-23.297397
995.267618	-23.141816
995.598142	-23.228870
995.928886	-23.150746
996.259849	-23.148396
996.591033	-23.163955
996.922437	-23.068546
997.254061	-23.173929
997.585906	-22.999865
997.917972	-23.170408
998.250260	-22.945473
998.582768	-23.146301
998.915498	-22.907339
999.248450	-23.104115
999.581624	-22.886692
999.915020	-23.048136
1000.248639	-22.877139
1000.582480	-22.980661
1000.916545	-22.869786
1001.250832	-22.910707
1001.585343	-22.861163
1001.920077	-22.847472
1002.255035	-22.845897
1002.590218	-22.791875
1002.925624	-22.816495
1003.261255	-22.745337
1003.597111	-22.773922
1003.933192	-22.712301
1004.269497	-22.721961
1004.606029	-22.688920
1004.942785	-22.659015
1005.279768	-22.668248
1005.616977	-22.589958
1005.954412	-22.651036
1006.292074	-22.523460
1006.629962	-22.633625
1006.968077	-22.458606
1007.306420	-22.607993
1007.644990	-22.397121
1007.983787	-22.575176
1008.322813	-22.346204
1008.662067	-22.536649
1009.001549	-22.303117
1009.341259	-22.487357
1009.681199	-22.264352
1010.021367	-22.429966
1010.361765	-22.234097
1010.702392	-22.370970
1011.043250	-22.209436
1011.384337	-22.306825
1011.725654	-22.184082
1012.067202	-22.239846
1012.408980	-22.161211
1012.750989	-22.177424
1013.093230	-22.139659
1013.435702	-22.116029
1013.778405	-22.113108
1014.121341	-22.055563
1014.464508	-22.084906
1014.807908	-22.002245
1015.151540	-22.056578
1015.495405	-21.952601
1015.839503	-22.022548
1016.183835	-21.904233
1016.528400	-21.986509
1016.873198	-21.861864
1017.218231	-21.951338
1017.563498	-21.823384
1017.908999	-21.912043
1018.254735	-21.785119
1018.600707	-21.871272
1018.946913	-21.751432
1019.293354	-21.832511
1019.640032	-21.720822
1019.986945	-21.791342
1020.334094	-21.689714
1020.681480	-21.748540
1021.029102	-21.662477
1021.376961	-21.707495
1021.725058	-21.638414
1022.073391	-21.664206
1022.421962	-21.614214
1022.770772	-21.618651
1023.119819	-21.592951
1023.469104	-21.574109
1023.818628	-21.575075
1024.168391	-21.528070
1024.518393	-21.556188
1024.868634	-21.479771
1025.219115	-21.537942
1025.569836	-21.434185
1025.920796	-21.521231
1026.271997	-21.389499
1026.623438	-21.500023
1026.975121	-21.344791
1027.327044	-21.475738
1027.679208	-21.306055
1028.031614	-21.449556
1028.384262	-21.271084
1028.737152	-21.415191
1029.090284	-21.237850
1029.443659	-21.375774
1029.797276	-21.211929
1030.151137	-21.333944
1030.505240	-21.188561
1030.859587	-21.284799
1031.214178	-21.164177
1031.569013	-21.234691
1031.924093	-21.142878
1032.279417	-21.187164
1032.634985	-21.117343
1032.990799	-21.137962
1033.346858	-21.084652
1033.703162	-21.094847
1034.059712	-21.049629
1034.416509	-21.058340
1034.773551	-21.005353
1035.130841	-21.022212
1035.488377	-20.954267
1035.846160	-20.992253
1036.204190	-20.903655
1036.562468	-20.963098
1036.920994	-20.848728
1037.279768	-20.927907
1037.638790	-20.796356
1037.998061	-20.891944
1038.357581	-20.751464
1038.717350	-20.848191
1039.077368	-20.707260
1039.437636	-20.795983
1039.798154	-20.669536
1040.158922	-20.744070
1040.519940	-20.634922
1040.881209	-20.688067
1041.242729	-20.595093
1041.604501	-20.633953
1041.966524	-20.555296
1042.328798	-20.587781
1042.691325	-20.509499
1043.054103	-20.542858
1043.417135	-20.456553
1043.780419	-20.504201
1044.143956	-20.404903
1044.507746	-20.468617
1044.871791	-20.351073
1045.236088	-20.428383
1045.600641	-20.300432
1045.965447	-20.387523
1046.330508	-20.257999
1046.695824	-20.340946
1047.061395	-20.218315
1047.427222	-20.288074
1047.793304	-20.184948
1048.159642	-20.236027
1048.526237	-20.154768
1048.893088	-20.182236
1049.260196	-20.121384
1049.627561	-20.131574
1049.995183	-20.088254
1050.363063	-20.086869
1050.731201	-20.051935
1051.099597	-20.042735
1051.468251	-20.013691
1051.837164	-20.000937
1052.206336	-19.979611
1052.575767	-19.958213
1052.945458	-19.947494
1053.315409	-19.910715
1053.685619	-19.919604
1054.056090	-19.862978
1054.426821	-19.896310
1054.797814	-19.814302
1055.169067	-19.870563
1055.540582	-19.767572
1055.912359	-19.842632
1056.284398	-19.729317
1056.656698	-19.808842
1057.029262	-19.696263
1057.402088	-19.766343
1057.775177	-19.669975
1058.148530	-19.722290
1058.522146	-19.647734
1058.896027	-19.675861
1059.270171	-19.621809
1059.644580	-19.631272
1060.019254	-19.595868
1060.394193	-19.590950
1060.769397	-19.567407
1061.144867	-19.546617
1061.520602	-19.539446
1061.896604	-19.501403
1062.272872	-19.517270
1062.649407	-19.452437
1063.026210	-19.492221
1063.403279	-19.402696
1063.780616	-19.464729
1064.158221	-19.362720
1064.536094	-19.427642
1064.914235	-19.328216
1065.292645	-19.378813
1065.671325	-19.302859
1066.050273	-19.328413
1066.429491	-19.279291
1066.808979	-19.274465
1067.188738	-19.251464
1067.568766	-19.224873
1067.949066	-19.225105
1068.329636	-19.176868
1068.710478	-19.194571
1069.091592	-19.126799
1069.472977	-19.165606
1069.854635	-19.082485
1070.236565	-19.132922
1070.618768	-19.041348
1071.001243	-19.089444
1071.383993	-19.012593
1071.767016	-19.039998
1072.150313	-18.992191
1072.533884	-18.982269
1072.917730	-18.971889
1073.301850	-18.929018
1073.686246	-18.950367
1074.070917	-18.882705
1074.455864	-18.917884
1074.841087	-18.842587
1075.226586	-18.881495
1075.612362	-18.810995
1075.998415	-18.840111
1076.384745	-18.780744
1076.771353	-18.793131
1077.158238	-18.758010
1077.545401	-18.744175
1077.932843	-18.737997
1078.320564	-18.691618
1078.708564	-18.714671
1079.096842	-18.647990
1079.485401	-18.684754
1079.874240	-18.613758
1080.263358	-18.641668
1080.652757	-18.587605
1081.042438	-18.596106
1081.432399	-18.566336
1081.822641	-18.548089
1082.213166	-18.542208
1082.603972	-18.501813
1082.995061	-18.519032
1083.386433	-18.460984
1083.778087	-18.487594
1084.170025	-18.426262
1084.562246	-18.447878
1084.954751	-18.403841
1085.347541	-18.401685
1085.740615	-18.382539
1086.133973	-18.353904
1086.527617	-18.360466
1086.921546	-18.313635
1087.315761	-18.331952
1087.710262	-18.276702
1088.105050	-18.295851
1088.500124	-18.249401
1088.895485	-18.254325
1089.291134	-18.226354
1089.687070	-18.205204
1090.083294	-18.205776
1090.479806	-18.159835
1090.876607	-18.179649
1091.273696	-18.121223
1091.671075	-18.138804
1092.068744	-18.095708
1092.466702	-18.090867
1092.864950	-18.072597
1093.263489	-18.040487
1093.662319	-18.044176
1094.061440	-17.997526
1094.460852	-18.009658
1094.860555	-17.959288
1095.260551	-17.964489
1095.660840	-17.928703
1096.061421	-17.914792
1096.462295	-17.900975
1096.863462	-17.862076
1097.264923	-17.868666
1097.666678	-17.816553
1098.068727	-17.828586
1098.471071	-17.780957
1098.873710	-17.774049
1099.276644	-17.754149
1099.679874	-17.718853
1100.083400	-17.723227
1100.487222	-17.671547
1100.891340	-17.679674
1101.295756	-17.635068
1101.700468	-17.630769
1102.105478	-17.604564
1102.510787	-17.574609
1102.916393	-17.575510
1103.322298	-17.526116
1103.728502	-17.536676
1104.135005	-17.489827
1104.541807	-17.484475
1104.948909	-17.462741
1105.356312	-17.432992
1105.764015	-17.433402
1106.172019	-17.384523
1106.580324	-17.395615
1106.988931	-17.352187
1107.397840	-17.345317
1107.807051	-17.326929
1108.216564	-17.291987
1108.626380	-17.299565
1109.036500	-17.250732
1109.446923	-17.258671
1109.857649	-17.219264
1110.268680	-17.208103
1110.680016	-17.199546
1111.091657	-17.154803
1111.503602	-17.168931
1111.915854	-17.118170
1112.328411	-17.122436
1112.741275	-17.096807
1113.154445	-17.066023
1113.567922	-17.071904
1113.981706	-17.022173
1114.395798	-17.034185
1114.810198	-16.991113
1115.224906	-16.979347
1115.639923	-16.971934
1116.055249	-16.926887
1116.470884	-16.939582
1116.886829	-16.888413
1117.303084	-16.891262
1117.719650	-16.866580
1118.136526	-16.832751
1118.553713	-16.841987
1118.971212	-16.786105
1119.389022	-16.799241
1119.807145	-16.762397
1120.225580	-16.737260
1120.644328	-16.741322
1121.063389	-16.689620
1121.482763	-16.701624
1121.902452	-16.658282
1122.322454	-16.647844
1122.742771	-16.638059
1123.163404	-16.593754
1123.584351	-16.608174
1124.005614	-16.557154
1124.427193	-16.558486
1124.849089	-16.539789
1125.271301	-16.501740
1125.693830	-16.515839
1126.116677	-16.463052
1126.539842	-16.472900
1126.963324	-16.445077
1127.387126	-16.415033
1127.811246	-16.430136
1128.235685	-16.374474
1128.660444	-16.389178
1129.085522	-16.359483
1129.510922	-16.334672
1129.936641	-16.345936
1130.362682	-16.294365
1130.789044	-16.311772
1131.215728	-16.275858
1131.642734	-16.261295
1132.070063	-16.269088
1132.497714	-16.213755
1132.925689	-16.240687
1133.353987	-16.201015
1133.782610	-16.184562
1134.211556	-16.197199
1134.640827	-16.140113
1135.070424	-16.167517
1135.500345	-16.129355
1135.930593	-16.109563
1136.361166	-16.126568
1136.792067	-16.068306
1137.223294	-16.091673
1137.654848	-16.059728
1138.086730	-16.034036
1138.518940	-16.053030
1138.951479	-15.997260
1139.384346	-16.011992
1139.817543	-15.988093
1140.251069	-15.959088
1140.684925	-15.973803
1141.119111	-15.922720
1141.553628	-15.932301
1141.988475	-15.912355
1142.423655	-15.878461
1142.859166	-15.891935
1143.295009	-15.846747
1143.731185	-15.847863
1144.167694	-15.831248
1144.604536	-15.796148
1145.041711	-15.808030
1145.479221	-15.766043
1145.917065	-15.758427
1146.355245	-15.750152
1146.793759	-15.712054
1147.232609	-15.717184
1147.671795	-15.686246
1148.111317	-15.668578
1148.551177	-15.662855
1148.991373	-15.631010
1149.431907	-15.623755
1149.872779	-15.602548
1150.313989	-15.585247
1150.755538	-15.570469
1151.197426	-15.548251
1151.639653	-15.539229
1152.082220	-15.513056
1152.525128	-15.502490
1152.968376	-15.486761
1153.411966	-15.459935
1153.855897	-15.458730
1154.300169	-15.431332
1154.744784	-15.413761
1155.189742	-15.411070
1155.635042	-15.379301
1156.080687	-15.370712
1156.526674	-15.360658
1156.973007	-15.332509
1157.419683	-15.327155
1157.866705	-15.312266
1158.314072	-15.288261
1158.761786	-15.283134
1159.209845	-15.267848
1159.658251	-15.244198
1160.107004	-15.240807
1160.556104	-15.225461
1161.005553	-15.200931
1161.455349	-15.201195
1161.905494	-15.182969
1162.355989	-15.160076
1162.806832	-15.163436
1163.258026	-15.140120
1163.709570	-15.122018
1164.161464	-15.126336
1164.613710	-15.097951
1165.066307	-15.085757
1165.519256	-15.088995
1165.972558	-15.057361
1166.426212	-15.050604
1166.880219	-15.051058
1167.334580	-15.018096
1167.789295	-15.016137
1168.244364	-15.012302
1168.699788	-14.979636
1169.155567	-14.981968
1169.611702	-14.972648
1170.068193	-14.941658
1170.525041	-14.947489
1170.982245	-14.932217
1171.439807	-14.903852
1171.897726	-14.911776
1172.356004	-14.891141
1172.814640	-14.866068
1173.273635	-14.874140
1173.732989	-14.849379
1174.192703	-14.827994
1174.652778	-14.834379
1175.113213	-14.806932
1175.574009	-14.789268
1176.035167	-14.792632
1176.496687	-14.763584
1176.958569	-14.749335
1177.420814	-14.749225
1177.883422	-14.719473
1178.346394	-14.707768
1178.809730	-14.704246
1179.273430	-14.674675
1179.737496	-14.664522
1180.201927	-14.657990
1180.666723	-14.629238
1181.131886	-14.619675
1181.597416	-14.610651
1182.063312	-14.583253
1182.529576	-14.573509
1182.996209	-14.562433
1183.463209	-14.536741
1183.930579	-14.526400
1184.398317	-14.513668
1184.866426	-14.489753
1185.334904	-14.478762
1185.803754	-14.464739
1186.272974	-14.442334
1186.742566	-14.430739
1187.212529	-14.415877
1187.682865	-14.394736
1188.153574	-14.382623
1188.624656	-14.367309
1189.096112	-14.347083
1189.567942	-14.334531
1190.040147	-14.319157
1190.512726	-14.299676
1190.985681	-14.286646
1191.459012	-14.271410
1191.932720	-14.252612
1192.406804	-14.239115
1192.881265	-14.224050
1193.356104	-14.205855
1193.831322	-14.192018
1194.306918	-14.177127
1194.782893	-14.159396
1195.259248	-14.145227
1195.735982	-14.130599
1196.213097	-14.113377
1196.690593	-14.098798
1197.168471	-14.084206
1197.646730	-14.067508
1198.125371	-14.052726
1198.604395	-14.038050
1199.083803	-14.021683
1199.563594	-14.006745
1200.043769	-13.992015
1200.524329	-13.975970
1201.005273	-13.960922
1201.486604	-13.945971
1201.968320	-13.930064
1202.450422	-13.915041
1202.932912	-13.900018
1203.415789	-13.884131
1203.899054	-13.869059
1204.382707	-13.853995
1204.866748	-13.838100
1205.351179	-13.822931
1205.836000	-13.807880
1206.321211	-13.792060
1206.806812	-13.776754
1207.292805	-13.761569
1207.779189	-13.745798
1208.265965	-13.730556
1208.753134	-13.715360
1209.240696	-13.699476
1209.728651	-13.684154
1210.217000	-13.669077
1210.705744	-13.653274
1211.194883	-13.637831
1211.684417	-13.622707
1212.174347	-13.606992
1212.664673	-13.591622
1213.155396	-13.576569
1213.646516	-13.560746
1214.138034	-13.545187
1214.629951	-13.530344
1215.122266	-13.514802
1215.614980	-13.498996
1216.108095	-13.483898
1216.601609	-13.468596
1217.095524	-13.452988
1217.589841	-13.437787
1218.084559	-13.422400
1218.579679	-13.406714
1219.075202	-13.391557
1219.571128	-13.376433
1220.067458	-13.360678
1220.564191	-13.345136
1221.061330	-13.330137
1221.558874	-13.314765
1222.056823	-13.298999
1222.555178	-13.283659
1223.053940	-13.268514
1223.553109	-13.252981
1224.052686	-13.237468
1224.552671	-13.222192
1225.053065	-13.206725
1225.553867	-13.191252
1226.055079	-13.176111
1226.556702	-13.160769
1227.058735	-13.145132
1227.561179	-13.129972
1228.064035	-13.115054
1228.567303	-13.099565
1229.070983	-13.084133
1229.575077	-13.069495
1230.079585	-13.054573
1230.584506	-13.039079
1231.089842	-13.024392
1231.595594	-13.010042
1232.101761	-12.994909
1232.608345	-12.980235
1233.115345	-12.966315
1233.622762	-12.951719
1234.130597	-12.937169
1234.638851	-12.923610
1235.147523	-12.909814
1235.656615	-12.895569
1236.166126	-12.882023
1236.676058	-12.869066
1237.186411	-12.855805
1237.697185	-12.842270
1238.208381	-12.829481
1238.719999	-12.817434
1239.232040	-12.804712
1239.744505	-12.791863
1240.257394	-12.780370
1240.770708	-12.768862
1241.284446	-12.756508
1241.798610	-12.745097
1242.313201	-12.734451
1242.828218	-12.723177
1243.343662	-12.711998
1243.859534	-12.701604
1244.375834	-12.691406
1244.892563	-12.680996
1245.409721	-12.670663
1245.927309	-12.661036
1246.445327	-12.651615
1246.963777	-12.641624
1247.482657	-12.632157
1248.001970	-12.623548
1248.521716	-12.614361
1249.041894	-12.604954
1249.562506	-12.596472
1250.083553	-12.588168
1250.605034	-12.579450
1251.126950	-12.570866
1251.649302	-12.562717
1252.172091	-12.554832
1252.695316	-12.546703
1253.218979	-12.538455
1253.743079	-12.530876
1254.267619	-12.523357
1254.792597	-12.515321
1255.318015	-12.507818
1255.843874	-12.500689
1256.370173	-12.493169
1256.896913	-12.485802
1257.424095	-12.478625
1257.951720	-12.471619
1258.479787	-12.464760
1259.008298	-12.457543
1259.537254	-12.450749
1260.066654	-12.444357
1260.596499	-12.437392
1261.126790	-12.430779
1261.657527	-12.424572
1262.188711	-12.418120
1262.720342	-12.411848
1263.252422	-12.405495
1263.784950	-12.399459
1264.317928	-12.393827
1264.851355	-12.387544
1265.385232	-12.381555
1265.919560	-12.376148
1266.454340	-12.370429
1266.989572	-12.364818
1267.525256	-12.359161
1268.061394	-12.353695
1268.597985	-12.348636
1269.135031	-12.343008
1269.672531	-12.337549
1270.210487	-12.332636
1270.748899	-12.327394
1271.287768	-12.322094
1271.827094	-12.316757
1272.366877	-12.311613
1272.907119	-12.306830
1273.447820	-12.301460
1273.988981	-12.295919
1274.530601	-12.290900
1275.072683	-12.285821
1275.615226	-12.280540
1276.158230	-12.275026
1276.701697	-12.269466
1277.245627	-12.264344
1277.790021	-12.258966
1278.334879	-12.253089
1278.880202	-12.247520
1279.425991	-12.241956
1279.972245	-12.236282
1280.518966	-12.230500
1281.066155	-12.224314
1281.613811	-12.218574
1282.161936	-12.212829
1282.710529	-12.206512
1283.259593	-12.200483
1283.809126	-12.194265
1284.359131	-12.188181
1284.909607	-12.182159
1285.460555	-12.175472
1286.011976	-12.169348
1286.563870	-12.163184
1287.116237	-12.156721
1287.669080	-12.150526
1288.222397	-12.143810
1288.776191	-12.137631
1289.330460	-12.131494
1289.885207	-12.124800
1290.440431	-12.118585
1290.996133	-12.112024
1291.552314	-12.105749
1292.108975	-12.099595
1292.666115	-12.092870
1293.223737	-12.086703
1293.781839	-12.080299
1294.340424	-12.073903
1294.899491	-12.067709
1295.459041	-12.061060
1296.019075	-12.054900
1296.579593	-12.048555
1297.140597	-12.042042
1297.702086	-12.035796
1298.264061	-12.029243
1298.826524	-12.022985
1299.389474	-12.016608
1299.952912	-12.009970
1300.516839	-12.003645
1301.081255	-11.997134
1301.646162	-11.990718
1302.211559	-11.984287
1302.777448	-11.977552
1303.343829	-11.971187
1303.910702	-11.964682
1304.478069	-11.958149
1305.045930	-11.951717
1305.614285	-11.944929
1306.183136	-11.938607
1306.752483	-11.932126
1307.322326	-11.925617
1307.892666	-11.919308
1308.463504	-11.912614
1309.034841	-11.906502
1309.606677	-11.900129
1310.179012	-11.893844
1310.751849	-11.887752
1311.325186	-11.881322
1311.899025	-11.875565
1312.473366	-11.869386
1313.048211	-11.863509
1313.623559	-11.857655
1314.199412	-11.851626
1314.775770	-11.846241
1315.352634	-11.840334
1315.930004	-11.834942
1316.507881	-11.829299
1317.086266	-11.823770
1317.665159	-11.818669
1318.244562	-11.813133
1318.824474	-11.808167
1319.404897	-11.802729
1319.985831	-11.797693
1320.567276	-11.792748
1321.149234	-11.787648
1321.731706	-11.782977
1322.314691	-11.777831
1322.898190	-11.773223
1323.482205	-11.768434
1324.066736	-11.763798
1324.651783	-11.759340
1325.237347	-11.754591
1325.823430	-11.750330
1326.410031	-11.745801
1326.997151	-11.741626
1327.584791	-11.737430
1328.172952	-11.733178
1328.761634	-11.729275
1329.350839	-11.725123
1329.940566	-11.721414
1330.530817	-11.717523
1331.121592	-11.713819
1331.712891	-11.710276
1332.304716	-11.706600
1332.897068	-11.703341
1333.489946	-11.699778
1334.083352	-11.696604
1334.677287	-11.693333
1335.271750	-11.690200
1335.866744	-11.687289
1336.462268	-11.684149
1337.058323	-11.681437
1337.654910	-11.678413
1338.252029	-11.675820
1338.849682	-11.673084
1339.447869	-11.670463
1340.046591	-11.667999
1340.645848	-11.665335
1341.245641	-11.663140
1341.845972	-11.660596
1342.446840	-11.658524
1343.048246	-11.656157
1343.650191	-11.654026
1344.252677	-11.651936
1344.855702	-11.649780
1345.459269	-11.647992
1346.063379	-11.645840
1346.668030	-11.644184
1347.273226	-11.642126
1347.878965	-11.640512
1348.485250	-11.638723
1349.092080	-11.637074
1349.699456	-11.635561
1350.307380	-11.633828
1350.915851	-11.632549
1351.524871	-11.630843
1352.134441	-11.629719
1352.744560	-11.628138
1353.355231	-11.627005
1353.966453	-11.625630
1354.578227	-11.624437
1355.190555	-11.623347
1355.803436	-11.622092
1356.416872	-11.621209
1357.030863	-11.619904
1357.645411	-11.619125
1358.260515	-11.617902
1358.876177	-11.617168
1359.492397	-11.616129
1360.109176	-11.615333
1360.726516	-11.614484
1361.344416	-11.613605
1361.962877	-11.612961
1362.581901	-11.612075
1363.201487	-11.611581
1363.821637	-11.610742
1364.442352	-11.610293
1365.063632	-11.609575
1365.685478	-11.609121
1366.307891	-11.608605
1366.930871	-11.608124
1367.554420	-11.607813
1368.178538	-11.607300
1368.803226	-11.607162
1369.428485	-11.606656
1370.054315	-11.606641
1370.680717	-11.606191
1371.307693	-11.606225
1371.935242	-11.605881
1372.563366	-11.605911
1373.192065	-11.605729
1373.821341	-11.605729
1374.451193	-11.605720
1375.081623	-11.605679
1375.712632	-11.605833
1376.344221	-11.605775
1376.976389	-11.606081
1377.609139	-11.606043
1378.242470	-11.606466
1378.876384	-11.606476
1379.510881	-11.606978
1380.145963	-11.607061
1380.781629	-11.607601
1381.417881	-11.607771
1382.054720	-11.608299
1382.692147	-11.608552
1383.330161	-11.609038
1383.968765	-11.609369
1384.607959	-11.609804
1385.247743	-11.610210
1385.888119	-11.610588
1386.529087	-11.611051
1387.170648	-11.611375
1387.812804	-11.611886
1388.455554	-11.612182
1389.098899	-11.612754
1389.742842	-11.613053
1390.387381	-11.613682
1391.032519	-11.613996
1391.678256	-11.614657
1392.324592	-11.614992
1392.971529	-11.615664
1393.619068	-11.616027
1394.267208	-11.616683
1394.915952	-11.617061
1395.565300	-11.617667
1396.215253	-11.618039
1396.865812	-11.618572
1397.516977	-11.618926
1398.168749	-11.619372
1398.821130	-11.619697
1399.474120	-11.620049
1400.127719	-11.620354
1400.781930	-11.620636
1401.436752	-11.620956
1402.092186	-11.621201
1402.748234	-11.621560
1403.404897	-11.621792
1404.062174	-11.622204
1404.720067	-11.622440
1405.378577	-11.622920
1406.037705	-11.623179
1406.697451	-11.623723
1407.357817	-11.623999
1408.018803	-11.624587
1408.680410	-11.624855
1409.342639	-11.625457
1410.005492	-11.625710
1410.668968	-11.626314
1411.333068	-11.626552
1411.997795	-11.627159
1412.663147	-11.627409
1413.329127	-11.628041
1413.995736	-11.628346
1414.662973	-11.629057
1415.330840	-11.629498
1415.999339	-11.630369
1416.668469	-11.631022
1417.338232	-11.632120
1418.008628	-11.633044
1418.679659	-11.634423
1419.351325	-11.635656
1420.023628	-11.637334
1420.696568	-11.638870
1421.370145	-11.640828
1422.044362	-11.642628
1422.719219	-11.644810
1423.394717	-11.646806
1424.070856	-11.649132
1424.747638	-11.651257
1425.425064	-11.653662
1426.103134	-11.655882
1426.781850	-11.658354
1427.461212	-11.660697
1428.141221	-11.663283
1428.821878	-11.665830
1429.503185	-11.668656
1430.185141	-11.671573
1430.867749	-11.674829
1431.551008	-11.678318
1432.234920	-11.682223
1432.919486	-11.686506
1433.604707	-11.691258
1434.290583	-11.696516
1434.977116	-11.702246
1435.664307	-11.708569
1436.352156	-11.715294
1437.040664	-11.722637
1437.729833	-11.730241
1438.419663	-11.738412
1439.110156	-11.746628
1439.801312	-11.755300
1440.493132	-11.763766
1441.185617	-11.772517
1441.878768	-11.780803
1442.572586	-11.789181
1443.267072	-11.796868
1443.962228	-11.804487
1444.658053	-11.811250
1445.354549	-11.817848
1446.051717	-11.823532
1446.749558	-11.829023
1447.448073	-11.833683
1448.147263	-11.838186
1448.847128	-11.842093
1449.547671	-11.845902
1450.248891	-11.849500
1450.950789	-11.853051
1451.653368	-11.856856
1452.356627	-11.860652
1453.060568	-11.865138
1453.765192	-11.869656
1454.470500	-11.875138
1455.176492	-11.880666
1455.883170	-11.887201
1456.590534	-11.893758
1457.298586	-11.901099
1458.007327	-11.908356
1458.716758	-11.915906
1459.426880	-11.923148
1460.137693	-11.929995
1460.849199	-11.936176
1461.561398	-11.941133
1462.274293	-11.944935
1462.987883	-11.946668
1463.702170	-11.946629
1464.417155	-11.943798
1465.132838	-11.938503
1465.849222	-11.929904
1466.566306	-11.918168
1467.284093	-11.902877
1468.002582	-11.883924
1468.721775	-11.861405
1469.441674	-11.834982
1470.162278	-11.805167
1470.883590	-11.771581
1471.605609	-11.734905
1472.328338	-11.694968
1473.051777	-11.652326
1473.775928	-11.607219
1474.500790	-11.559917
1475.226367	-11.511061
1475.952657	-11.460678
1476.679663	-11.409603
1477.407386	-11.357805
1478.135826	-11.306040
1478.864985	-11.254397
1479.594863	-11.203350
1480.325463	-11.153188
1481.056784	-11.104017
1481.788828	-11.056269
1482.521597	-11.009729
1483.255090	-10.964850
1483.989309	-10.921212
1484.724256	-10.879101
1485.459931	-10.838079
1486.196336	-10.798065
1486.933471	-10.758737
1487.671337	-10.719594
1488.409937	-10.680406
1489.149270	-10.640354
1489.889337	-10.599216
1490.630141	-10.556024
1491.371682	-10.510490
1492.113961	-10.461731
1492.856979	-10.409336
1493.600738	-10.352759
1494.345238	-10.291475
1495.090481	-10.225439
1495.836467	-10.154122
1496.583198	-10.077925
1497.330675	-9.996545
1498.078899	-9.910528
1498.827872	-9.820050
1499.577593	-9.725466
1500.328065	-9.627442
1501.079289	-9.526073
1501.831265	-9.422165
1502.583995	-9.315795
1503.337480	-9.207489
1504.091721	-9.097549
1504.846719	-8.986184
1505.602475	-8.873934
1506.358991	-8.761054
1507.116268	-8.648250
1507.874306	-8.536181
1508.633108	-8.425829
1509.392673	-8.318341
1510.153004	-8.215121
1510.914101	-8.117758
1511.675965	-8.028004
1512.438599	-7.947820
1513.202002	-7.879123
1513.966176	-7.824079
1514.731122	-7.784718
1515.496842	-7.763228
1516.263336	-7.761827
1517.030607	-7.782695
1517.798654	-7.828343
1518.567479	-7.901217
1519.337083	-8.004175
1520.107468	-8.140362
1520.878634	-8.313154
1521.650584	-8.526623
1522.423317	-8.785041
1523.196836	-9.093342
1523.971141	-9.456911
1524.746233	-9.881245
1525.522115	-10.372137
1526.298786	-10.934409
1527.076249	-11.571076
1527.854504	-12.280710
1528.633553	-13.052590
1529.413397	-13.859426
1530.194037	-14.645313
1530.975474	-15.316380
1531.757709	-15.747819
1532.540745	-15.830276
1533.324581	-15.538199
1534.109220	-14.949793
1534.894662	-14.193781
1535.680909	-13.385191
1536.467961	-12.601179
1537.255821	-11.884318
1538.044489	-11.255067
1538.833967	-10.721114
1539.624256	-10.283131
1540.415357	-9.938662
1541.207271	-9.682972
1542.000000	-9.510342
1542.793545	-9.414087
1543.587907	-9.386120
1544.383087	-9.417291
1545.179088	-9.496398
1545.975909	-9.610227
1546.773552	-9.743514
1547.572019	-9.878791
1548.371311	-9.997920
1549.171428	-10.083275
1549.972373	-10.120031
1550.774147	-10.098792
1551.576751	-10.016417
1552.380185	-9.876652
1553.184453	-9.688781
1553.989554	-9.464971
1554.795490	-9.218658
1555.602263	-8.962285
1556.409873	-8.706138
1557.218322	-8.458498
1558.027612	-8.225031
1558.837743	-8.009395
1559.648717	-7.813876
1560.460536	-7.639209
1561.273200	-7.485476
1562.086710	-7.352263
1562.901069	-7.238552
1563.716278	-7.143466
1564.532337	-7.065977
1565.349249	-7.004934
1566.167014	-6.959556
1566.985634	-6.928910
1567.805111	-6.912111
1568.625444	-6.908582
1569.446637	-6.917481
1570.268690	-6.938120
1571.091605	-6.969978
1571.915382	-7.012248
1572.740024	-7.064409
1573.565532	-7.126001
1574.391907	-7.196394
1575.219150	-7.275357
1576.047262	-7.362618
1576.876246	-7.457892
1577.706103	-7.561277
1578.536833	-7.672720
1579.368439	-7.792246
1580.200922	-7.920114
1581.034282	-8.056341
1581.868522	-8.201067
1582.703643	-8.354467
1583.539646	-8.516459
1584.376532	-8.687098
1585.214304	-8.866322
1586.052962	-9.053901
1586.892508	-9.249723
1587.732943	-9.453491
1588.574269	-9.664851
1589.416487	-9.883543
1590.259599	-10.109115
1591.103605	-10.341161
1591.948508	-10.579304
1592.794309	-10.823040
1593.641009	-11.072006
1594.488609	-11.325806
1595.337112	-11.583999
1596.186518	-11.846351
1597.036829	-12.112547
1597.888047	-12.382311
1598.740172	-12.655600
1599.593207	-12.932251
1600.447153	-13.212180
1601.302010	-13.495544
1602.157782	-13.782366
1603.014469	-14.072728
1603.872072	-14.366916
1604.730593	-14.665057
1605.590034	-14.967274
1606.450397	-15.273832
1607.311681	-15.584772
1608.173890	-15.900029
1609.037024	-16.219608
1609.901085	-16.543214
1610.766075	-16.870361
1611.631995	-17.200496
1612.498846	-17.532622
1613.366630	-17.865506
1614.235349	-18.197708
1615.105004	-18.527175
1615.975596	-18.851611
1616.847128	-19.168416
1617.719600	-19.474289
1618.593014	-19.765863
1619.467372	-20.039594
1620.342675	-20.291426
1621.218924	-20.517745
1622.096122	-20.715323
1622.974270	-20.880975
1623.853369	-21.012603
1624.733420	-21.109129
1625.614427	-21.170076
1626.496389	-21.196178
1627.379308	-21.189167
1628.263187	-21.151282
1629.148026	-21.085360
1630.033828	-20.994684
1630.920593	-20.882580
1631.808324	-20.752197
1632.697022	-20.606522
1633.586688	-20.448490
1634.477324	-20.280572
1635.368932	-20.104717
1636.261514	-19.922893
1637.155070	-19.736765
1638.049602	-19.547444
1638.945113	-19.356102
1639.841603	-19.163831
1640.739075	-18.971303
1641.637529	-18.779248
1642.536968	-18.588440
1643.437393	-18.399329
1644.338806	-18.212410
1645.241209	-18.028317
1646.144602	-17.847430
1647.048988	-17.670075
1647.954368	-17.496694
1648.860744	-17.327562
1649.768118	-17.162895
1650.676491	-17.002970
1651.585865	-16.847875
1652.496241	-16.697614
1653.407621	-16.552332
1654.320008	-16.412025
1655.233401	-16.276478
1656.147804	-16.145604
1657.063218	-16.019321
1657.979645	-15.897344
1658.897085	-15.779413
1659.815542	-15.665354
1660.735016	-15.554861
1661.655509	-15.447624
1662.577023	-15.343496
1663.499560	-15.242229
1664.423121	-15.143468
1665.347709	-15.047062
1666.273324	-14.952949
1667.199969	-14.860903
1668.127645	-14.770758
1669.056353	-14.682543
1669.986097	-14.596220
1670.916877	-14.511700
1671.848695	-14.429038
1672.781553	-14.348282
1673.715452	-14.269394
1674.650395	-14.192423
1675.586383	-14.117473
1676.523418	-14.044520
1677.461501	-13.973516
1678.400635	-13.904513
1679.340821	-13.837528
1680.282061	-13.772488
1681.224357	-13.709345
1682.167710	-13.648074
1683.112122	-13.588607
1684.057595	-13.530883
1685.004132	-13.474862
1685.951732	-13.420451
1686.900400	-13.367556
1687.850135	-13.316143
1688.800940	-13.266162
1689.752818	-13.217517
1690.705768	-13.170141
1691.659795	-13.124002
1692.614898	-13.079037
1693.571081	-13.035192
1694.528345	-12.992461
1695.486691	-12.950819
1696.446122	-12.910203
1697.406640	-12.870589
1698.368245	-12.831986
1699.330941	-12.794354
1700.294729	-12.757626
1701.259611	-12.721775
1702.225588	-12.686793
1703.192664	-12.652615
1704.160838	-12.619169
1705.130114	-12.586426
1706.100493	-12.554362
1707.071977	-12.522915
1708.044568	-12.492047
1709.018268	-12.461772
1709.993079	-12.432087
1710.969003	-12.402966
1711.946041	-12.374414
1712.924196	-12.346470
1713.903469	-12.319151
1714.883862	-12.292453
1715.865378	-12.266398
1716.848017	-12.240998
1717.831783	-12.216233
1718.816677	-12.192098
1719.802701	-12.168613
1720.789857	-12.145771
1721.778147	-12.123532
1722.767573	-12.101886
1723.758136	-12.080853
1724.749840	-12.060435
1725.742685	-12.040604
1726.736673	-12.021348
1727.731808	-12.002681
1728.728090	-11.984610
1729.725521	-11.967122
1730.724105	-11.950198
1731.723842	-11.933817
1732.724735	-11.917963
1733.726785	-11.902605
1734.729995	-11.887709
1735.734366	-11.873251
1736.739902	-11.859208
1737.746603	-11.845550
1738.754472	-11.832240
1739.763510	-11.819246
1740.773721	-11.806556
1741.785105	-11.794159
1742.797665	-11.782035
1743.811403	-11.770161
1744.826321	-11.758534
1745.842422	-11.747160
1746.859706	-11.736030
1747.878177	-11.725132
1748.897835	-11.714476
1749.918685	-11.704087
1750.940726	-11.693977
1751.963963	-11.684152
1752.988395	-11.674621
1754.014027	-11.665406
1755.040860	-11.656522
1756.068895	-11.647968
1757.098135	-11.639742
1758.128583	-11.631849
1759.160240	-11.624289
1760.193109	-11.617042
1761.227191	-11.610091
1762.262488	-11.603431
1763.299004	-11.597062
1764.336740	-11.590970
1765.375697	-11.585136
1766.415880	-11.579559
1767.457288	-11.574242
1768.499926	-11.569181
1769.543794	-11.564360
1770.588895	-11.559769
1771.635231	-11.555399
1772.682805	-11.551234
1773.731619	-11.547253
1774.781674	-11.543443
1775.832973	-11.539793
1776.885519	-11.536286
1777.939312	-11.532895
1778.994357	-11.529594
1780.050654	-11.526367
1781.108207	-11.523194
1782.167017	-11.520046
1783.227087	-11.516895
1784.288418	-11.513729
1785.351013	-11.510535
1786.414875	-11.507300
1787.480006	-11.504016
1788.546407	-11.500683
1789.614082	-11.497312
1790.683032	-11.493913
1791.753259	-11.490490
1792.824767	-11.487052
1793.897557	-11.483613
1794.971632	-11.480192
1796.046994	-11.476810
1797.123645	-11.473495
1798.201588	-11.470280
1799.280824	-11.467197
1800.361357	-11.464280
1801.443188	-11.461564
1802.526320	-11.459086
1803.610756	-11.456872
1804.696497	-11.454934
1805.783546	-11.453274
1806.871906	-11.451894
1807.961578	-11.450799
1809.052565	-11.449989
1810.144870	-11.449451
1811.238494	-11.449170
1812.333441	-11.449137
1813.429713	-11.449356
1814.527311	-11.449830
1815.626239	-11.450552
1816.726499	-11.451511
1817.828094	-11.452704
1818.931025	-11.454137
1820.035295	-11.455810
1821.140906	-11.457714
1822.247862	-11.459840
1823.356165	-11.462180
1824.465816	-11.464729
1825.576819	-11.467484
1826.689175	-11.470437
1827.802888	-11.473583
1828.917960	-11.476921
1830.034394	-11.480452
1831.152191	-11.484183
1832.271354	-11.488124
1833.391887	-11.492276
1834.513790	-11.496641
1835.637068	-11.501217
1836.761722	-11.506004
1837.887755	-11.510995
1839.015169	-11.516174
1840.143968	-11.521518
1841.274153	-11.526999
1842.405727	-11.532581
1843.538693	-11.538225
1844.673053	-11.543896
1845.808810	-11.549562
1846.945966	-11.555191
1848.084525	-11.560755
1849.224488	-11.566234
1850.365858	-11.571615
1851.508638	-11.576891
1852.652831	-11.582055
1853.798438	-11.587105
1854.945463	-11.592042
1856.093909	-11.596874
1857.243777	-11.601613
1858.395071	-11.606275
1859.547794	-11.610892
1860.701947	-11.615506
1861.857533	-11.620167
1863.014556	-11.624929
1864.173018	-11.629841
1865.332922	-11.634946
1866.494270	-11.640276
1867.657065	-11.645855
1868.821309	-11.651696
1869.987006	-11.657807
1871.154158	-11.664187
1872.322768	-11.670828
1873.492839	-11.677718
1874.664373	-11.684841
1875.837373	-11.692174
1877.011841	-11.699705
1878.187782	-11.707428
1879.365197	-11.715343
1880.544089	-11.723449
1881.724460	-11.731753
1882.906315	-11.740247
1884.089655	-11.748917
1885.274483	-11.757749
1886.460803	-11.766731
1887.648616	-11.775858
1888.837927	-11.785142
1890.028736	-11.794608
1891.221049	-11.804293
1892.414866	-11.814240
1893.610192	-11.824491
1894.807028	-11.835078
1896.005379	-11.846012
1897.205246	-11.857284
1898.406633	-11.868862
1899.609542	-11.880697
1900.813977	-11.892741
1902.019940	-11.904960
1903.227434	-11.917341
1904.436462	-11.929895
1905.647028	-11.942651
1906.859133	-11.955645
1908.072781	-11.968900
1909.287976	-11.982422
1910.504719	-11.996190
1911.723013	-12.010172
1912.942863	-12.024334
1914.164270	-12.038651
1915.387238	-12.053118
1916.611770	-12.067748
1917.837868	-12.082565
1919.065536	-12.097586
1920.294777	-12.112810
1921.525594	-12.128214
1922.757989	-12.143754
1923.991967	-12.159378
1925.227529	-12.175046
1926.464679	-12.190738
1927.703420	-12.206468
1928.943755	-12.222267
1930.185688	-12.238168
1931.429221	-12.254197
1932.674356	-12.270358
1933.921099	-12.286621
1935.169451	-12.302950
1936.419415	-12.319309
1937.670996	-12.335674
1938.924195	-12.352046
1940.179017	-12.368437
1941.435463	-12.384863
1942.693538	-12.401330
1943.953245	-12.417837
1945.214586	-12.434389
1946.477566	-12.451003
1947.742186	-12.467713
1949.008451	-12.484576
1950.276363	-12.501655
1951.545926	-12.519010
1952.817143	-12.536683
1954.090017	-12.554697
1955.364551	-12.573050
1956.640749	-12.591734
1957.918615	-12.610741
1959.198150	-12.630073
1960.479359	-12.649744
1961.762244	-12.669771
1963.046810	-12.690167
1964.333059	-12.710919
1965.620995	-12.731999
1966.910621	-12.753364
1968.201940	-12.774967
1969.494956	-12.796782
1970.789672	-12.818805
1972.086091	-12.841070
1973.384217	-12.863647
1974.684053	-12.886613
1975.985602	-12.910043
1977.288869	-12.933986
1978.593855	-12.958449
1979.900566	-12.983397
1981.209003	-13.008770
1982.519171	-13.034502
1983.831073	-13.060548
1985.144712	-13.086893
1986.460093	-13.113562
1987.777217	-13.140596
1989.096089	-13.168018
1990.416713	-13.195820
1991.739092	-13.223949
1993.063228	-13.252340
1994.389127	-13.280953
1995.716791	-13.309790
1997.046223	-13.338922
1998.377428	-13.368458
1999.710409	-13.398504
2001.045169	-13.429126
2002.381713	-13.460310
2003.720043	-13.491979
2005.060163	-13.523999
2006.402077	-13.556209
2007.745788	-13.588476
2009.091301	-13.620721
2010.438618	-13.652904
2011.787743	-13.685033
2013.138680	-13.717125
2014.491433	-13.749181
2015.846005	-13.781197
2017.202399	-13.813158
2018.560621	-13.845048
2019.920673	-13.876853
2021.282558	-13.908574
2022.646281	-13.940234
2024.011846	-13.971893
2025.379256	-14.003635
2026.748515	-14.035566
2028.119626	-14.067758
2029.492594	-14.100255
2030.867422	-14.133066
2032.244114	-14.166193
2033.622673	-14.199653
2035.003104	-14.233492
2036.385411	-14.267787
2037.769597	-14.302604
2039.155665	-14.337990
2040.543621	-14.373938
2041.933467	-14.410414
2043.325208	-14.447372
2044.718847	-14.484786
2046.114389	-14.522656
2047.511837	-14.560998
2048.911195	-14.599851
2050.312467	-14.639257
2051.715657	-14.679223
2053.120769	-14.719732
2054.527807	-14.760733
2055.936775	-14.802200
2057.347677	-14.844128
2058.760516	-14.886507
2060.175297	-14.929339
2061.592025	-14.972603
2063.010701	-15.016294
2064.431332	-15.060431
2065.853921	-15.105054
2067.278472	-15.150241
2068.704988	-15.196098
2070.133475	-15.242710
2071.563936	-15.290131
2072.996375	-15.338358
2074.430796	-15.387340
2075.867204	-15.436995
2077.305603	-15.487220
2078.745996	-15.537914
2080.188389	-15.589022
2081.632784	-15.640534
2083.079187	-15.692452
2084.527601	-15.744760
2085.978030	-15.797410
2087.430480	-15.850348
2088.884954	-15.903537
2090.341455	-15.956982
2091.799990	-16.010708
2093.260561	-16.064726
2094.723173	-16.119000
2096.187831	-16.173433
2097.654538	-16.227882
2099.123300	-16.282188
2100.594119	-16.336193
2102.067001	-16.389783
2103.541950	-16.442913
2105.018971	-16.495644
2106.498067	-16.548115
2107.979243	-16.600485
2109.462503	-16.652874
2110.947853	-16.705345
2112.435295	-16.757937
2113.924836	-16.810706
2115.416478	-16.863728
2116.910227	-16.917086
2118.406087	-16.970833
2119.904063	-17.025011
2121.404158	-17.079698
2122.906378	-17.135040
2124.410727	-17.191208
2125.917210	-17.248368
2127.425831	-17.306583
2128.936594	-17.365783
2130.449505	-17.425815
2131.964567	-17.486560
2133.481786	-17.547969
2135.001166	-17.610138
2136.522711	-17.673190
2138.046427	-17.737217
2139.572317	-17.802171
2141.100388	-17.867917
2142.630642	-17.934319
2144.163085	-18.001290
2145.697722	-18.068793
2147.234558	-18.136871
2148.773596	-18.205635
2150.314842	-18.275188
2151.858301	-18.345598
2153.403977	-18.416907
2154.951875	-18.489067
2156.502000	-18.562012
2158.054357	-18.635671
2159.608950	-18.710006
2161.165785	-18.784923
2162.724866	-18.860292
2164.286198	-18.935963
2165.849786	-19.011880
2167.415635	-19.088146
2168.983749	-19.165021
2170.554134	-19.242679
2172.126795	-19.321034
2173.701737	-19.399726
2175.278964	-19.478381
2176.858481	-19.556860
2178.440294	-19.635351
2180.024408	-19.714205
2181.610827	-19.793620
2183.199557	-19.873416
2184.790602	-19.953146
2186.383968	-20.032382
2187.979660	-20.110939
2189.577683	-20.188939
2191.178041	-20.266593
2192.780741	-20.343872
2194.385787	-20.420454
2195.993185	-20.495944
2197.602939	-20.570204
2199.215054	-20.643574
2200.829537	-20.716720
2202.446392	-20.790289
2204.065624	-20.864551
2205.687239	-20.939396
2207.311242	-21.014536
2208.937638	-21.089852
2210.566433	-21.165542
2212.197631	-21.242099
2213.831239	-21.319928
2215.467261	-21.399171
2217.105703	-21.479568
2218.746570	-21.560758
2220.389867	-21.642573
2222.035601	-21.725389
2223.683776	-21.809948
2225.334398	-21.896905
2226.987472	-21.986280
2228.643004	-22.077391
2230.300999	-22.169382
2231.961463	-22.261998
2233.624402	-22.355764
2235.289820	-22.451587
2236.957723	-22.550029
2238.628118	-22.650884
2240.301009	-22.753464
2241.976402	-22.857267
2243.654303	-22.962298
2245.334717	-23.068916
2247.017650	-23.177373
2248.703108	-23.287454
2250.391096	-23.398626
2252.081620	-23.510392
2253.774686	-23.622384
2255.470300	-23.734372
2257.168467	-23.846309
2258.869193	-23.958390
2260.572484	-24.070906
2262.278345	-24.183737
2263.986783	-24.295808
2265.697804	-24.405304
2267.411412	-24.510871
2269.127615	-24.612792
2270.846417	-24.712941
2272.567826	-24.813385
2274.291846	-24.914486
2276.018484	-25.014443
2277.747745	-25.111068
2279.479637	-25.203745
2281.214164	-25.293952
2282.951333	-25.383657
2284.691149	-25.473143
2286.433619	-25.560697
2288.178750	-25.644482
2289.926546	-25.724747
2291.677014	-25.803799
2293.430161	-25.884083
2295.185992	-25.966241
2296.944513	-26.049136
2298.705732	-26.131553
2300.469653	-26.213540
2302.236283	-26.296526
2304.005629	-26.382301
2305.777696	-26.471788
2307.552492	-26.564843
2309.330022	-26.660812
2311.110292	-26.759266
2312.893310	-26.860602
2314.679080	-26.965764
2316.467611	-27.075300
2318.258907	-27.188753
2320.052976	-27.305032
2321.849824	-27.423533
2323.649457	-27.544616
2325.451883	-27.669200
2327.257106	-27.797992
2329.065135	-27.930740
2330.875975	-28.066227
2332.689633	-28.202731
2334.506116	-28.338885
2336.325430	-28.474501
2338.147581	-28.610816
2339.972578	-28.749978
2341.800425	-28.893452
2343.631130	-29.040796
2345.464700	-29.189573
2347.301141	-29.336963
2349.140461	-29.482357
2350.982665	-29.627901
2352.827760	-29.775927
2354.675754	-29.925682
2356.526653	-30.073123
2358.380464	-30.214888
2360.237195	-30.352160
2362.096851	-30.489362
2363.959440	-30.628744
2365.824968	-30.766739
2367.693444	-30.897397
2369.564873	-31.018574
2371.439263	-31.133740
2373.316620	-31.246564
2375.196953	-31.355595
2377.080267	-31.455668
2378.966570	-31.544893
2380.855869	-31.627547
2382.748171	-31.709130
2384.643484	-31.789902
2386.541815	-31.865127
2388.443170	-31.932633
2390.347557	-31.997153
2392.254984	-32.066319
2394.165457	-32.143563
2396.078984	-32.226307
2397.995572	-32.310875
2399.915229	-32.396973
2401.837961	-32.487009
2403.763777	-32.582625
2405.692684	-32.684868
2407.624689	-32.796236
2409.559800	-32.919096
2411.498023	-33.051536
2413.439368	-33.188033
2415.383840	-33.325525
2417.331449	-33.467417
2419.282201	-33.618271
2421.236104	-33.777701
2423.193165	-33.942093
2425.153393	-34.110395
2427.116795	-34.284473
2429.083378	-34.464213
2431.053151	-34.646641
2433.026121	-34.830001
2435.002297	-35.015368
2436.981685	-35.204364
2438.964293	-35.397542
2440.950131	-35.595053
2442.939204	-35.795849
2444.931522	-35.995421
2446.927092	-36.188177
2448.925923	-36.373891
2450.928022	-36.559756
2452.933397	-36.753527
2454.942056	-36.953622
2456.954008	-37.148739
2458.969260	-37.327804
2460.987821	-37.489822
2463.009699	-37.641855
2465.034902	-37.787781
2467.063437	-37.922381
2469.095315	-38.037811
2471.130542	-38.133203
2473.169127	-38.216512
2475.211078	-38.295534
2477.256404	-38.368044
2479.305112	-38.423545
2481.357212	-38.458731
2483.412713	-38.486199
2485.471621	-38.521263
2487.533946	-38.561310
2489.599696	-38.588826
2491.668880	-38.599588
2493.741507	-38.615586
2495.817585	-38.662536
2497.897122	-38.741230
2499.980127	-38.828736
2502.066609	-38.906787
2504.156578	-38.982492
2506.250040	-39.078105
2508.347006	-39.204086
2510.447483	-39.348815
2512.551482	-39.497466
2514.659010	-39.653763
2516.770076	-39.833043
2518.884690	-40.033690
2521.002861	-40.232260
2523.124597	-40.415217
2525.249907	-40.601094
2527.378801	-40.817289
2529.511287	-41.063269
2531.647375	-41.311908
2533.787074	-41.542595
2535.930393	-41.764440
2538.077340	-42.004508
2540.227927	-42.279326
2542.382160	-42.576909
2544.540051	-42.868245
2546.701608	-43.145531
2548.866840	-43.435305
2551.035757	-43.755222
2553.208369	-44.080594
2555.384684	-44.382687
2557.564713	-44.677433
2559.748465	-44.994699
2561.935948	-45.316103
2564.127174	-45.592732
2566.322152	-45.819390
2568.520890	-46.041094
2570.723399	-46.267493
2572.929689	-46.434072
2575.139769	-46.493031
2577.353649	-46.503234
2579.571340	-46.554102
2581.792849	-46.634355
2584.018189	-46.646339
2586.247368	-46.548554
2588.480396	-46.413408
2590.717284	-46.320710
2592.958041	-46.266422
2595.202678	-46.200247
2597.451204	-46.110251
2599.703630	-46.030579
2601.959966	-45.981682
2604.220222	-45.949174
2606.484408	-45.929223
2608.752535	-45.952188
2611.024612	-46.036988
2613.300651	-46.151523
2615.580661	-46.255778
2617.864653	-46.369139
2620.152638	-46.540252
2622.444625	-46.763753
2624.740626	-46.970107
2627.040651	-47.107370
2629.344710	-47.213334
2631.652814	-47.373463
2633.964974	-47.610874
2636.281200	-47.848378
2638.601504	-48.011139
2640.925896	-48.141627
2643.254386	-48.334597
2645.586987	-48.596900
2647.923707	-48.858198
2650.264559	-49.104331
2652.609554	-49.401439
2654.958702	-49.775712
2657.312015	-50.177002
2659.669503	-50.596510
2662.031178	-51.101513
2664.397051	-51.692273
2666.767132	-52.262075
2669.141434	-52.791337
2671.519968	-53.404705
2673.902745	-54.141720
2676.289776	-54.863407
2678.681072	-55.441104
2681.076646	-55.876516
2683.476508	-56.262098
2685.880671	-56.709015
2688.289145	-57.114400
2690.701942	-57.177610
2693.119075	-56.972767
2695.540554	-56.829244
2697.966391	-56.678756
2700.396599	-56.304157
2702.831189	-55.873797
2705.270172	-55.596988
2707.713561	-55.369867
2710.161368	-55.078451
2712.613605	-54.826402
2715.070283	-54.679849
2717.531416	-54.552301
2719.997014	-54.434889
2722.467090	-54.448548
2724.941657	-54.603568
2727.420726	-54.739746
2729.904310	-54.773334
2732.392421	-54.811017
2734.885072	-54.944419
2737.382275	-55.118103
2739.884042	-55.206326
2742.390387	-55.163326
2744.901321	-55.080730
2747.416857	-55.058555
2749.937008	-55.066020
2752.461787	-55.015833
2754.991206	-54.950128
2757.525279	-54.992847
2760.064017	-55.133284
2762.607434	-55.234028
2765.155544	-55.281133
2767.708358	-55.410570
2770.265890	-55.681599
2772.828153	-56.048724
2775.395160	-56.477827
2777.966924	-56.929149
2780.543459	-57.347872
2783.124778	-57.820493
2785.710894	-58.527294
2788.301821	-59.400422
2790.897572	-60.143789
2793.498160	-60.849463
2796.103599	-61.913966
2798.713903	-63.185029
2801.329085	-64.180045
2803.949159	-65.339301
2806.574139	-67.246711
2809.204038	-68.902217
2811.838871	-69.215871
2814.478650	-69.403804
2817.123391	-69.458182
2819.773107	-68.737832
2822.427812	-67.675730
2825.087521	-66.482332
2827.752247	-65.479727
2830.422005	-65.052626
2833.096808	-65.128737
2835.776672	-65.361532
2838.461611	-65.333782
2841.151638	-65.145988
2843.846769	-65.664915
2846.547019	-66.952389
2849.252401	-67.253522
2851.962930	-67.043326
2854.678621	-68.041449
2857.399489	-67.922273
2860.125549	-66.294417
2862.856815	-66.259661
2865.593302	-66.647869
2868.335026	-64.981728
2871.082002	-63.661242
2873.834244	-63.614368
2876.591767	-63.616526
2879.354588	-63.060339
2882.122721	-62.704237
2884.896181	-62.733816
2887.674984	-62.621590
2890.459146	-62.238679
2893.248681	-62.210235
2896.043606	-62.698327
2898.843937	-62.969688
2901.649687	-63.005038
2904.460875	-63.582000
2907.277515	-64.224348
2910.099623	-64.212784
2912.927215	-64.712181
2915.760308	-66.015837
2918.598916	-66.098587
2921.443057	-65.719056
2924.292747	-67.230678
2927.148002	-70.015906
2930.008837	-70.331839
2932.875270	-70.683433
2935.747318	-73.779508
2938.624995	-76.838066
2941.508320	-77.423846
2944.397308	-81.769992
2947.291977	-78.297076
2950.192343	-73.601286
2953.098423	-73.110806
2956.010234	-74.100009
2958.927792	-72.670347
2961.851116	-71.080260
2964.780221	-71.222425
2967.715126	-72.397401
2970.655847	-73.696294
2973.602402	-75.319327
2976.554808	-76.035578
2979.513083	-75.908185
2982.477243	-78.729721
2985.447308	-90.083087
2988.423293	-90.955634
2991.405218	-96.352511
2994.393099	-85.281708
2997.386955	-80.589508
