# 2022-03-21_14.04.56
# shape = sech2
# FWHM_ps = 0.1
# carrier_nm = 1542
# frep_MHz = 12126
# pow_mW = 8000
# GDD = 0.0
# propa_len = 0.11333333333333334
# untap_len = 0.01
# taper_len = 0.05333333333333333
# waist_len = 0.02
# uptap_len = 0.02
# untap_scale = 1.0
# waist_scale = 0.13333333333333336
# workingDir = NL_20110305_12 (Spirou)
# axis = slow
# window_ps = 10.0
# steps = 200
# points = 13000
# 
# wavelength [nm]	 power spectral density [dB]
1000.248639	-24.534061
1000.582480	-24.406172
1000.916545	-24.318025
1001.250832	-24.369198
1001.585343	-24.426426
1001.920077	-24.374166
1002.255035	-24.245927
1002.590218	-24.199023
1002.925624	-24.261992
1003.261255	-24.286129
1003.597111	-24.206898
1003.933192	-24.093557
1004.269497	-24.081544
1004.606029	-24.132366
1004.942785	-24.126020
1005.279768	-24.032677
1005.616977	-23.944611
1005.954412	-23.956858
1006.292074	-23.996831
1006.629962	-23.958640
1006.968077	-23.855379
1007.306420	-23.791948
1007.644990	-23.821317
1007.983787	-23.851022
1008.322813	-23.798949
1008.662067	-23.691292
1009.001549	-23.636706
1009.341259	-23.674028
1009.681199	-23.696902
1010.021367	-23.645008
1010.361765	-23.537726
1010.702392	-23.492036
1011.043250	-23.519622
1011.384337	-23.544153
1011.725654	-23.493595
1012.067202	-23.391973
1012.408980	-23.349197
1012.750989	-23.372019
1013.093230	-23.398536
1013.435702	-23.344174
1013.778405	-23.252453
1014.121341	-23.213015
1014.464508	-23.234279
1014.807908	-23.255256
1015.151540	-23.202272
1015.495405	-23.122956
1015.839503	-23.082386
1016.183835	-23.100668
1016.528400	-23.120891
1016.873198	-23.075943
1017.218231	-23.002296
1017.563498	-22.952075
1017.908999	-22.970804
1018.254735	-22.992437
1018.600707	-22.963692
1018.946913	-22.888636
1019.293354	-22.833203
1019.640032	-22.847027
1019.986945	-22.869926
1020.334094	-22.853377
1020.681480	-22.777022
1021.029102	-22.726395
1021.376961	-22.727622
1021.725058	-22.755428
1022.073391	-22.746263
1022.421962	-22.680906
1022.770772	-22.620730
1023.119819	-22.604795
1023.469104	-22.640040
1023.818628	-22.648497
1024.168391	-22.599217
1024.518393	-22.523460
1024.868634	-22.491233
1025.219115	-22.520329
1025.569836	-22.544876
1025.920796	-22.520205
1026.271997	-22.443749
1026.623438	-22.394575
1026.975121	-22.400458
1027.327044	-22.437349
1027.679208	-22.435139
1028.031614	-22.373240
1028.384262	-22.309192
1028.737152	-22.290471
1029.090284	-22.325488
1029.443659	-22.342002
1029.797276	-22.306494
1030.151137	-22.232294
1030.505240	-22.189882
1030.859587	-22.205094
1031.214178	-22.236235
1031.569013	-22.229858
1031.924093	-22.162326
1032.279417	-22.101130
1032.634985	-22.080043
1032.990799	-22.112233
1033.346858	-22.124323
1033.703162	-22.088335
1034.059712	-22.012766
1034.416509	-21.964787
1034.773551	-21.970221
1035.130841	-21.991803
1035.488377	-21.984956
1035.846160	-21.918930
1036.204190	-21.855898
1036.562468	-21.821250
1036.920994	-21.840825
1037.279768	-21.844852
1037.638790	-21.814578
1037.998061	-21.740383
1038.357581	-21.685811
1038.717350	-21.672737
1039.077368	-21.685524
1039.437636	-21.680620
1039.798154	-21.626079
1040.158922	-21.559895
1040.519940	-21.510505
1040.881209	-21.513422
1041.242729	-21.514614
1041.604501	-21.500891
1041.966524	-21.434818
1042.328798	-21.374301
1042.691325	-21.338380
1043.054103	-21.339459
1043.417135	-21.339894
1043.780419	-21.307290
1044.143956	-21.244872
1044.507746	-21.186964
1044.871791	-21.163175
1045.236088	-21.161108
1045.600641	-21.159774
1045.965447	-21.114606
1046.330508	-21.060416
1046.695824	-21.004665
1047.061395	-20.989502
1047.427222	-20.989744
1047.793304	-20.979412
1048.159642	-20.942829
1048.526237	-20.885831
1048.893088	-20.846546
1049.260196	-20.832232
1049.627561	-20.836435
1049.995183	-20.825576
1050.363063	-20.794501
1050.731201	-20.744353
1051.099597	-20.719942
1051.468251	-20.706570
1051.837164	-20.719342
1052.206336	-20.708671
1052.575767	-20.684250
1052.945458	-20.645236
1053.315409	-20.627513
1053.685619	-20.622437
1054.056090	-20.636671
1054.426821	-20.634869
1054.797814	-20.613102
1055.169067	-20.586053
1055.540582	-20.569200
1055.912359	-20.574032
1056.284398	-20.584684
1056.656698	-20.592455
1057.029262	-20.572930
1057.402088	-20.555876
1057.775177	-20.537446
1058.148530	-20.547511
1058.522146	-20.553332
1058.896027	-20.568101
1059.270171	-20.550638
1059.644580	-20.536260
1060.019254	-20.515780
1060.394193	-20.525416
1060.769397	-20.528245
1061.144867	-20.537559
1061.520602	-20.523986
1061.896604	-20.507897
1062.272872	-20.482962
1062.649407	-20.478191
1063.026210	-20.479581
1063.403279	-20.479932
1063.780616	-20.462845
1064.158221	-20.435269
1064.536094	-20.407669
1064.914235	-20.384452
1065.292645	-20.373836
1065.671325	-20.359359
1066.050273	-20.339441
1066.429491	-20.298204
1066.808979	-20.258690
1067.188738	-20.217864
1067.568766	-20.194160
1067.949066	-20.163505
1068.329636	-20.134729
1068.710478	-20.084319
1069.091592	-20.035795
1069.472977	-19.978901
1069.854635	-19.941777
1070.236565	-19.899966
1070.618768	-19.865775
1071.001243	-19.810301
1071.383993	-19.758470
1071.767016	-19.695182
1072.150313	-19.649651
1072.533884	-19.600724
1072.917730	-19.566704
1073.301850	-19.516116
1073.686246	-19.468294
1074.070917	-19.405605
1074.455864	-19.360027
1074.841087	-19.313262
1075.226586	-19.284439
1075.612362	-19.242256
1075.998415	-19.204597
1076.384745	-19.152089
1076.771353	-19.115124
1077.158238	-19.076332
1077.545401	-19.055795
1077.932843	-19.025421
1078.320564	-19.003414
1078.708564	-18.966668
1079.096842	-18.941375
1079.485401	-18.911067
1079.874240	-18.900421
1080.263358	-18.884558
1080.652757	-18.879312
1081.042438	-18.858832
1081.432399	-18.846244
1081.822641	-18.824580
1082.213166	-18.820055
1082.603972	-18.812076
1082.995061	-18.816732
1083.386433	-18.808880
1083.778087	-18.807196
1084.170025	-18.792833
1084.562246	-18.790513
1084.954751	-18.782317
1085.347541	-18.786854
1085.740615	-18.780808
1086.133973	-18.781325
1086.527617	-18.768149
1086.921546	-18.763917
1087.315761	-18.750897
1087.710262	-18.749667
1088.105050	-18.737964
1088.500124	-18.732633
1088.895485	-18.713828
1089.291134	-18.701736
1089.687070	-18.681081
1090.083294	-18.670014
1090.479806	-18.652164
1090.876607	-18.639051
1091.273696	-18.617119
1091.671075	-18.596241
1092.068744	-18.570624
1092.466702	-18.548005
1092.864950	-18.526478
1093.263489	-18.504348
1093.662319	-18.483469
1094.061440	-18.456023
1094.460852	-18.432217
1094.860555	-18.402152
1095.260551	-18.381324
1095.660840	-18.353740
1096.061421	-18.335604
1096.462295	-18.305933
1096.863462	-18.284485
1097.264923	-18.252036
1097.666678	-18.230244
1098.068727	-18.200394
1098.471071	-18.181223
1098.873710	-18.154557
1099.276644	-18.133336
1099.679874	-18.103797
1100.083400	-18.080346
1100.487222	-18.051004
1100.891340	-18.028008
1101.295756	-18.001249
1101.700468	-17.978670
1102.105478	-17.951873
1102.510787	-17.927696
1102.916393	-17.901134
1103.322298	-17.875099
1103.728502	-17.850439
1104.135005	-17.823830
1104.541807	-17.802408
1104.948909	-17.774800
1105.356312	-17.756241
1105.764015	-17.727284
1106.172019	-17.709578
1106.580324	-17.680171
1106.988931	-17.663890
1107.397840	-17.636767
1107.807051	-17.621777
1108.216564	-17.598824
1108.626380	-17.582158
1109.036500	-17.562097
1109.446923	-17.543225
1109.857649	-17.526759
1110.268680	-17.506371
1110.680016	-17.494232
1111.091657	-17.474205
1111.503602	-17.464169
1111.915854	-17.443426
1112.328411	-17.433235
1112.741275	-17.414160
1113.154445	-17.403965
1113.567922	-17.386665
1113.981706	-17.373861
1114.395798	-17.357184
1114.810198	-17.341410
1115.224906	-17.327309
1115.639923	-17.311690
1116.055249	-17.301128
1116.470884	-17.282959
1116.886829	-17.269541
1117.303084	-17.244650
1117.719650	-17.228707
1118.136526	-17.206041
1118.553713	-17.194362
1118.971212	-17.177392
1119.389022	-17.162325
1119.807145	-17.140189
1120.225580	-17.111917
1120.644328	-17.087195
1121.063389	-17.060434
1121.482763	-17.048607
1121.902452	-17.030081
1122.322454	-17.018392
1122.742771	-16.989503
1123.163404	-16.961328
1123.584351	-16.927264
1124.005614	-16.903354
1124.427193	-16.889403
1124.849089	-16.877446
1125.271301	-16.867520
1125.693830	-16.840631
1126.116677	-16.814219
1126.539842	-16.778660
1126.963324	-16.760225
1127.387126	-16.745431
1127.811246	-16.742257
1128.235685	-16.732562
1128.660444	-16.713614
1129.085522	-16.689963
1129.510922	-16.660619
1129.936641	-16.647172
1130.362682	-16.633981
1130.789044	-16.635017
1131.215728	-16.624882
1131.642734	-16.613045
1132.070063	-16.592976
1132.497714	-16.571291
1132.925689	-16.560912
1133.353987	-16.548122
1133.782610	-16.548479
1134.211556	-16.535472
1134.640827	-16.526048
1135.070424	-16.506546
1135.500345	-16.489203
1135.930593	-16.477142
1136.361166	-16.462605
1136.792067	-16.457322
1137.223294	-16.439773
1137.654848	-16.427324
1138.086730	-16.405190
1138.518940	-16.387208
1138.951479	-16.370662
1139.384346	-16.352547
1139.817543	-16.339976
1140.251069	-16.317475
1140.684925	-16.300823
1141.119111	-16.275005
1141.553628	-16.255493
1141.988475	-16.234192
1142.423655	-16.212805
1142.859166	-16.195198
1143.295009	-16.168956
1143.731185	-16.150726
1144.167694	-16.123117
1144.604536	-16.103219
1145.041711	-16.080273
1145.479221	-16.056638
1145.917065	-16.038411
1146.355245	-16.010834
1146.793759	-15.993883
1147.232609	-15.967926
1147.671795	-15.948306
1148.111317	-15.928081
1148.551177	-15.903264
1148.991373	-15.887493
1149.431907	-15.861747
1149.872779	-15.846374
1150.313989	-15.825276
1150.755538	-15.805654
1151.197426	-15.789600
1151.639653	-15.766062
1152.082220	-15.752086
1152.525128	-15.730552
1152.968376	-15.715409
1153.411966	-15.699251
1153.855897	-15.680447
1154.300169	-15.666775
1154.744784	-15.645711
1155.189742	-15.631939
1155.635042	-15.613977
1156.080687	-15.598700
1156.526674	-15.585330
1156.973007	-15.566746
1157.419683	-15.554454
1157.866705	-15.534240
1158.314072	-15.520175
1158.761786	-15.504188
1159.209845	-15.487121
1159.658251	-15.476094
1160.107004	-15.455944
1160.556104	-15.443527
1161.005553	-15.424823
1161.455349	-15.406813
1161.905494	-15.394565
1162.355989	-15.373564
1162.806832	-15.363019
1163.258026	-15.343816
1163.709570	-15.325892
1164.161464	-15.311783
1164.613710	-15.288367
1165.066307	-15.276896
1165.519256	-15.257248
1165.972558	-15.240178
1166.426212	-15.226264
1166.880219	-15.201891
1167.334580	-15.188410
1167.789295	-15.166969
1168.244364	-15.148800
1168.699788	-15.135170
1169.155567	-15.111663
1169.611702	-15.097814
1170.068193	-15.075561
1170.525041	-15.055216
1170.982245	-15.040294
1171.439807	-15.016720
1171.897726	-15.003253
1172.356004	-14.982142
1172.814640	-14.961106
1173.273635	-14.945336
1173.732989	-14.920629
1174.192703	-14.906208
1174.652778	-14.886706
1175.113213	-14.866015
1175.574009	-14.851553
1176.035167	-14.826597
1176.496687	-14.810658
1176.958569	-14.792216
1177.420814	-14.771148
1177.883422	-14.758681
1178.346394	-14.735801
1178.809730	-14.719115
1179.273430	-14.702249
1179.737496	-14.680214
1180.201927	-14.668304
1180.666723	-14.648799
1181.131886	-14.632096
1181.597416	-14.617965
1182.063312	-14.596204
1182.529576	-14.583389
1182.996209	-14.566549
1183.463209	-14.549659
1183.930579	-14.538412
1184.398317	-14.518713
1184.866426	-14.505036
1185.334904	-14.490057
1185.803754	-14.472297
1186.272974	-14.462460
1186.742566	-14.445489
1187.212529	-14.431475
1187.682865	-14.418804
1188.153574	-14.399983
1188.624656	-14.389649
1189.096112	-14.374857
1189.567942	-14.359825
1190.040147	-14.349862
1190.512726	-14.331284
1190.985681	-14.318444
1191.459012	-14.305889
1191.932720	-14.288515
1192.406804	-14.279395
1192.881265	-14.263431
1193.356104	-14.247119
1193.831322	-14.236388
1194.306918	-14.217628
1194.782893	-14.205729
1195.259248	-14.193526
1195.735982	-14.174997
1196.213097	-14.164081
1196.690593	-14.147094
1197.168471	-14.130483
1197.646730	-14.120177
1198.125371	-14.102199
1198.604395	-14.088653
1199.083803	-14.075429
1199.563594	-14.055939
1200.043769	-14.044472
1200.524329	-14.029222
1201.005273	-14.012425
1201.486604	-14.001958
1201.968320	-13.983647
1202.450422	-13.968641
1202.932912	-13.957059
1203.415789	-13.938642
1203.899054	-13.927421
1204.382707	-13.914132
1204.866748	-13.895698
1205.351179	-13.885562
1205.836000	-13.870012
1206.321211	-13.854564
1206.806812	-13.845758
1207.292805	-13.828882
1207.779189	-13.815180
1208.265965	-13.805261
1208.753134	-13.788034
1209.240696	-13.777459
1209.728651	-13.767038
1210.217000	-13.750108
1210.705744	-13.740873
1211.194883	-13.728308
1211.684417	-13.712903
1212.174347	-13.705461
1212.664673	-13.691964
1213.155396	-13.678009
1213.646516	-13.670181
1214.138034	-13.655222
1214.629951	-13.643629
1215.122266	-13.636020
1215.614980	-13.620619
1216.108095	-13.610438
1216.601609	-13.601243
1217.095524	-13.585880
1217.589841	-13.577698
1218.084559	-13.567763
1218.579679	-13.552814
1219.075202	-13.545065
1219.571128	-13.533617
1220.067458	-13.519650
1220.564191	-13.512880
1221.061330	-13.500751
1221.558874	-13.487353
1222.056823	-13.480293
1222.555178	-13.467266
1223.053940	-13.455178
1223.553109	-13.448409
1224.052686	-13.434738
1224.552671	-13.423141
1225.053065	-13.415931
1225.553867	-13.401979
1226.055079	-13.391539
1226.556702	-13.384071
1227.058735	-13.369618
1227.561179	-13.359576
1228.064035	-13.351643
1228.567303	-13.337284
1229.070983	-13.327884
1229.575077	-13.319516
1230.079585	-13.304709
1230.584506	-13.295434
1231.089842	-13.286794
1231.595594	-13.272101
1232.101761	-13.262849
1232.608345	-13.253616
1233.115345	-13.238568
1233.622762	-13.229146
1234.130597	-13.219688
1234.638851	-13.204561
1235.147523	-13.194704
1235.656615	-13.184539
1236.166126	-13.169171
1236.676058	-13.158995
1237.186411	-13.148578
1237.697185	-13.132818
1238.208381	-13.121926
1238.719999	-13.111026
1239.232040	-13.095166
1239.744505	-13.083842
1240.257394	-13.072583
1240.770708	-13.056191
1241.284446	-13.044145
1241.798610	-13.032823
1242.313201	-13.016253
1242.828218	-13.003514
1243.343662	-12.991883
1243.859534	-12.975007
1244.375834	-12.961594
1244.892563	-12.950063
1245.409721	-12.933100
1245.927309	-12.918648
1246.445327	-12.906855
1246.963777	-12.890138
1247.482657	-12.875030
1248.001970	-12.863010
1248.521716	-12.846250
1249.041894	-12.830270
1249.562506	-12.818064
1250.083553	-12.801738
1250.605034	-12.784947
1251.126950	-12.772090
1251.649302	-12.755857
1252.172091	-12.738520
1252.695316	-12.725320
1253.218979	-12.709364
1253.743079	-12.691057
1254.267619	-12.677036
1254.792597	-12.661534
1255.318015	-12.642782
1255.843874	-12.627811
1256.370173	-12.612455
1256.896913	-12.593078
1257.424095	-12.577075
1257.951720	-12.562219
1258.479787	-12.542725
1259.008298	-12.525104
1259.537254	-12.510145
1260.066654	-12.491136
1260.596499	-12.472425
1261.126790	-12.457077
1261.657527	-12.438535
1262.188711	-12.418729
1262.720342	-12.402928
1263.252422	-12.385481
1263.784950	-12.365146
1264.317928	-12.348154
1264.851355	-12.331618
1265.385232	-12.311663
1265.919560	-12.293890
1266.454340	-12.278031
1266.989572	-12.258733
1267.525256	-12.240070
1268.061394	-12.224952
1268.597985	-12.207267
1269.135031	-12.187982
1269.672531	-12.172570
1270.210487	-12.156765
1270.748899	-12.138176
1271.287768	-12.122251
1271.827094	-12.107800
1272.366877	-12.090362
1272.907119	-12.074079
1273.447820	-12.060795
1273.988981	-12.045169
1274.530601	-12.028533
1275.072683	-12.015390
1275.615226	-12.002075
1276.158230	-11.986146
1276.701697	-11.972575
1277.245627	-11.960689
1277.790021	-11.946161
1278.334879	-11.932344
1278.880202	-11.921487
1279.425991	-11.908674
1279.972245	-11.894389
1280.518966	-11.883637
1281.066155	-11.873326
1281.613811	-11.859631
1282.161936	-11.847433
1282.710529	-11.838535
1283.259593	-11.827181
1283.809126	-11.814230
1284.359131	-11.804765
1284.909607	-11.795680
1285.460555	-11.783506
1286.011976	-11.772921
1286.563870	-11.765042
1287.116237	-11.754796
1287.669080	-11.743218
1288.222397	-11.735150
1288.776191	-11.727417
1289.330460	-11.716429
1289.885207	-11.706833
1290.440431	-11.700297
1290.996133	-11.691757
1291.552314	-11.681470
1292.108975	-11.674194
1292.666115	-11.667870
1293.223737	-11.658724
1293.781839	-11.650298
1294.340424	-11.644752
1294.899491	-11.637726
1295.459041	-11.628757
1296.019075	-11.622633
1296.579593	-11.617698
1297.140597	-11.609798
1297.702086	-11.602029
1298.264061	-11.597608
1298.826524	-11.592325
1299.389474	-11.584089
1299.952912	-11.577998
1300.516839	-11.574360
1301.081255	-11.568158
1301.646162	-11.560514
1302.211559	-11.555960
1302.777448	-11.552123
1303.343829	-11.545233
1303.910702	-11.538713
1304.478069	-11.535249
1305.045930	-11.530642
1305.614285	-11.523549
1306.183136	-11.518485
1306.752483	-11.515552
1307.322326	-11.510090
1307.892666	-11.503401
1308.463504	-11.499808
1309.034841	-11.496867
1309.606677	-11.490837
1310.179012	-11.485068
1310.751849	-11.482543
1311.325186	-11.479367
1311.899025	-11.473206
1312.473366	-11.468520
1313.048211	-11.466791
1313.623559	-11.463166
1314.199412	-11.457295
1314.775770	-11.453867
1315.352634	-11.452331
1315.930004	-11.448328
1316.507881	-11.443006
1317.086266	-11.440508
1317.665159	-11.438980
1318.244562	-11.434558
1318.824474	-11.429767
1319.404897	-11.428085
1319.985831	-11.426302
1320.567276	-11.421437
1321.149234	-11.417222
1321.731706	-11.415969
1322.314691	-11.413783
1322.898190	-11.408730
1323.482205	-11.404839
1324.066736	-11.403701
1324.651783	-11.401257
1325.237347	-11.396015
1325.823430	-11.392271
1326.410031	-11.391175
1326.997151	-11.388302
1327.584791	-11.383012
1328.172952	-11.379541
1328.761634	-11.378116
1329.350839	-11.374802
1329.940566	-11.369628
1330.530817	-11.366254
1331.121592	-11.364522
1331.712891	-11.360822
1332.304716	-11.355564
1332.897068	-11.352238
1333.489946	-11.350337
1334.083352	-11.346165
1334.677287	-11.340616
1335.271750	-11.337301
1335.866744	-11.335092
1336.462268	-11.330541
1337.058323	-11.324715
1337.654910	-11.321003
1338.252029	-11.318437
1338.849682	-11.313706
1339.447869	-11.307469
1340.046591	-11.303162
1340.645848	-11.300239
1341.245641	-11.295218
1341.845972	-11.288635
1342.446840	-11.283909
1343.048246	-11.280433
1343.650191	-11.275041
1344.252677	-11.268260
1344.855702	-11.263158
1345.459269	-11.259228
1346.063379	-11.253528
1346.668030	-11.246538
1347.273226	-11.241069
1347.878965	-11.236817
1348.485250	-11.231084
1349.092080	-11.223933
1349.699456	-11.217899
1350.307380	-11.213410
1350.915851	-11.207903
1351.524871	-11.200694
1352.134441	-11.194127
1352.744560	-11.189267
1353.355231	-11.183986
1353.966453	-11.177016
1354.578227	-11.170031
1355.190555	-11.164693
1355.803436	-11.159568
1356.416872	-11.152842
1357.030863	-11.145648
1357.645411	-11.140028
1358.260515	-11.135027
1358.876177	-11.128555
1359.492397	-11.121324
1360.109176	-11.115422
1360.726516	-11.110661
1361.344416	-11.104765
1361.962877	-11.097536
1362.581901	-11.091437
1363.201487	-11.086958
1363.821637	-11.081767
1364.442352	-11.075123
1365.063632	-11.069063
1365.685478	-11.064569
1366.307891	-11.060114
1366.930871	-11.054573
1367.554420	-11.048977
1368.178538	-11.044541
1368.803226	-11.040751
1369.428485	-11.036412
1370.054315	-11.031646
1370.680717	-11.027623
1371.307693	-11.024594
1371.935242	-11.021422
1372.563366	-11.017622
1373.192065	-11.014237
1373.821341	-11.012139
1374.451193	-11.010330
1375.081623	-11.007720
1375.712632	-11.005133
1376.344221	-11.003836
1376.976389	-11.003275
1377.609139	-11.002196
1378.242470	-11.000892
1378.876384	-11.000311
1379.510881	-11.000523
1380.145963	-11.000957
1380.781629	-11.001271
1381.417881	-11.001620
1382.054720	-11.002608
1382.692147	-11.004301
1383.330161	-11.005995
1383.968765	-11.007577
1384.607959	-11.009737
1385.247743	-11.012647
1385.888119	-11.015578
1386.529087	-11.018433
1387.170648	-11.021780
1387.812804	-11.025704
1388.455554	-11.029872
1389.098899	-11.034205
1389.742842	-11.038607
1390.387381	-11.043180
1391.032519	-11.048379
1391.678256	-11.054121
1392.324592	-11.059794
1392.971529	-11.065367
1393.619068	-11.071452
1394.267208	-11.078152
1394.915952	-11.085192
1395.565300	-11.092267
1396.215253	-11.099341
1396.865812	-11.106747
1397.516977	-11.114825
1398.168749	-11.123224
1398.821130	-11.131175
1399.474120	-11.139190
1400.127719	-11.148083
1400.781930	-11.157365
1401.436752	-11.166321
1402.092186	-11.175046
1402.748234	-11.184232
1403.404897	-11.194306
1404.062174	-11.204726
1404.720067	-11.214625
1405.378577	-11.224149
1406.037705	-11.234604
1406.697451	-11.246183
1407.357817	-11.257395
1408.018803	-11.267709
1408.680410	-11.278259
1409.342639	-11.289846
1410.005492	-11.301892
1410.668968	-11.313274
1411.333068	-11.323834
1411.997795	-11.334922
1412.663147	-11.347333
1413.329127	-11.359755
1413.995736	-11.370939
1414.662973	-11.381935
1415.330840	-11.394256
1415.999339	-11.407452
1416.668469	-11.420093
1417.338232	-11.431652
1418.008628	-11.443267
1418.679659	-11.456200
1419.351325	-11.469720
1420.023628	-11.481904
1420.696568	-11.492771
1421.370145	-11.504214
1422.044362	-11.516904
1422.719219	-11.529373
1423.394717	-11.540307
1424.070856	-11.550243
1424.747638	-11.561211
1425.425064	-11.573804
1426.103134	-11.586069
1426.781850	-11.596538
1427.461212	-11.606625
1428.141221	-11.618327
1428.821878	-11.631560
1429.503185	-11.644331
1430.185141	-11.655142
1430.867749	-11.665173
1431.551008	-11.676652
1432.234920	-11.689268
1432.919486	-11.700610
1433.604707	-11.709585
1434.290583	-11.717643
1434.977116	-11.726526
1435.664307	-11.736212
1436.352156	-11.744737
1437.040664	-11.751129
1437.729833	-11.757113
1438.419663	-11.764613
1439.110156	-11.773354
1439.801312	-11.781811
1440.493132	-11.789286
1441.185617	-11.796914
1441.878768	-11.806627
1442.572586	-11.818241
1443.267072	-11.829795
1443.962228	-11.840487
1444.658053	-11.850986
1445.354549	-11.862327
1446.051717	-11.874617
1446.749558	-11.886317
1447.448073	-11.895952
1448.147263	-11.904098
1448.847128	-11.911749
1449.547671	-11.918886
1450.248891	-11.924996
1450.950789	-11.929509
1451.653368	-11.932708
1452.356627	-11.935808
1453.060568	-11.939385
1453.765192	-11.943383
1454.470500	-11.948209
1455.176492	-11.954297
1455.883170	-11.962295
1456.590534	-11.973014
1457.298586	-11.986426
1458.007327	-12.002569
1458.716758	-12.021935
1459.426880	-12.044136
1460.137693	-12.068684
1460.849199	-12.095780
1461.561398	-12.125106
1462.274293	-12.156090
1462.987883	-12.187899
1463.702170	-12.219019
1464.417155	-12.248977
1465.132838	-12.278216
1465.849222	-12.306246
1466.566306	-12.332202
1467.284093	-12.355150
1468.002582	-12.374575
1468.721775	-12.391692
1469.441674	-12.407898
1470.162278	-12.423214
1470.883590	-12.437726
1471.605609	-12.451930
1472.328338	-12.467516
1473.051777	-12.487048
1473.775928	-12.511393
1474.500790	-12.540408
1475.226367	-12.575098
1475.952657	-12.616985
1476.679663	-12.667791
1477.407386	-12.728444
1478.135826	-12.798080
1478.864985	-12.876403
1479.594863	-12.964218
1480.325463	-13.061846
1481.056784	-13.168866
1481.788828	-13.283599
1482.521597	-13.403943
1483.255090	-13.529089
1483.989309	-13.658042
1484.724256	-13.788497
1485.459931	-13.917757
1486.196336	-14.043066
1486.933471	-14.162678
1487.671337	-14.275738
1488.409937	-14.380636
1489.149270	-14.475829
1489.889337	-14.560821
1490.630141	-14.636233
1491.371682	-14.703792
1492.113961	-14.764985
1492.856979	-14.821090
1493.600738	-14.874624
1494.345238	-14.928853
1495.090481	-14.987028
1495.836467	-15.052172
1496.583198	-15.126761
1497.330675	-15.213948
1498.078899	-15.317390
1498.827872	-15.440200
1499.577593	-15.585238
1500.328065	-15.754719
1501.079289	-15.951128
1501.831265	-16.177484
1502.583995	-16.435896
1503.337480	-16.727992
1504.091721	-17.054651
1504.846719	-17.416366
1505.602475	-17.814282
1506.358991	-18.247931
1507.116268	-18.715153
1507.874306	-19.212549
1508.633108	-19.735301
1509.392673	-20.278109
1510.153004	-20.833143
1510.914101	-21.388287
1511.675965	-21.928190
1512.438599	-22.433936
1513.202002	-22.883416
1513.966176	-23.249248
1514.731122	-23.497089
1515.496842	-23.591138
1516.263336	-23.501231
1517.030607	-23.210437
1517.798654	-22.720437
1518.567479	-22.050381
1519.337083	-21.235339
1520.107468	-20.318811
1520.878634	-19.341324
1521.650584	-18.336270
1522.423317	-17.328482
1523.196836	-16.336076
1523.971141	-15.372394
1524.746233	-14.445501
1525.522115	-13.559902
1526.298786	-12.717722
1527.076249	-11.919792
1527.854504	-11.166453
1528.633553	-10.456981
1529.413397	-9.790011
1530.194037	-9.164070
1530.975474	-8.577943
1531.757709	-8.030761
1532.540745	-7.521608
1533.324581	-7.049582
1534.109220	-6.614305
1534.894662	-6.215866
1535.680909	-5.854637
1536.467961	-5.530959
1537.255821	-5.245236
1538.044489	-4.998294
1538.833967	-4.791054
1539.624256	-4.624310
1540.415357	-4.498581
1541.207271	-4.414338
1542.000000	-4.372211
1542.793545	-4.372564
1543.587907	-4.415432
1544.383087	-4.500636
1545.179088	-4.628088
1545.975909	-4.797813
1546.773552	-5.009535
1547.572019	-5.262901
1548.371311	-5.557806
1549.171428	-5.894547
1549.972373	-6.273702
1550.774147	-6.695879
1551.576751	-7.162131
1552.380185	-7.674412
1553.184453	-8.235422
1553.989554	-8.848444
1554.795490	-9.517190
1555.602263	-10.246661
1556.409873	-11.043342
1557.218322	-11.914582
1558.027612	-12.868172
1558.837743	-13.912216
1559.648717	-15.054798
1560.460536	-16.299672
1561.273200	-17.637076
1562.086710	-19.026889
1562.901069	-20.368559
1563.716278	-21.465575
1564.532337	-22.054715
1565.349249	-21.986341
1566.167014	-21.378447
1566.985634	-20.490081
1567.805111	-19.529771
1568.625444	-18.610026
1569.446637	-17.776163
1570.268690	-17.039273
1571.091605	-16.395634
1571.915382	-15.836961
1572.740024	-15.354125
1573.565532	-14.937384
1574.391907	-14.577543
1575.219150	-14.266297
1576.047262	-13.996394
1576.876246	-13.761442
1577.706103	-13.555020
1578.536833	-13.371443
1579.368439	-13.205999
1580.200922	-13.054671
1581.034282	-12.913778
1581.868522	-12.779856
1582.703643	-12.650988
1583.539646	-12.525873
1584.376532	-12.403321
1585.214304	-12.282656
1586.052962	-12.164300
1586.892508	-12.049075
1587.732943	-11.937299
1588.574269	-11.829781
1589.416487	-11.728105
1590.259599	-11.633135
1591.103605	-11.545505
1591.948508	-11.466068
1592.794309	-11.395869
1593.641009	-11.335216
1594.488609	-11.284216
1595.337112	-11.243253
1596.186518	-11.212447
1597.036829	-11.191628
1597.888047	-11.180537
1598.740172	-11.178909
1599.593207	-11.186579
1600.447153	-11.203117
1601.302010	-11.227876
1602.157782	-11.260379
1603.014469	-11.300595
1603.872072	-11.347563
1604.730593	-11.400287
1605.590034	-11.458672
1606.450397	-11.522196
1607.311681	-11.589324
1608.173890	-11.659387
1609.037024	-11.732244
1609.901085	-11.806592
1610.766075	-11.881080
1611.631995	-11.955672
1612.498846	-12.029607
1613.366630	-12.101658
1614.235349	-12.171440
1615.105004	-12.238952
1615.975596	-12.303541
1616.847128	-12.364740
1617.719600	-12.422847
1618.593014	-12.478144
1619.467372	-12.530448
1620.342675	-12.579929
1621.218924	-12.627603
1622.096122	-12.673943
1622.974270	-12.718764
1623.853369	-12.763316
1624.733420	-12.808609
1625.614427	-12.854405
1626.496389	-12.901515
1627.379308	-12.951068
1628.263187	-13.002958
1629.148026	-13.057397
1630.033828	-13.115272
1630.920593	-13.176333
1631.808324	-13.240512
1632.697022	-13.308009
1633.586688	-13.378624
1634.477324	-13.451875
1635.368932	-13.527512
1636.261514	-13.605269
1637.155070	-13.684455
1638.049602	-13.764535
1638.945113	-13.845378
1639.841603	-13.926049
1640.739075	-14.006155
1641.637529	-14.085771
1642.536968	-14.163990
1643.437393	-14.240654
1644.338806	-14.316132
1645.241209	-14.389773
1646.144602	-14.461643
1647.048988	-14.532380
1647.954368	-14.601595
1648.860744	-14.669667
1649.768118	-14.737041
1650.676491	-14.803785
1651.585865	-14.870114
1652.496241	-14.936430
1653.407621	-15.002787
1654.320008	-15.069203
1655.233401	-15.136127
1656.147804	-15.203099
1657.063218	-15.270106
1657.979645	-15.337509
1658.897085	-15.404485
1659.815542	-15.470915
1660.735016	-15.536925
1661.655509	-15.601529
1662.577023	-15.664862
1663.499560	-15.726561
1664.423121	-15.785900
1665.347709	-15.843148
1666.273324	-15.897734
1667.199969	-15.949200
1668.127645	-15.997933
1669.056353	-16.043608
1669.986097	-16.085755
1670.916877	-16.125116
1671.848695	-16.161258
1672.781553	-16.194045
1673.715452	-16.224289
1674.650395	-16.251353
1675.586383	-16.275572
1676.523418	-16.297190
1677.461501	-16.315824
1678.400635	-16.331871
1679.340821	-16.345139
1680.282061	-16.355645
1681.224357	-16.363442
1682.167710	-16.368216
1683.112122	-16.370281
1684.057595	-16.369439
1685.004132	-16.365477
1685.951732	-16.358809
1686.900400	-16.349022
1687.850135	-16.336390
1688.800940	-16.321136
1689.752818	-16.302885
1690.705768	-16.282225
1691.659795	-16.259078
1692.614898	-16.233557
1693.571081	-16.206071
1694.528345	-16.176409
1695.486691	-16.145038
1696.446122	-16.111878
1697.406640	-16.077036
1698.368245	-16.040741
1699.330941	-16.002853
1700.294729	-15.963619
1701.259611	-15.923011
1702.225588	-15.881074
1703.192664	-15.837925
1704.160838	-15.793535
1705.130114	-15.748132
1706.100493	-15.701609
1707.071977	-15.654193
1708.044568	-15.606085
1709.018268	-15.557126
1709.993079	-15.507811
1710.969003	-15.457980
1711.946041	-15.407902
1712.924196	-15.357720
1713.903469	-15.307335
1714.883862	-15.257100
1715.865378	-15.206811
1716.848017	-15.156657
1717.831783	-15.106638
1718.816677	-15.056686
1719.802701	-15.006931
1720.789857	-14.957246
1721.778147	-14.907766
1722.767573	-14.858365
1723.758136	-14.809182
1724.749840	-14.760248
1725.742685	-14.711437
1726.736673	-14.663035
1727.731808	-14.614856
1728.728090	-14.567021
1729.725521	-14.519475
1730.724105	-14.472210
1731.723842	-14.425161
1732.724735	-14.378248
1733.726785	-14.331509
1734.729995	-14.284777
1735.734366	-14.238085
1736.739902	-14.191408
1737.746603	-14.144754
1738.754472	-14.098096
1739.763510	-14.051581
1740.773721	-14.005139
1741.785105	-13.958895
1742.797665	-13.912886
1743.811403	-13.867068
1744.826321	-13.821635
1745.842422	-13.776436
1746.859706	-13.731645
1747.878177	-13.687241
1748.897835	-13.643284
1749.918685	-13.599846
1750.940726	-13.556949
1751.963963	-13.514668
1752.988395	-13.473050
1754.014027	-13.432106
1755.040860	-13.391906
1756.068895	-13.352480
1757.098135	-13.313829
1758.128583	-13.276077
1759.160240	-13.239160
1760.193109	-13.203174
1761.227191	-13.168098
1762.262488	-13.133888
1763.299004	-13.100547
1764.336740	-13.067963
1765.375697	-13.036091
1766.415880	-13.004847
1767.457288	-12.974122
1768.499926	-12.943928
1769.543794	-12.914154
1770.588895	-12.884847
1771.635231	-12.855974
1772.682805	-12.827531
1773.731619	-12.799567
1774.781674	-12.772035
1775.832973	-12.744963
1776.885519	-12.718323
1777.939312	-12.692102
1778.994357	-12.666253
1780.050654	-12.640756
1781.108207	-12.615535
1782.167017	-12.590584
1783.227087	-12.565831
1784.288418	-12.541295
1785.351013	-12.516967
1786.414875	-12.492882
1787.480006	-12.469066
1788.546407	-12.445566
1789.614082	-12.422380
1790.683032	-12.399550
1791.753259	-12.377043
1792.824767	-12.354872
1793.897557	-12.333008
1794.971632	-12.311433
1796.046994	-12.290156
1797.123645	-12.269180
1798.201588	-12.248511
1799.280824	-12.228210
1800.361357	-12.208289
1801.443188	-12.188794
1802.526320	-12.169742
1803.610756	-12.151133
1804.696497	-12.132949
1805.783546	-12.115153
1806.871906	-12.097705
1807.961578	-12.080587
1809.052565	-12.063766
1810.144870	-12.047228
1811.238494	-12.030964
1812.333441	-12.014938
1813.429713	-11.999145
1814.527311	-11.983592
1815.626239	-11.968264
1816.726499	-11.953205
1817.828094	-11.938429
1818.931025	-11.923951
1820.035295	-11.909780
1821.140906	-11.895918
1822.247862	-11.882321
1823.356165	-11.868987
1824.465816	-11.855863
1825.576819	-11.842963
1826.689175	-11.830290
1827.802888	-11.817876
1828.917960	-11.805766
1830.034394	-11.794016
1831.152191	-11.782622
1832.271354	-11.771616
1833.391887	-11.760962
1834.513790	-11.750628
1835.637068	-11.740595
1836.761722	-11.730835
1837.887755	-11.721344
1839.015169	-11.712143
1840.143968	-11.703236
1841.274153	-11.694649
1842.405727	-11.686403
1843.538693	-11.678499
1844.673053	-11.670956
1845.808810	-11.663784
1846.945966	-11.656968
1848.084525	-11.650520
1849.224488	-11.644417
1850.365858	-11.638603
1851.508638	-11.633026
1852.652831	-11.627620
1853.798438	-11.622329
1854.945463	-11.617147
1856.093909	-11.612050
1857.243777	-11.607051
1858.395071	-11.602191
1859.547794	-11.597487
1860.701947	-11.592944
1861.857533	-11.588545
1863.014556	-11.584240
1864.173018	-11.579979
1865.332922	-11.575737
1866.494270	-11.571494
1867.657065	-11.567276
1868.821309	-11.563132
1869.987006	-11.559094
1871.154158	-11.555194
1872.322768	-11.551437
1873.492839	-11.547804
1874.664373	-11.544257
1875.837373	-11.540759
1877.011841	-11.537257
1878.187782	-11.533715
1879.365197	-11.530138
1880.544089	-11.526528
1881.724460	-11.522931
1882.906315	-11.519423
1884.089655	-11.516065
1885.274483	-11.512931
1886.460803	-11.510070
1887.648616	-11.507493
1888.837927	-11.505211
1890.028736	-11.503226
1891.221049	-11.501531
1892.414866	-11.500160
1893.610192	-11.499167
1894.807028	-11.498590
1896.005379	-11.498469
1897.205246	-11.498810
1898.406633	-11.499583
1899.609542	-11.500740
1900.813977	-11.502243
1902.019940	-11.504028
1903.227434	-11.506038
1904.436462	-11.508242
1905.647028	-11.510585
1906.859133	-11.513027
1908.072781	-11.515569
1909.287976	-11.518218
1910.504719	-11.520997
1911.723013	-11.523964
1912.942863	-11.527139
1914.164270	-11.530507
1915.387238	-11.534044
1916.611770	-11.537712
1917.837868	-11.541505
1919.065536	-11.545452
1920.294777	-11.549623
1921.525594	-11.554063
1922.757989	-11.558817
1923.991967	-11.563880
1925.227529	-11.569186
1926.464679	-11.574651
1927.703420	-11.580205
1928.943755	-11.585774
1930.185688	-11.591322
1931.429221	-11.596821
1932.674356	-11.602250
1933.921099	-11.607610
1935.169451	-11.612937
1936.419415	-11.618260
1937.670996	-11.623591
1938.924195	-11.628909
1940.179017	-11.634158
1941.435463	-11.639274
1942.693538	-11.644252
1943.953245	-11.649148
1945.214586	-11.654069
1946.477566	-11.659153
1947.742186	-11.664525
1949.008451	-11.670246
1950.276363	-11.676320
1951.545926	-11.682705
1952.817143	-11.689339
1954.090017	-11.696185
1955.364551	-11.703242
1956.640749	-11.710542
1957.918615	-11.718145
1959.198150	-11.726139
1960.479359	-11.734598
1961.762244	-11.743543
1963.046810	-11.752950
1964.333059	-11.762761
1965.620995	-11.772907
1966.910621	-11.783358
1968.201940	-11.794114
1969.494956	-11.805197
1970.789672	-11.816615
1972.086091	-11.828390
1973.384217	-11.840542
1974.684053	-11.853128
1975.985602	-11.866241
1977.288869	-11.879969
1978.593855	-11.894320
1979.900566	-11.909206
1981.209003	-11.924475
1982.519171	-11.940006
1983.831073	-11.955778
1985.144712	-11.971882
1986.460093	-11.988403
1987.777217	-12.005356
1989.096089	-12.022661
1990.416713	-12.040152
1991.739092	-12.057666
1993.063228	-12.075111
1994.389127	-12.092524
1995.716791	-12.110040
1997.046223	-12.127832
1998.377428	-12.146003
1999.710409	-12.164539
2001.045169	-12.183315
2002.381713	-12.202194
2003.720043	-12.221085
2005.060163	-12.239999
2006.402077	-12.259003
2007.745788	-12.278185
2009.091301	-12.297599
2010.438618	-12.317238
2011.787743	-12.337077
2013.138680	-12.357074
2014.491433	-12.377239
2015.846005	-12.397608
2017.202399	-12.418232
2018.560621	-12.439152
2019.920673	-12.460379
2021.282558	-12.481913
2022.646281	-12.503727
2024.011846	-12.525842
2025.379256	-12.548344
2026.748515	-12.571312
2028.119626	-12.594781
2029.492594	-12.618691
2030.867422	-12.642986
2032.244114	-12.667683
2033.622673	-12.692913
2035.003104	-12.718886
2036.385411	-12.745761
2037.769597	-12.773613
2039.155665	-12.802401
2040.543621	-12.832039
2041.933467	-12.862463
2043.325208	-12.893659
2044.718847	-12.925632
2046.114389	-12.958343
2047.511837	-12.991674
2048.911195	-13.025477
2050.312467	-13.059586
2051.715657	-13.093875
2053.120769	-13.128302
2054.527807	-13.162920
2055.936775	-13.197811
2057.347677	-13.233033
2058.760516	-13.268573
2060.175297	-13.304346
2061.592025	-13.340247
2063.010701	-13.376161
2064.431332	-13.412015
2065.853921	-13.447784
2067.278472	-13.483513
2068.704988	-13.519329
2070.133475	-13.555371
2071.563936	-13.591734
2072.996375	-13.628369
2074.430796	-13.665084
2075.867204	-13.701617
2077.305603	-13.737813
2078.745996	-13.773786
2080.188389	-13.809870
2081.632784	-13.846433
2083.079187	-13.883617
2084.527601	-13.921265
2085.978030	-13.959055
2087.430480	-13.996717
2088.884954	-14.034247
2090.341455	-14.071902
2091.799990	-14.110059
2093.260561	-14.148987
2094.723173	-14.188709
2096.187831	-14.229024
2097.654538	-14.269690
2099.123300	-14.310631
2100.594119	-14.352048
2102.067001	-14.394341
2103.541950	-14.437884
2105.018971	-14.482871
2106.498067	-14.529320
2107.979243	-14.577116
2109.462503	-14.626082
2110.947853	-14.676021
2112.435295	-14.726841
2113.924836	-14.778675
2115.416478	-14.831871
2116.910227	-14.886711
2118.406087	-14.943104
2119.904063	-15.000536
2121.404158	-15.058430
2122.906378	-15.116585
2124.410727	-15.175273
2125.917210	-15.234930
2127.425831	-15.295713
2128.936594	-15.357343
2130.449505	-15.419174
2131.964567	-15.480520
2133.481786	-15.541041
2135.001166	-15.601022
2136.522711	-15.661184
2138.046427	-15.722112
2139.572317	-15.783735
2141.100388	-15.845332
2142.630642	-15.906183
2144.163085	-15.966124
2145.697722	-16.025576
2147.234558	-16.085079
2148.773596	-16.144935
2150.314842	-16.205102
2151.858301	-16.265399
2153.403977	-16.325652
2154.951875	-16.385777
2156.502000	-16.445722
2158.054357	-16.505627
2159.608950	-16.565853
2161.165785	-16.626779
2162.724866	-16.688442
2164.286198	-16.750497
2165.849786	-16.812580
2167.415635	-16.874725
2168.983749	-16.937519
2170.554134	-17.001664
2172.126795	-17.067432
2173.701737	-17.134595
2175.278964	-17.202813
2176.858481	-17.271935
2178.440294	-17.341950
2180.024408	-17.412944
2181.610827	-17.485190
2183.199557	-17.558987
2184.790602	-17.634384
2186.383968	-17.711082
2187.979660	-17.788834
2189.577683	-17.867721
2191.178041	-17.948033
2192.780741	-18.029900
2194.385787	-18.113199
2195.993185	-18.197669
2197.602939	-18.283058
2199.215054	-18.362619
