# 2022-03-22_10.57.25
# shape = sech2
# FWHM_ps = 0.11
# carrier_nm = 1542
# frep_MHz = 12126
# pow_mW = 8000
# GDD = 0.0
# propa_len = 0.13244444444444445
# untap_len = 0.01
# taper_len = 0.07244444444444445
# waist_len = 0.02
# uptap_len = 0.02
# untap_scale = 1.0
# waist_scale = 0.19473684210526318
# workingDir = NL_20110305_12 (Spirou)
# axis = slow
# window_ps = 10.0
# steps = 200
# points = 21700
# 
# wavelength [nm]	 power spectral density [dB]
600.043425	-87.519126
600.163550	-88.087585
600.283723	-89.371585
600.403943	-91.790828
600.524212	-95.437659
600.644529	-93.945009
600.764895	-90.267425
600.885308	-88.106945
601.005770	-86.791827
601.126280	-86.347707
601.246839	-87.201689
601.367446	-89.225487
601.488101	-91.913470
601.608804	-96.360451
601.729557	-107.128321
601.850357	-98.134579
601.971206	-93.255949
602.092104	-90.585164
602.213050	-88.828465
602.334045	-88.530648
602.455089	-89.922031
602.576181	-92.603099
602.697322	-96.766788
602.818511	-101.754189
602.939749	-95.823543
603.061036	-91.983942
603.182372	-90.551599
603.303757	-90.225221
603.425191	-91.229048
603.546673	-94.959209
603.668204	-106.397409
603.789785	-99.972223
603.911414	-92.600636
604.033092	-88.592265
604.154820	-86.278444
604.276596	-85.226197
604.398422	-84.985164
604.520297	-85.226024
604.642220	-85.940771
604.764193	-87.316538
604.886216	-89.373453
605.008287	-91.881936
605.130408	-93.125539
605.252578	-91.582875
605.374798	-89.991536
605.497066	-89.524948
605.619385	-90.345041
605.741752	-92.506211
605.864169	-95.715900
605.986636	-96.582608
606.109152	-93.066037
606.231718	-90.286935
606.354333	-89.217739
606.476998	-89.432051
606.599712	-90.629820
606.722476	-93.319579
606.845290	-96.909371
606.968154	-94.821388
607.091067	-91.077593
607.214030	-88.472698
607.337043	-86.817977
607.460106	-86.260936
607.583219	-86.874795
607.706381	-88.624996
607.829594	-91.658828
607.952856	-97.145461
608.076169	-104.751965
608.199531	-97.337549
608.322944	-92.945443
608.446407	-90.894047
608.569920	-90.457521
608.693483	-91.670698
608.817096	-95.432076
608.940759	-105.370130
609.064473	-96.576783
609.188237	-90.057670
609.312051	-86.601701
609.435916	-84.681866
609.559831	-83.925591
609.683796	-84.253409
609.807812	-85.640174
609.931878	-88.176849
610.055995	-92.628572
610.180162	-104.122663
610.304380	-99.160957
610.428648	-91.893931
610.552967	-89.406289
610.677337	-89.050254
610.801757	-90.028833
610.926228	-92.029452
611.050750	-95.063837
611.175323	-94.519607
611.299946	-89.852099
611.424620	-86.758036
611.549345	-85.316938
611.674121	-84.922006
611.798948	-85.101719
611.923826	-85.830728
612.048755	-87.366561
612.173734	-90.081473
612.298765	-94.325270
612.423847	-98.126897
612.548980	-96.683049
612.674165	-94.765572
612.799400	-93.885865
612.924687	-93.210783
613.050025	-91.852096
613.175414	-89.984442
613.300854	-88.246964
613.426346	-87.259401
613.551889	-87.242169
613.677484	-88.109070
613.803130	-89.576607
613.928827	-90.949707
614.054576	-90.595800
614.180377	-88.180272
614.306229	-85.624853
614.432132	-83.797175
614.558087	-82.696014
614.684094	-82.254990
614.810153	-82.574125
614.936263	-83.781762
615.062425	-85.875785
615.188639	-88.757099
615.314904	-92.129771
615.441222	-95.130259
615.567591	-94.403347
615.694012	-91.621709
615.820486	-89.896158
615.947011	-89.146602
616.073588	-88.857939
616.200217	-88.654795
616.326898	-88.218912
616.453632	-87.570696
616.580417	-86.951571
616.707255	-86.605578
616.834144	-86.883658
616.961086	-88.078922
617.088081	-89.929363
617.215127	-90.264197
617.342226	-87.858598
617.469378	-85.380811
617.596581	-83.797551
617.723837	-83.048810
617.851146	-83.049439
617.978507	-83.754716
618.105920	-85.043743
618.233386	-87.182562
618.360905	-90.989916
618.488476	-98.948584
618.616100	-109.609731
618.743777	-98.692955
618.871506	-97.816111
618.999288	-102.505742
619.127123	-106.517529
619.255011	-94.361325
619.382951	-88.974050
619.510945	-85.880839
619.638991	-84.164588
619.767090	-83.508789
619.895243	-83.707223
620.023448	-84.798043
620.151706	-87.056523
620.280017	-90.885090
620.408382	-96.366483
620.536799	-97.664301
620.665270	-94.630381
620.793794	-92.834943
620.922371	-91.408512
621.051002	-88.985839
621.179686	-85.988859
621.308423	-83.364988
621.437213	-81.455874
621.566057	-80.389017
621.694954	-80.153243
621.823905	-80.708273
621.952909	-82.080981
622.081967	-84.469706
622.211079	-88.337392
622.340244	-91.297684
622.469462	-88.272670
622.598735	-85.381855
622.728061	-83.836922
622.857441	-83.023099
622.986874	-82.515076
623.116361	-82.193998
623.245903	-81.988615
623.375498	-81.928505
623.505147	-82.082689
623.634850	-82.669668
623.764606	-83.907991
623.894417	-85.726908
624.024282	-86.963763
624.154201	-85.949473
624.284174	-83.750140
624.414202	-81.826601
624.544283	-80.717254
624.674419	-80.552789
624.804609	-81.291724
624.934853	-82.808897
625.065151	-85.222440
625.195504	-88.763186
625.325911	-92.897822
625.456373	-94.663268
625.586889	-94.508682
625.717460	-94.307108
625.848085	-92.101904
625.978764	-88.234384
626.109498	-85.039557
626.240287	-82.940645
626.371131	-81.781026
626.502029	-81.403323
626.632982	-81.917268
626.763989	-83.721997
626.895052	-87.565799
627.026169	-96.682811
627.157341	-97.663287
627.288568	-89.186905
627.419850	-86.261193
627.551187	-85.494056
627.682579	-86.309287
627.814026	-88.917725
627.945528	-94.674349
628.077085	-101.997230
628.208697	-93.194185
628.340364	-89.586952
628.472087	-88.260531
628.603865	-88.129364
628.735698	-89.225102
628.867586	-92.024563
628.999530	-97.347708
629.131529	-103.555253
629.263584	-103.554547
629.395694	-108.811442
629.527859	-103.887841
629.660080	-92.748599
629.792357	-86.954401
629.924689	-83.474499
630.057077	-81.587872
630.189520	-80.969694
630.322019	-81.427423
630.454574	-83.011542
630.587184	-86.273325
630.719851	-92.513346
630.852573	-90.653042
630.985351	-84.592005
631.118185	-81.444392
631.251075	-79.894262
631.384021	-79.315840
631.517023	-79.449144
631.650081	-80.136385
631.783195	-81.198143
631.916365	-82.369360
632.049592	-83.458299
632.182874	-84.784793
632.316213	-87.242565
632.449608	-93.000874
632.583059	-96.506858
632.716567	-86.071107
632.850131	-81.145178
632.983751	-78.395166
633.117428	-76.872763
633.251161	-76.237472
633.384951	-76.429200
633.518797	-77.522120
633.652700	-79.646372
633.786660	-83.269999
633.920676	-90.299832
634.054749	-104.236996
634.188879	-89.650461
634.323065	-86.157596
634.457308	-84.932120
634.591608	-83.979200
634.725965	-82.342978
634.860379	-80.415411
634.994850	-78.916353
635.129377	-78.123911
635.263962	-78.126042
635.398604	-79.035557
635.533303	-80.798075
635.668058	-82.333896
635.802872	-81.842630
635.937742	-80.096755
636.072669	-78.557150
636.207654	-77.743759
636.342696	-77.887218
636.477796	-79.101944
636.612953	-81.433953
636.748167	-84.927735
636.883439	-88.996021
637.018768	-90.919740
637.154155	-91.473164
637.289599	-95.160815
637.425101	-106.586356
637.560660	-89.621874
637.696277	-83.900732
637.831952	-80.997675
637.967685	-79.639760
638.103475	-79.553187
638.239324	-80.982345
638.375230	-84.810496
638.511194	-95.765244
638.647215	-90.952589
638.783295	-83.550868
638.919433	-80.598005
639.055629	-79.781319
639.191883	-80.751315
639.328195	-83.987548
639.464565	-92.634163
639.600994	-92.732417
639.737481	-83.961033
639.874025	-80.648694
640.010629	-79.455523
640.147290	-79.750555
640.284010	-81.552343
640.420789	-85.333562
640.557625	-91.739090
640.694521	-91.469673
640.831474	-87.708851
640.968487	-87.448582
641.105558	-91.154799
641.242687	-94.206979
641.379876	-85.615380
641.517123	-80.813345
641.654429	-78.319324
641.791793	-77.464429
641.929216	-78.067261
642.066699	-80.256685
642.204240	-84.557002
642.341840	-89.377104
642.479499	-84.971225
642.617217	-81.415607
642.754994	-80.117487
642.892830	-80.527942
643.030726	-82.842988
643.168680	-88.526575
643.306694	-110.494917
643.444767	-87.885955
643.582899	-83.309366
643.721091	-81.779716
643.859342	-82.340448
643.997652	-85.371856
644.136022	-94.459993
644.274451	-93.673104
644.412940	-85.136104
644.551488	-82.237115
644.690096	-81.825709
644.828763	-83.713410
644.967490	-89.080017
645.106277	-95.985591
645.245124	-86.897194
645.384030	-82.804261
645.522997	-81.096683
645.662023	-80.852768
645.801109	-81.595671
645.940255	-82.534832
646.079460	-82.574319
646.218726	-81.547589
646.358052	-80.318729
646.497438	-79.465603
646.636884	-79.282387
646.776391	-80.087120
646.915957	-82.271081
647.055584	-86.441191
647.195271	-92.954718
647.335019	-90.725093
647.474826	-87.449470
647.614695	-87.586190
647.754623	-88.107866
647.894612	-84.746695
648.034662	-81.019277
648.174772	-78.336200
648.314943	-76.708160
648.455174	-76.052109
648.595466	-76.083848
648.735819	-76.481977
648.876233	-77.205012
649.016707	-78.265654
649.157242	-79.392490
649.297838	-80.153740
649.438495	-80.439927
649.579213	-80.660816
649.719992	-81.018539
649.860832	-80.919810
650.001733	-79.826390
650.142695	-78.452589
650.283718	-77.693484
650.424803	-77.724471
650.565949	-78.001066
650.707156	-77.930106
650.848424	-77.328106
650.989754	-76.344705
651.131145	-75.611990
651.272597	-75.747500
651.414111	-76.881090
651.555687	-78.907548
651.697324	-82.053838
651.839022	-87.136768
651.980782	-95.964704
652.122604	-97.475770
652.264488	-91.329985
652.406433	-87.536696
652.548441	-84.392371
652.690510	-81.560939
652.832640	-79.219384
652.974833	-77.480020
653.117088	-76.497192
653.259405	-76.388012
653.401784	-77.175256
653.544224	-78.940038
653.686727	-81.889023
653.829293	-85.283470
653.971920	-86.557175
654.114609	-87.488279
654.257361	-90.612088
654.400175	-89.531224
654.543052	-83.654287
654.685991	-79.950937
654.828992	-78.138736
654.972056	-77.638278
655.115183	-78.054208
655.258372	-79.149781
655.401623	-80.342994
655.544937	-80.867769
655.688314	-80.927621
655.831754	-81.070661
655.975256	-81.625843
656.118822	-83.271597
656.262450	-86.967320
656.406141	-96.750454
656.549894	-92.197260
656.693711	-84.811487
656.837591	-82.336073
656.981534	-82.406590
657.125540	-84.574231
657.269610	-87.419950
657.413742	-84.174872
657.557938	-80.190983
657.702196	-78.330510
657.846519	-78.125562
657.990904	-79.519482
658.135353	-83.321482
658.279866	-92.245122
658.424441	-91.566351
658.569081	-85.925309
658.713784	-84.563689
658.858550	-86.265477
659.003381	-92.636309
659.148274	-98.348034
659.293232	-89.012229
659.438253	-85.614711
659.583339	-85.137525
659.728488	-87.361868
659.873701	-91.956495
660.018978	-89.765135
660.164318	-83.711338
660.309723	-80.008470
660.455192	-78.103892
660.600725	-77.458789
660.746323	-78.072067
660.891984	-80.269734
661.037710	-83.787334
661.183500	-84.540434
661.329354	-82.023324
661.475272	-80.206127
661.621255	-79.862098
661.767303	-81.033923
661.913415	-83.261648
662.059591	-85.347494
662.205833	-86.677035
662.352138	-89.708003
662.498509	-105.222662
662.644944	-87.712061
662.791443	-80.932940
662.938008	-77.493136
663.084638	-75.859497
663.231332	-75.697704
663.378091	-76.974967
663.524915	-79.787988
663.671804	-83.247995
663.818759	-82.362700
663.965778	-79.720004
664.112863	-78.575968
664.260012	-78.899178
664.407227	-80.673505
664.554507	-84.290287
664.701853	-90.462104
664.849264	-97.277515
664.996740	-95.209830
665.144282	-94.035817
665.291889	-91.423310
665.439561	-86.524639
665.587300	-82.853957
665.735103	-80.495127
665.882973	-79.303447
666.030908	-79.484203
666.178909	-81.269130
666.326976	-84.875885
666.475109	-88.247242
666.623307	-84.720763
666.771571	-81.209248
666.919902	-79.605034
667.068298	-79.553075
667.216761	-80.914086
667.365289	-83.873619
667.513884	-88.275023
667.662545	-89.981086
667.811272	-87.226664
667.960065	-84.821263
668.108925	-82.733963
668.257851	-80.755097
668.406843	-79.291799
668.555902	-78.825151
668.705027	-79.846869
668.854219	-83.254409
669.003478	-91.571256
669.152803	-87.530805
669.302195	-81.004263
669.451653	-78.087154
669.601179	-77.280079
669.750771	-78.219989
669.900430	-81.166672
670.050156	-88.156836
670.199949	-91.128253
670.349808	-82.841087
670.499735	-79.845188
670.649729	-79.248607
670.799790	-80.369286
670.949918	-82.998509
671.100114	-86.171170
671.250377	-86.942478
671.400707	-86.324999
671.551104	-87.031945
671.701569	-87.913097
671.852101	-85.365912
672.002700	-81.959792
672.153368	-79.995998
672.304102	-79.782076
672.454905	-81.579476
672.605775	-86.604879
672.756713	-91.860655
672.907718	-83.354861
673.058791	-79.520555
673.209933	-78.288127
673.361142	-78.954536
673.512419	-81.838473
673.663764	-88.378365
673.815177	-90.240035
673.966658	-84.593034
674.118207	-82.978812
674.269825	-84.714924
674.421510	-90.711560
674.573264	-86.919393
674.725086	-81.059656
674.876977	-78.528064
675.028936	-78.189057
675.180963	-79.936717
675.333059	-84.446528
675.485224	-88.559262
675.637457	-83.341272
675.789758	-80.752227
675.942129	-81.044509
676.094568	-84.735278
676.247075	-102.433537
676.399652	-85.232037
676.552298	-79.879278
676.705012	-78.234682
676.857795	-78.873275
677.010648	-82.227296
677.163569	-89.252576
677.316560	-85.890358
677.469619	-81.900853
677.622748	-81.441057
677.775946	-84.293821
677.929214	-87.108308
678.082551	-80.927798
678.235957	-76.853477
678.389432	-75.134075
678.542977	-75.275922
678.696592	-77.065361
678.850276	-79.018124
679.004030	-77.639117
679.157853	-75.224109
679.311746	-74.081958
679.465709	-74.394829
679.619742	-76.127407
679.773844	-79.136159
679.928017	-81.889294
680.082259	-82.484037
680.236571	-83.620602
680.390954	-87.854866
680.545406	-84.177581
680.699929	-77.922763
680.854522	-74.893602
681.009185	-73.841067
681.163918	-74.410689
681.318722	-76.846174
681.473596	-81.126192
681.628540	-83.533060
681.783555	-81.943923
681.938641	-81.672028
682.093797	-83.655905
682.249023	-82.589679
682.404321	-77.903302
682.559689	-74.741763
682.715128	-73.366649
682.870637	-73.487273
683.026218	-74.708291
683.181869	-76.365519
683.337591	-77.167401
683.493385	-77.026861
683.649249	-77.346892
683.805185	-78.729187
683.961191	-80.555754
684.117269	-80.105419
684.273418	-77.976168
684.429639	-76.634460
684.585930	-76.553353
684.742294	-76.995388
684.898728	-76.030186
685.055234	-74.074092
685.211812	-72.578274
685.368461	-72.033221
685.525182	-72.718813
685.681975	-74.697033
685.838839	-78.003321
685.995775	-82.908906
686.152783	-88.539363
686.309863	-91.419435
686.467014	-85.762731
686.624238	-79.658268
686.781534	-75.807550
686.938902	-73.839821
687.096342	-73.586693
687.253854	-75.029447
687.411438	-78.250138
687.569095	-80.756766
687.726824	-78.214383
687.884626	-75.972229
688.042499	-75.654385
688.200446	-77.445767
688.358465	-81.572706
688.516556	-84.278522
688.674720	-81.125130
688.832957	-79.848218
688.991266	-81.845705
689.149649	-87.703987
689.308104	-86.012030
689.466632	-81.199062
689.625233	-80.373475
689.783906	-83.810115
689.942653	-91.753372
690.101473	-80.753834
690.260367	-75.589083
690.419333	-73.560433
690.578372	-73.573201
690.737485	-75.216063
690.896672	-77.929644
691.055931	-78.813519
691.215264	-77.409650
691.374671	-77.141548
691.534151	-78.473623
691.693704	-79.479401
691.853332	-77.598542
692.013033	-75.625296
692.172807	-75.398220
692.332656	-77.469853
692.492578	-81.147858
692.652575	-78.482085
692.812645	-74.411051
692.972789	-72.802275
693.133007	-73.482272
693.293300	-76.622743
693.453666	-84.184009
693.614107	-91.583240
693.774622	-83.715719
693.935211	-83.906589
694.095875	-83.036411
694.256613	-77.205128
694.417426	-73.432469
694.578313	-71.970629
694.739274	-72.566049
694.900311	-75.551618
695.061421	-83.144745
695.222607	-87.450496
695.383868	-80.146584
695.545203	-79.555176
695.706613	-81.701806
695.868098	-79.290194
696.029658	-75.308282
696.191293	-73.697274
696.353003	-74.577542
696.514789	-78.799604
696.676649	-95.185228
696.838585	-81.805041
697.000596	-76.608552
697.162682	-75.387506
697.324844	-75.854295
697.487081	-76.233332
697.649394	-76.100502
697.811782	-77.229640
697.974246	-81.677741
698.136786	-81.509045
698.299401	-74.733559
698.462092	-71.481162
698.624859	-70.652308
698.787702	-71.957017
698.950621	-75.904899
699.113616	-84.967172
699.276686	-85.261156
699.439833	-81.031328
699.603056	-82.732782
699.766355	-85.648351
699.929731	-79.287959
700.093183	-76.047151
700.256711	-76.153384
700.420315	-80.353120
700.583996	-87.666916
700.747754	-77.374252
700.911588	-73.630538
701.075499	-73.079985
701.239486	-75.270956
701.403550	-81.792232
701.567691	-87.645738
701.731909	-80.350587
701.896203	-79.757717
702.060575	-85.567894
702.225024	-89.889236
702.389549	-78.988890
702.554152	-76.450168
702.718832	-78.026331
702.883589	-85.525986
703.048424	-81.026046
703.213335	-74.841454
703.378324	-72.939087
703.543391	-73.951664
703.708535	-78.472343
703.873757	-88.631693
704.039056	-80.027917
704.204433	-76.816745
704.369887	-77.521334
704.535420	-79.464230
704.701030	-77.127484
704.866718	-74.141625
705.032484	-73.496706
705.198328	-75.314924
705.364250	-79.363631
705.530250	-78.924466
705.696328	-75.304983
705.862485	-74.213333
706.028720	-75.931351
706.195033	-81.444779
706.361424	-81.653799
706.527894	-75.647005
706.694442	-72.824798
706.861069	-71.650990
707.027775	-70.833237
707.194559	-69.879521
707.361422	-69.213561
707.528363	-69.356523
707.695384	-70.816665
707.862483	-74.204316
708.029661	-80.036065
708.196918	-79.404475
708.364254	-76.268141
708.531670	-76.391915
708.699164	-77.408352
708.866738	-74.073970
709.034391	-70.592870
709.202123	-69.099780
709.369935	-69.268815
709.537826	-70.303721
709.705796	-70.603873
709.873847	-70.143939
710.041976	-70.784140
710.210186	-74.280106
710.378475	-81.611861
710.546844	-74.267111
710.715292	-70.018725
710.883821	-69.166769
711.052429	-70.454111
711.221118	-71.605388
711.389887	-70.054908
711.558735	-68.663758
711.727664	-69.120007
711.896673	-70.707050
712.065763	-70.015809
712.234932	-67.552908
712.404183	-66.563964
712.573513	-67.793998
712.742924	-71.058461
712.912416	-71.866361
713.081988	-69.129620
713.251641	-68.408744
713.421375	-70.301147
713.591190	-73.121286
713.761085	-70.913084
713.931061	-68.389159
714.101119	-68.158026
714.271257	-69.084176
714.441476	-67.910426
714.611777	-65.448875
714.782159	-64.467817
714.952622	-65.722663
715.123166	-69.475004
715.293792	-71.887399
715.464499	-68.902672
715.635288	-67.777681
715.806158	-68.972798
715.977110	-69.136837
716.148143	-66.609793
716.319259	-65.050098
716.490456	-65.606566
716.661735	-67.946804
716.833096	-68.367095
717.004538	-66.011278
717.176063	-65.259138
717.347670	-67.235201
717.519359	-70.567545
717.691130	-67.755836
717.862984	-64.802740
718.034920	-64.183644
718.206938	-64.794844
718.379039	-64.532698
718.551222	-63.419310
718.723488	-63.422787
718.895836	-65.629021
719.068267	-70.756075
719.240781	-70.853772
719.413377	-66.809789
719.586057	-65.649508
719.758819	-65.694522
719.931664	-64.491151
720.104593	-62.670646
720.277604	-62.035937
720.450699	-62.767671
720.623876	-64.033550
720.797137	-64.447693
720.970482	-64.537659
721.143910	-65.901960
721.317421	-68.805975
721.491016	-68.726229
721.664694	-65.158566
721.838456	-62.952205
722.012302	-62.177727
722.186231	-62.109907
722.360244	-62.288764
722.534342	-62.814057
722.708523	-64.118140
722.882788	-66.197531
723.057137	-67.428716
723.231570	-66.187618
723.406088	-64.429238
723.580689	-63.531598
723.755375	-63.247591
723.930146	-62.822083
724.105000	-61.878432
724.279940	-61.150472
724.454963	-61.259398
724.630072	-62.258998
724.805265	-63.590990
724.980543	-64.586250
725.155905	-65.460473
725.331353	-66.241624
725.506885	-65.166275
725.682503	-62.785235
725.858205	-61.256677
726.033993	-61.072286
726.209865	-61.735633
726.385823	-62.004275
726.561866	-61.470236
726.737995	-61.331876
726.914209	-62.187978
727.090508	-63.387671
727.266893	-63.627887
727.443364	-63.562813
727.619920	-64.417577
727.796562	-65.049167
727.973290	-63.358466
728.150103	-61.450103
728.327003	-60.946634
728.503988	-61.699341
728.681060	-62.398150
728.858218	-61.731638
729.035461	-61.025369
729.212791	-61.379767
729.390208	-62.205068
729.567710	-62.120235
729.745299	-61.795013
729.922975	-62.837515
730.100737	-65.179389
730.278586	-64.484509
730.456521	-61.535522
730.634543	-60.192203
730.812652	-60.411337
730.990848	-60.821990
731.169130	-60.220384
731.347500	-59.830205
731.525957	-60.995234
731.704500	-63.374192
731.883131	-63.503800
732.061850	-62.133775
732.240655	-62.572554
732.419548	-63.763821
732.598528	-61.598207
732.777596	-58.986568
732.956751	-58.284958
733.135994	-59.353199
733.315325	-60.991687
733.494744	-61.605253
733.674250	-62.776695
733.853844	-67.243251
734.033526	-67.457484
734.213296	-61.377236
734.393154	-59.082712
734.573101	-59.032485
734.753135	-59.278817
734.933258	-58.410601
735.113469	-57.879225
735.293769	-59.064680
735.474157	-62.275555
735.654633	-65.402934
735.835198	-65.375503
736.015852	-66.023955
736.196594	-64.542601
736.377426	-60.116641
736.558346	-57.511335
736.739355	-56.972669
736.920453	-57.863947
737.101640	-59.092020
737.282916	-60.055057
737.464282	-61.959006
737.645736	-66.340822
737.827280	-67.457992
738.008914	-62.755905
738.190637	-60.631037
738.372449	-60.102545
738.554351	-59.498157
738.736342	-58.551045
738.918424	-58.346082
739.100595	-59.486358
739.282855	-61.771724
739.465206	-63.978203
739.647647	-64.943072
739.830178	-64.665950
740.012799	-62.670073
740.195510	-60.339931
740.378311	-59.057025
740.561203	-59.067319
740.744185	-60.216963
740.927258	-61.924903
741.110421	-62.972514
741.293674	-62.951547
741.477018	-62.560502
741.660453	-61.942273
741.843979	-61.150214
742.027596	-60.759432
742.211303	-61.208676
742.395102	-62.214136
742.578991	-62.779173
742.762972	-62.841762
742.947044	-63.286872
743.131207	-63.626726
743.315461	-62.252496
743.499807	-60.182053
743.684244	-58.938270
743.868773	-58.820330
744.053394	-59.602222
744.238106	-60.994180
744.422910	-63.314601
744.607805	-68.119835
744.792793	-71.146456
744.977872	-64.066931
745.163044	-60.644427
745.348307	-59.606977
745.533663	-59.575411
745.719111	-59.222374
745.904651	-58.834933
746.090283	-59.800224
746.276008	-63.164157
746.461826	-68.665438
746.647735	-69.568697
746.833738	-69.937813
747.019833	-65.658299
747.206021	-60.175660
747.392302	-57.813648
747.578676	-58.109868
747.765143	-60.461441
747.951703	-62.598424
748.138356	-63.334203
748.325102	-67.568367
748.511941	-79.008727
748.698874	-63.629654
748.885900	-60.634943
749.073019	-61.410265
749.260232	-62.183699
749.447539	-59.811035
749.634939	-58.792988
749.822433	-60.956763
750.010021	-67.782302
750.197703	-70.470914
750.385479	-68.151429
750.573348	-73.464232
750.761312	-65.657504
750.949370	-60.661258
751.137523	-60.063390
751.325769	-63.192626
751.514110	-68.813835
751.702545	-66.740108
751.891075	-67.006028
752.079700	-73.754805
752.268419	-67.074179
752.457233	-62.850277
752.646142	-63.312977
752.835145	-68.080109
753.024244	-70.341380
753.213437	-66.829944
753.402726	-68.779038
753.592110	-79.863363
753.781589	-68.360649
753.971163	-64.565807
754.160833	-64.696902
754.350598	-65.403635
754.540459	-63.739464
754.730415	-62.708780
754.920467	-64.320184
755.110615	-70.084688
755.300858	-78.828002
755.491198	-71.644926
755.681633	-69.399111
755.872164	-66.384808
756.062792	-63.327290
756.253515	-62.243673
756.444335	-63.399168
756.635252	-66.512201
756.826264	-69.236886
757.017373	-69.607001
757.208579	-70.402377
757.399881	-69.817696
757.591280	-67.359987
757.782776	-65.940104
757.974368	-65.028720
758.166058	-63.437836
758.357844	-62.225129
758.549728	-62.541728
758.741708	-64.745033
758.933786	-68.789845
759.125961	-74.078334
759.318233	-75.310994
759.510603	-70.193175
759.703071	-67.068033
759.895635	-66.219454
760.088298	-66.334594
760.281058	-65.981456
760.473916	-66.294997
760.666872	-69.300059
760.859926	-74.060785
761.053078	-71.558153
761.246328	-70.832455
761.439676	-68.418626
761.633122	-63.543053
761.826667	-61.460122
762.020310	-62.524446
762.214052	-66.455974
762.407892	-69.735780
762.601831	-72.988699
762.795868	-78.112608
762.990004	-64.581096
763.184239	-60.860961
763.378573	-61.167025
763.573006	-63.925310
763.767538	-63.946368
763.962169	-63.304214
764.156900	-67.876069
764.351729	-73.629599
764.546658	-64.384579
764.741687	-63.279661
764.936815	-63.922178
765.132042	-60.535617
765.327370	-58.413284
765.522797	-59.569905
765.718324	-63.992883
765.913950	-65.685380
766.109677	-64.571505
766.305504	-65.600743
766.501431	-61.540671
766.697458	-58.182277
766.893586	-58.018416
767.089814	-60.216058
767.286142	-60.916722
767.482571	-59.863075
767.679100	-61.211306
767.875730	-63.714423
768.072461	-61.239789
768.269293	-59.653183
768.466225	-60.363178
768.663259	-59.575267
768.860393	-57.712766
769.057629	-58.330341
769.254966	-61.873241
769.452404	-61.718171
769.649944	-58.994658
769.847585	-58.577929
770.045328	-57.764369
770.243172	-56.140419
770.441118	-56.423054
770.639166	-59.133832
770.837315	-59.902981
771.035567	-58.087858
771.233920	-58.214922
771.432376	-57.949021
771.630934	-55.970081
771.829594	-55.386204
772.028356	-56.304492
772.227220	-56.576336
772.426188	-56.675861
772.625257	-58.667913
772.824430	-59.929029
773.023705	-57.309273
773.223083	-55.652683
773.422563	-55.016223
773.622147	-54.553876
773.821834	-54.915918
774.021624	-56.326424
774.221517	-57.005722
774.421513	-56.429524
774.621613	-55.995467
774.821816	-55.562201
775.022122	-55.328408
775.222532	-55.444342
775.423046	-54.945312
775.623664	-54.166536
775.824385	-54.133843
776.025211	-54.305458
776.226140	-54.075404
776.427173	-54.329751
776.628311	-54.808518
776.829553	-54.346086
777.030899	-54.188354
777.232350	-55.017525
777.433905	-54.730875
777.635564	-53.480257
777.837328	-53.320538
778.039197	-53.554933
778.241171	-53.253496
778.443250	-53.663144
778.645433	-54.611730
778.847722	-53.822028
779.050116	-52.738248
779.252615	-53.006922
779.455219	-53.470089
779.657929	-52.961150
779.860744	-52.824250
780.063665	-52.938165
780.266691	-52.122173
780.469823	-51.662402
780.673061	-52.453590
780.876405	-52.956038
781.079855	-52.219235
781.283410	-52.200506
781.487072	-52.809537
781.690840	-52.438026
781.894715	-52.063214
782.098695	-52.381112
782.302783	-51.747019
782.506976	-50.764458
782.711277	-51.225749
782.915684	-52.379313
783.120198	-52.201938
783.324818	-52.142376
783.529546	-52.595730
783.734381	-51.663388
783.939322	-50.839434
784.144372	-51.126728
784.349528	-50.784699
784.554792	-49.958763
784.760163	-50.466001
784.965642	-51.733131
785.171228	-51.840054
785.376922	-51.684216
785.582724	-51.272666
785.788634	-49.898411
785.994651	-49.287826
786.200777	-50.009452
786.407011	-50.768595
786.613353	-50.955029
786.819804	-51.346910
787.026363	-51.262321
787.233030	-50.661964
787.439806	-50.502905
787.646691	-50.361797
787.853684	-49.886289
788.060786	-49.759481
788.267997	-50.023423
788.475317	-50.188310
788.682746	-50.084735
788.890285	-49.677516
789.097932	-49.361395
789.305689	-49.546599
789.513555	-49.961633
789.721531	-50.205598
789.929617	-50.116193
790.137812	-49.499023
790.346117	-48.980930
790.554531	-49.236770
790.763056	-49.681160
790.971691	-49.558131
791.180436	-49.476751
791.389291	-49.511601
791.598256	-49.347184
791.807332	-49.559105
792.016518	-49.949603
792.225815	-49.363053
792.435222	-48.655048
792.644740	-48.698394
792.854369	-48.759455
793.064109	-48.619192
793.273960	-48.965376
793.483922	-49.264149
793.693995	-48.989884
793.904180	-49.152004
794.114475	-49.323565
794.324882	-48.422713
794.535401	-47.885867
794.746031	-48.330922
794.956774	-48.724927
795.167627	-49.051745
795.378593	-49.759295
795.589671	-49.228366
795.800861	-48.222299
796.012162	-48.438545
796.223577	-48.690793
796.435103	-48.184431
796.646742	-48.302750
796.858493	-48.487875
797.070357	-48.027813
797.282334	-48.280877
797.494423	-48.730844
797.706626	-47.971905
797.918941	-47.633163
798.131369	-48.146305
798.343911	-48.210679
798.556566	-48.272217
798.769334	-48.730161
798.982215	-48.317880
799.195210	-47.903958
799.408319	-48.352439
799.621541	-48.399409
799.834877	-47.983669
800.048327	-48.169697
800.261890	-48.417564
800.475568	-48.274340
800.689360	-48.237946
800.903266	-47.788039
801.117287	-46.937964
801.331422	-46.866969
801.545671	-47.659040
801.760036	-48.356084
801.974514	-48.649706
802.189108	-48.542250
802.403816	-47.791910
802.618640	-47.270629
802.833578	-47.414044
803.048632	-47.573598
803.263800	-47.657436
803.479085	-48.244978
803.694484	-48.793509
803.909999	-48.487308
804.125630	-47.932502
804.341376	-47.315236
804.557239	-46.878359
804.773217	-47.232498
804.989311	-48.016689
805.205521	-48.096035
805.421847	-47.702082
805.638290	-47.487386
805.854849	-47.269409
806.071524	-47.259045
806.288316	-47.644825
806.505225	-47.792556
806.722250	-47.886166
806.939393	-48.481368
807.156652	-48.431000
807.374028	-47.517552
807.591521	-47.012303
807.809132	-46.901460
808.026859	-47.208485
808.244705	-48.283197
808.462667	-48.822439
808.680748	-47.942830
808.898946	-47.355050
809.117261	-47.031839
809.335695	-46.701009
809.554246	-47.023866
809.772916	-47.629518
809.991704	-47.990743
810.210610	-48.695503
810.429634	-48.807732
810.648777	-47.675206
810.868039	-47.062252
811.087419	-47.196774
811.306918	-47.571919
811.526535	-48.348962
811.746272	-48.664745
811.966127	-47.823316
812.186102	-47.450782
812.406196	-47.576884
812.626409	-47.380834
812.846742	-47.433063
813.067194	-47.701929
813.287766	-47.732339
813.508457	-48.064327
813.729269	-48.176047
813.950200	-47.509396
814.171251	-47.383457
814.392422	-48.021731
814.613714	-48.577337
814.835126	-48.908168
815.056658	-48.496311
815.278311	-47.631606
815.500084	-47.500741
815.721978	-47.815369
815.943993	-47.875801
816.166128	-47.968949
816.388385	-48.155223
816.610762	-48.185955
816.833261	-48.151955
817.055881	-47.926280
817.278623	-47.609689
817.501486	-47.873615
817.724471	-48.639673
817.947577	-48.839209
818.170805	-48.424214
818.394155	-48.082441
818.617627	-48.142298
818.841221	-48.762130
819.064937	-49.213885
819.288775	-48.598048
819.512736	-47.933358
819.736819	-47.859033
819.961025	-48.047142
820.185354	-48.321263
820.409805	-48.470517
820.634379	-48.480049
820.859076	-48.753702
821.083897	-49.094643
821.308840	-48.884218
821.533907	-48.606971
821.759097	-48.904273
821.984411	-49.315778
822.209848	-49.363975
822.435409	-49.060947
822.661093	-48.518576
822.886902	-48.702222
823.112834	-49.494104
823.338891	-49.278984
823.565072	-48.664432
823.791377	-48.382551
824.017807	-48.348226
824.244361	-49.093898
824.471039	-49.611496
824.697843	-49.206327
824.924771	-49.534688
825.151824	-49.995924
825.379002	-49.908867
825.606306	-49.762248
825.833734	-49.085273
826.061288	-48.996015
826.288967	-49.754143
826.516772	-49.741638
826.744703	-49.439982
826.972759	-49.521535
827.200941	-49.595167
827.429249	-49.974714
827.657683	-49.956955
827.886243	-49.393042
828.114930	-49.725240
828.343743	-50.579203
828.572682	-50.830281
828.801748	-50.725199
829.030941	-50.381653
829.260260	-50.366765
829.489706	-50.732869
829.719280	-50.116900
829.948980	-49.434482
830.178808	-49.780132
830.408763	-50.643947
830.638845	-51.316500
830.869055	-50.591734
831.099393	-49.388362
831.329858	-49.401037
831.560451	-50.480041
831.791173	-51.868111
832.022022	-52.481502
832.252999	-51.690266
832.484105	-50.623182
832.715339	-49.729887
832.946702	-49.367614
833.178193	-49.971243
833.409813	-51.597599
833.641561	-52.933494
833.873439	-51.253048
834.105445	-49.417263
834.337581	-49.152519
834.569846	-50.268890
834.802241	-52.636407
835.034764	-53.109335
835.267418	-51.360857
835.500201	-50.810330
835.733114	-50.829668
835.966157	-51.288776
836.199329	-51.730174
836.432632	-51.163861
836.666065	-51.000246
836.899629	-50.486597
837.133323	-49.797134
837.367147	-50.608878
837.601102	-51.964581
837.835188	-52.648924
838.069405	-51.859143
838.303752	-50.058877
838.538231	-50.237301
838.772841	-51.742065
839.007582	-52.135891
839.242455	-51.758945
839.477459	-50.367546
839.712595	-49.948770
839.947863	-50.708313
840.183263	-50.448247
840.418794	-50.707068
840.654458	-51.176964
840.890254	-50.772234
841.126182	-50.796409
841.362242	-50.076427
841.598435	-50.317818
841.834761	-51.905727
842.071220	-51.466799
842.307811	-50.535144
842.544536	-49.538171
842.781393	-49.347380
843.018384	-50.441599
843.255508	-50.211692
843.492765	-49.741787
843.730156	-49.662722
843.967681	-49.457231
844.205339	-49.873032
844.443132	-49.820351
844.681058	-50.107389
844.919118	-50.756607
845.157313	-49.723869
845.395642	-48.553598
845.634105	-48.027612
845.872703	-48.618630
846.111436	-49.933409
846.350303	-49.562811
846.589306	-48.423426
846.828443	-47.863120
847.067716	-48.073855
847.307124	-48.575463
847.546667	-48.639481
847.786345	-48.805669
848.026160	-48.905084
848.266110	-48.441295
848.506195	-47.598134
848.746417	-47.238570
848.986775	-47.792736
849.227269	-48.082725
849.467899	-47.538921
849.708666	-46.890719
849.949569	-46.830182
850.190609	-47.548521
850.431785	-47.597190
850.673099	-47.317836
850.914549	-47.378135
851.156137	-47.315820
851.397861	-47.123421
851.639723	-46.231787
851.881723	-46.017221
852.123860	-46.578097
852.366135	-46.548944
852.608547	-46.312027
852.851098	-45.779781
853.093786	-45.861233
853.336613	-46.256475
853.579578	-45.749440
853.822681	-45.753580
854.065923	-45.942990
854.309304	-46.187534
854.552823	-45.907355
854.796481	-44.826670
855.040278	-44.735801
855.284215	-44.886955
855.528290	-45.074851
855.772505	-45.245905
856.016859	-44.924820
856.261353	-44.928990
856.505987	-44.366024
856.750760	-44.039098
856.995673	-44.609426
857.240727	-45.241416
857.485920	-45.290925
857.731254	-43.922542
857.976729	-43.145989
858.222343	-43.483805
858.468099	-44.108774
858.713995	-44.412149
858.960032	-43.681320
859.206211	-43.235053
859.452530	-43.281453
859.698991	-43.458821
859.945593	-43.874767
860.192336	-43.837182
860.439222	-43.396787
860.686248	-42.601327
860.933417	-42.246468
861.180728	-42.799671
861.428181	-43.360372
861.675776	-43.122147
861.923514	-42.193845
862.171394	-41.935354
862.419417	-42.453780
862.667582	-42.827555
862.915890	-42.670575
863.164342	-42.187434
863.412936	-42.147909
863.661674	-42.047433
863.910555	-41.748555
864.159579	-41.671612
864.408747	-41.737091
864.658059	-41.911621
864.907515	-41.593483
865.157114	-41.409283
865.406858	-41.483347
865.656746	-41.425280
865.906778	-41.373134
866.156955	-41.280426
866.407277	-41.534618
866.657743	-41.281198
866.908354	-40.627734
867.159110	-40.424744
867.410011	-40.732168
867.661057	-41.246423
867.912249	-40.802728
868.163586	-40.275706
868.415069	-40.292141
868.666697	-40.626674
868.918472	-40.812503
869.170392	-40.425276
869.422458	-40.245214
869.674671	-40.051425
869.927030	-39.852971
870.179536	-39.821330
870.432188	-39.928504
870.684987	-40.061124
870.937933	-39.738787
871.191026	-39.603859
871.444266	-39.798994
871.697653	-39.892299
871.951188	-39.546120
872.204870	-39.155062
872.458700	-39.344883
872.712677	-39.545957
872.966803	-39.298963
873.221076	-38.877220
873.475498	-38.901907
873.730068	-39.231213
873.984787	-39.188556
874.239654	-38.947616
874.494669	-38.816696
874.749834	-38.911863
875.005147	-38.805645
875.260610	-38.675649
875.516222	-38.625177
875.771983	-38.510828
876.027894	-38.331072
876.283954	-38.283274
876.540164	-38.605206
876.796524	-38.572598
877.053033	-38.220172
877.309693	-37.966833
877.566503	-38.253649
877.823464	-38.500474
878.080575	-38.096726
878.337837	-37.712395
878.595249	-37.650559
878.852813	-37.958364
879.110528	-37.911850
879.368393	-37.776667
879.626410	-37.696322
879.884579	-37.609195
880.142899	-37.590071
880.401371	-37.566830
880.659994	-37.718550
880.918770	-37.403340
881.177698	-37.092251
881.436778	-37.063036
881.696010	-37.308075
881.955395	-37.321867
882.214933	-36.951800
882.474623	-37.008360
882.734467	-37.188180
882.994463	-37.243088
883.254613	-36.826913
883.514916	-36.686159
883.775372	-36.795393
884.035982	-36.783855
884.296746	-36.688157
884.557664	-36.586895
884.818735	-36.674912
885.079961	-36.528645
885.341341	-36.557955
885.602876	-36.658720
885.864565	-36.626254
886.126409	-36.274421
886.388407	-36.124048
886.650561	-36.389020
886.912870	-36.433552
887.175334	-36.090553
887.437953	-35.848664
887.700728	-36.143165
887.963658	-36.413150
888.226745	-36.246898
888.489987	-35.920981
888.753385	-35.801879
889.016940	-35.793126
889.280651	-35.834159
889.544518	-35.954715
889.808543	-35.863926
890.072723	-35.507398
890.337061	-35.364445
890.601556	-35.763766
890.866208	-36.067988
891.131017	-35.712981
891.395984	-35.196355
891.661109	-35.210431
891.926391	-35.423226
892.191831	-35.440041
892.457429	-35.289252
892.723186	-35.253979
892.989100	-35.193633
893.255173	-35.116042
893.521405	-35.221698
893.787796	-35.250089
894.054345	-35.035240
894.321053	-34.776816
894.587921	-34.921264
894.854948	-34.970792
895.122134	-34.765817
895.389480	-34.598293
895.656986	-34.872500
895.924651	-35.014905
896.192477	-34.741794
896.460463	-34.503681
896.728609	-34.560710
896.996915	-34.616758
897.265382	-34.450868
897.534010	-34.422651
897.802799	-34.431999
898.071749	-34.409665
898.340860	-34.381192
898.610132	-34.507510
898.879566	-34.368565
899.149162	-34.071010
899.418919	-34.062628
899.688838	-34.328250
899.958919	-34.227937
900.229162	-33.824121
900.499568	-33.807576
900.770136	-34.144865
901.040867	-34.248756
901.311761	-33.977066
901.582817	-33.808012
901.854037	-33.721153
902.125420	-33.652417
902.396966	-33.699082
902.668676	-33.844988
902.940550	-33.729329
903.212587	-33.525149
903.484788	-33.549069
903.757153	-33.645192
904.029683	-33.502561
904.302377	-33.429146
904.575236	-33.522924
904.848259	-33.388534
905.121447	-33.025989
905.394800	-33.072379
905.668319	-33.487225
905.942002	-33.548363
906.215852	-33.126965
906.489866	-32.925707
906.764047	-33.052097
907.038393	-33.157643
907.312906	-33.103606
907.587584	-32.973326
907.862429	-32.824813
908.137441	-32.871897
908.412619	-33.168183
908.687964	-33.172743
908.963476	-32.743660
909.239155	-32.594814
909.515002	-32.967249
909.791015	-33.070003
910.067197	-32.637059
910.343546	-32.472323
910.620063	-32.836126
910.896748	-33.033999
911.173601	-32.770660
911.450623	-32.535527
911.727813	-32.530757
912.005171	-32.593375
912.282699	-32.663806
912.560395	-32.592986
912.838261	-32.370716
913.116296	-32.391150
913.394500	-32.729770
913.672874	-32.698930
913.951418	-32.198782
914.230131	-32.075282
914.509015	-32.471005
914.788068	-32.555555
915.067292	-32.185044
915.346687	-32.079778
915.626252	-32.323989
915.905988	-32.376208
916.185895	-32.240685
916.465973	-32.126567
916.746223	-32.022394
917.026644	-31.972078
917.307236	-32.125922
917.588000	-32.111229
917.868937	-31.878058
918.150045	-31.866829
918.431325	-32.119096
918.712778	-31.983840
918.994404	-31.630653
919.276202	-31.609933
919.558173	-31.795860
919.840317	-31.725485
920.122634	-31.648219
920.405125	-31.685125
920.687789	-31.589884
920.970627	-31.461611
921.253639	-31.587158
921.536824	-31.591036
921.820184	-31.300242
922.103718	-31.247786
922.387427	-31.550571
922.671310	-31.582760
922.955368	-31.320538
923.239601	-31.252888
923.524009	-31.346711
923.808592	-31.324119
924.093351	-31.292640
924.378285	-31.204819
924.663396	-31.052314
924.948682	-31.156926
925.234144	-31.464894
925.519782	-31.261569
925.805597	-30.803272
926.091589	-30.867245
926.377757	-31.214179
926.664102	-31.048829
926.950624	-30.749222
927.237323	-30.867743
927.524200	-31.052412
927.811255	-30.913312
928.098487	-30.734833
928.385897	-30.656626
928.673485	-30.656534
928.961251	-30.790686
929.249196	-30.807018
929.537319	-30.546507
929.825621	-30.519113
930.114102	-30.816124
930.402762	-30.741481
930.691601	-30.349816
930.980620	-30.399856
931.269818	-30.685561
931.559196	-30.566558
931.848753	-30.378645
932.138491	-30.506906
932.428409	-30.552024
932.718508	-30.382199
933.008787	-30.330212
933.299246	-30.303724
933.589887	-30.259850
933.880709	-30.353085
934.171712	-30.389384
934.462896	-30.165283
934.754262	-30.152198
935.045810	-30.287443
935.337539	-30.115591
935.629451	-29.915060
935.921545	-30.137227
936.213822	-30.247856
936.506281	-30.012741
936.798922	-29.977206
937.091747	-30.111656
937.384755	-29.975587
937.677946	-29.885874
937.971321	-30.032281
938.264879	-30.006401
938.558621	-29.915054
938.852547	-30.031899
939.146657	-30.032309
939.440952	-29.830593
939.735431	-29.879421
940.030095	-29.947193
940.324943	-29.830713
940.619977	-29.867839
940.915196	-30.009540
941.210600	-29.795496
941.506189	-29.684748
941.801965	-29.865643
942.097926	-29.778042
942.394074	-29.523265
942.690407	-29.668551
942.986927	-29.813018
943.283634	-29.575244
943.580527	-29.491350
943.877608	-29.557992
944.174875	-29.417189
944.472330	-29.351773
944.769972	-29.488031
945.067802	-29.402289
945.365820	-29.291660
945.664026	-29.387331
945.962420	-29.307543
946.261002	-29.134759
946.559773	-29.235587
946.858733	-29.274556
947.157881	-29.129460
947.457219	-29.262725
947.756746	-29.343106
948.056462	-29.018243
948.356368	-28.956734
948.656464	-29.267456
948.956749	-29.202899
949.257225	-28.962119
949.557891	-29.094905
949.858748	-29.185037
950.159796	-29.029112
950.461034	-28.964117
950.762463	-28.946367
951.064084	-28.923658
951.365896	-29.068428
951.667900	-29.020516
951.970095	-28.764867
952.272483	-28.841804
952.575063	-28.961925
952.877835	-28.704863
953.180799	-28.647891
953.483956	-28.904367
953.787307	-28.764399
954.090850	-28.544377
954.394586	-28.698949
954.698516	-28.710227
955.002640	-28.468773
955.306957	-28.499717
955.611469	-28.643738
955.916174	-28.592015
956.221074	-28.535045
956.526169	-28.429278
956.831458	-28.360723
957.136942	-28.521123
957.442622	-28.522249
957.748496	-28.289061
958.054567	-28.409622
958.360833	-28.603480
958.667294	-28.307395
958.973952	-28.181043
959.280806	-28.442192
959.587857	-28.415085
959.895104	-28.245666
960.202548	-28.370715
960.510189	-28.383586
960.818027	-28.208093
961.126062	-28.215431
961.434295	-28.248290
961.742726	-28.251223
962.051355	-28.309742
962.360182	-28.188860
962.669207	-28.092444
962.978431	-28.242370
963.287854	-28.157332
963.597475	-27.942898
963.907296	-28.177835
964.217315	-28.313212
964.527535	-27.957169
964.837954	-27.916163
965.148573	-28.143836
965.459392	-28.028187
965.770411	-27.914367
966.081630	-28.030797
966.393051	-28.001759
966.704672	-27.943590
967.016494	-27.940382
967.328517	-27.820087
967.640742	-27.868195
967.953169	-27.985069
968.265797	-27.840440
968.578627	-27.816266
968.891660	-27.927842
969.204895	-27.727975
969.518332	-27.650470
969.831972	-27.917461
970.145816	-27.828161
970.459862	-27.618378
970.774112	-27.769481
971.088565	-27.750337
971.403223	-27.561892
971.718084	-27.660556
972.033149	-27.732580
972.348419	-27.618118
972.663893	-27.619844
972.979572	-27.582893
973.295456	-27.514481
973.611546	-27.591362
973.927840	-27.523313
974.244340	-27.474180
974.561046	-27.633314
974.877958	-27.482389
975.195076	-27.272128
975.512401	-27.493721
975.829932	-27.546726
976.147670	-27.293516
976.465615	-27.386675
976.783767	-27.491697
977.102126	-27.262026
977.420693	-27.234006
977.739468	-27.351405
978.058451	-27.320261
978.377642	-27.297141
978.697041	-27.199847
979.016649	-27.135803
979.336466	-27.257909
979.656492	-27.163849
979.976727	-27.033564
980.297171	-27.236199
980.617825	-27.191389
980.938689	-26.903368
981.259763	-27.024279
981.581048	-27.152994
981.902542	-26.967156
982.224248	-26.978963
982.546164	-27.035577
982.868291	-26.918920
983.190630	-26.918640
983.513180	-26.907329
983.835942	-26.894417
984.158916	-27.008268
984.482101	-26.887180
984.805500	-26.749178
985.129110	-26.918648
985.452934	-26.901161
985.776970	-26.764319
986.101220	-26.899745
986.425683	-26.886666
986.750359	-26.739211
987.075250	-26.809183
987.400354	-26.805381
987.725673	-26.782967
988.051206	-26.879799
988.376954	-26.757163
988.702916	-26.689537
989.029094	-26.826303
989.355487	-26.724591
989.682095	-26.681821
990.008919	-26.837858
990.335959	-26.698688
990.663216	-26.587112
990.990688	-26.704428
991.318377	-26.655212
991.646283	-26.635489
991.974406	-26.669151
992.302746	-26.543022
992.631304	-26.569760
992.960079	-26.590367
993.289072	-26.459335
993.618283	-26.579349
993.947713	-26.592959
994.277361	-26.350196
994.607227	-26.445995
994.937313	-26.533574
995.267618	-26.350008
995.598142	-26.429507
995.928886	-26.482834
996.259849	-26.298464
996.591033	-26.327854
996.922437	-26.388121
997.254061	-26.349092
997.585906	-26.351158
997.917972	-26.246980
998.250260	-26.267931
998.582768	-26.342278
998.915498	-26.149721
999.248450	-26.211964
999.581624	-26.379700
999.915020	-26.088407
1000.248639	-26.049554
1000.582480	-26.292895
1000.916545	-26.125524
1001.250832	-26.019468
1001.585343	-26.145058
1001.920077	-26.070324
1002.255035	-25.974978
1002.590218	-25.971954
1002.925624	-26.032479
1003.261255	-26.044702
1003.597111	-25.820606
1003.933192	-25.843464
1004.269497	-26.049675
1004.606029	-25.799623
1004.942785	-25.725964
1005.279768	-25.983243
1005.616977	-25.770147
1005.954412	-25.595588
1006.292074	-25.817209
1006.629962	-25.797878
1006.968077	-25.627741
1007.306420	-25.611647
1007.644990	-25.669932
1007.983787	-25.679502
1008.322813	-25.516735
1008.662067	-25.554823
1009.001549	-25.707120
1009.341259	-25.435257
1009.681199	-25.381420
1010.021367	-25.655899
1010.361765	-25.468675
1010.702392	-25.327439
1011.043250	-25.504265
1011.384337	-25.420119
1011.725654	-25.330352
1012.067202	-25.403299
1012.408980	-25.402339
1012.750989	-25.351842
1013.093230	-25.243494
1013.435702	-25.310461
1013.778405	-25.412925
1014.121341	-25.199715
1014.464508	-25.226674
1014.807908	-25.379505
1015.151540	-25.159904
1015.495405	-25.192474
1015.839503	-25.362363
1016.183835	-25.176773
1016.528400	-25.145581
1016.873198	-25.232726
1017.218231	-25.188400
1017.563498	-25.177007
1017.908999	-25.131874
1018.254735	-25.160065
1018.600707	-25.151355
1018.946913	-25.033537
1019.293354	-25.162480
1019.640032	-25.146448
1019.986945	-24.940942
1020.334094	-25.075430
1020.681480	-25.071649
1021.029102	-24.908929
1021.376961	-25.014498
1021.725058	-24.962682
1022.073391	-24.849357
1022.421962	-24.904237
1022.770772	-24.875941
1023.119819	-24.858884
1023.469104	-24.788757
1023.818628	-24.727822
1024.168391	-24.795455
1024.518393	-24.686725
1024.868634	-24.652648
1025.219115	-24.705759
1025.569836	-24.531233
1025.920796	-24.560501
1026.271997	-24.625867
1026.623438	-24.451315
1026.975121	-24.473327
1027.327044	-24.460858
1027.679208	-24.348751
1028.031614	-24.398849
1028.384262	-24.336138
1028.737152	-24.263391
1029.090284	-24.261475
1029.443659	-24.213129
1029.797276	-24.234631
1030.151137	-24.155802
1030.505240	-24.111357
1030.859587	-24.163268
1031.214178	-24.027628
1031.569013	-24.046500
1031.924093	-24.101160
1032.279417	-23.922837
1032.634985	-23.968820
1032.990799	-24.006974
1033.346858	-23.887932
1033.703162	-23.935586
1034.059712	-23.902931
1034.416509	-23.840356
1034.773551	-23.859852
1035.130841	-23.833407
1035.488377	-23.839976
1035.846160	-23.759303
1036.204190	-23.755488
1036.562468	-23.831236
1036.920994	-23.709364
1037.279768	-23.746698
1037.638790	-23.772339
1037.998061	-23.625986
1038.357581	-23.738060
1038.717350	-23.723357
1039.077368	-23.583667
1039.437636	-23.673160
1039.798154	-23.646150
1040.158922	-23.603121
1040.519940	-23.615035
1040.881209	-23.577065
1041.242729	-23.583915
1041.604501	-23.506881
1041.966524	-23.542213
1042.328798	-23.546327
1042.691325	-23.381506
1043.054103	-23.485211
1043.417135	-23.472630
1043.780419	-23.331798
1044.143956	-23.425748
1044.507746	-23.334852
1044.871791	-23.280864
1045.236088	-23.329826
1045.600641	-23.218818
1045.965447	-23.219518
1046.330508	-23.168693
1046.695824	-23.134300
1047.061395	-23.162015
1047.427222	-23.035467
1047.793304	-23.050814
1048.159642	-23.019978
1048.526237	-22.941006
1048.893088	-22.974268
1049.260196	-22.841997
1049.627561	-22.856282
1049.995183	-22.861765
1050.363063	-22.728252
1050.731201	-22.802447
1051.099597	-22.704483
1051.468251	-22.640900
1051.837164	-22.714905
1052.206336	-22.576033
1052.575767	-22.570941
1052.945458	-22.563498
1053.315409	-22.506680
1053.685619	-22.514569
1054.056090	-22.436005
1054.426821	-22.469053
1054.797814	-22.394032
1055.169067	-22.359695
1055.540582	-22.433565
1055.912359	-22.254415
1056.284398	-22.315105
1056.656698	-22.358261
1057.029262	-22.203348
1057.402088	-22.295554
1057.775177	-22.238925
1058.148530	-22.196066
1058.522146	-22.237229
1058.896027	-22.166457
1059.270171	-22.180515
1059.644580	-22.124114
1060.019254	-22.176071
1060.394193	-22.146951
1060.769397	-22.048263
1061.144867	-22.176314
1061.520602	-22.049376
1061.896604	-22.043525
1062.272872	-22.115010
1062.649407	-21.952295
1063.026210	-22.044254
1063.403279	-22.016112
1063.780616	-21.952639
1064.158221	-21.981057
1064.536094	-21.908030
1064.914235	-21.959583
1065.292645	-21.865489
1065.671325	-21.859950
1066.050273	-21.869282
1066.429491	-21.773122
1066.808979	-21.861319
1067.188738	-21.724127
1067.568766	-21.725709
1067.949066	-21.763486
1068.329636	-21.606555
1068.710478	-21.681593
1069.091592	-21.572145
1069.472977	-21.548860
1069.854635	-21.574277
1070.236565	-21.442237
1070.618768	-21.484080
1071.001243	-21.382750
1071.383993	-21.384681
1071.767016	-21.340555
1072.150313	-21.234969
1072.533884	-21.303436
1072.917730	-21.168880
1073.301850	-21.203967
1073.686246	-21.145941
1074.070917	-21.049271
1074.455864	-21.140982
1074.841087	-20.976223
1075.226586	-21.004454
1075.612362	-20.972064
1075.998415	-20.900179
1076.384745	-20.950176
1076.771353	-20.816543
1077.158238	-20.869808
1077.545401	-20.797591
1077.932843	-20.763703
1078.320564	-20.777730
1078.708564	-20.663392
1079.096842	-20.757518
1079.485401	-20.648679
1079.874240	-20.655346
1080.263358	-20.665575
1080.652757	-20.572332
1081.042438	-20.663369
1081.432399	-20.541799
1081.822641	-20.591305
1082.213166	-20.586721
1082.603972	-20.540823
1082.995061	-20.600185
1083.386433	-20.494484
1083.778087	-20.593295
1084.170025	-20.513812
1084.562246	-20.508476
1084.954751	-20.553687
1085.347541	-20.459706
1085.740615	-20.561924
1086.133973	-20.445990
1086.527617	-20.482808
1086.921546	-20.478008
1087.315761	-20.406746
1087.710262	-20.460657
1088.105050	-20.355686
1088.500124	-20.436760
1088.895485	-20.348067
1089.291134	-20.343234
1089.687070	-20.355772
1090.083294	-20.259020
1090.479806	-20.337769
1090.876607	-20.206639
1091.273696	-20.262768
1091.671075	-20.223928
1092.068744	-20.168913
1092.466702	-20.198432
1092.864950	-20.087189
1093.263489	-20.153677
1093.662319	-20.028593
1094.061440	-20.046249
1094.460852	-20.012292
1094.860555	-19.936030
1095.260551	-19.966525
1095.660840	-19.827187
1096.061421	-19.876496
1096.462295	-19.763057
1096.863462	-19.750336
1097.264923	-19.708951
1097.666678	-19.635085
1098.068727	-19.673305
1098.471071	-19.522191
1098.873710	-19.588486
1099.276644	-19.483495
1099.679874	-19.473445
1100.083400	-19.472370
1100.487222	-19.382949
1100.891340	-19.460563
1101.295756	-19.345655
1101.700468	-19.392826
1102.105478	-19.341309
1102.510787	-19.341781
1102.916393	-19.335632
1103.322298	-19.295086
1103.728502	-19.345937
1104.135005	-19.256333
1104.541807	-19.321619
1104.948909	-19.223676
1105.356312	-19.265278
1105.764015	-19.224971
1106.172019	-19.173263
1106.580324	-19.226228
1106.988931	-19.103135
1107.397840	-19.172973
1107.807051	-19.049321
1108.216564	-19.078870
1108.626380	-19.030259
1109.036500	-18.976935
1109.446923	-19.005124
1109.857649	-18.903925
1110.268680	-18.963294
1110.680016	-18.840969
1111.091657	-18.896359
1111.503602	-18.832605
1111.915854	-18.821385
1112.328411	-18.838789
1112.741275	-18.769237
1113.154445	-18.831843
1113.567922	-18.731710
1113.981706	-18.794198
1114.395798	-18.729582
1114.810198	-18.753914
1115.224906	-18.723518
1115.639923	-18.706134
1116.055249	-18.711820
1116.470884	-18.629408
1116.886829	-18.672894
1117.303084	-18.562531
1117.719650	-18.610087
1118.136526	-18.500984
1118.553713	-18.503103
1118.971212	-18.444024
1119.389022	-18.362466
1119.807145	-18.361899
1120.225580	-18.245423
1120.644328	-18.266993
1121.063389	-18.141181
1121.482763	-18.154835
1121.902452	-18.052815
1122.322454	-18.030508
1122.742771	-17.978234
1123.163404	-17.933774
1123.584351	-17.933351
1124.005614	-17.851512
1124.427193	-17.896397
1124.849089	-17.800489
1125.271301	-17.855996
1125.693830	-17.790084
1126.116677	-17.836278
1126.539842	-17.820265
1126.963324	-17.817746
1127.387126	-17.857588
1127.811246	-17.817155
1128.235685	-17.888936
1128.660444	-17.840658
1129.085522	-17.926659
1129.510922	-17.876087
1129.936641	-17.934393
1130.362682	-17.903339
1130.789044	-17.922829
1131.215728	-17.917114
1131.642734	-17.900403
1132.070063	-17.921144
1132.497714	-17.851744
1132.925689	-17.880019
1133.353987	-17.782499
1133.782610	-17.807541
1134.211556	-17.703693
1134.640827	-17.715712
1135.070424	-17.619947
1135.500345	-17.585616
1135.930593	-17.517860
1136.361166	-17.445380
1136.792067	-17.413938
1137.223294	-17.315650
1137.654848	-17.310916
1138.086730	-17.192144
1138.518940	-17.191949
1138.951479	-17.081721
1139.384346	-17.084993
1139.817543	-16.999299
1140.251069	-16.993436
1140.684925	-16.937248
1141.119111	-16.904735
1141.553628	-16.884960
1141.988475	-16.841092
1142.423655	-16.858068
1142.859166	-16.802970
1143.295009	-16.840945
1143.731185	-16.776157
1144.167694	-16.820830
1144.604536	-16.767906
1145.041711	-16.817018
1145.479221	-16.779456
1145.917065	-16.811360
1146.355245	-16.791550
1146.793759	-16.794973
1147.232609	-16.802473
1147.671795	-16.787783
1148.111317	-16.814834
1148.551177	-16.772629
1148.991373	-16.807122
1149.431907	-16.743819
1149.872779	-16.782935
1150.313989	-16.717494
1150.755538	-16.753462
1151.197426	-16.680260
1151.639653	-16.697183
1152.082220	-16.630250
1152.525128	-16.625358
1152.968376	-16.580319
1153.411966	-16.554118
1153.855897	-16.519723
1154.300169	-16.463978
1154.744784	-16.448140
1155.189742	-16.374406
1155.635042	-16.378071
1156.080687	-16.295959
1156.526674	-16.304330
1156.973007	-16.208613
1157.419683	-16.224624
1157.866705	-16.135317
1158.314072	-16.152324
1158.761786	-16.075716
1159.209845	-16.082290
1159.658251	-16.011503
1160.107004	-16.012521
1160.556104	-15.965643
1161.005553	-15.956574
1161.455349	-15.929915
1161.905494	-15.903643
1162.355989	-15.890242
1162.806832	-15.855600
1163.258026	-15.867797
1163.709570	-15.822764
1164.161464	-15.847395
1164.613710	-15.790802
1165.066307	-15.820387
1165.519256	-15.765439
1165.972558	-15.809022
1166.426212	-15.749682
1166.880219	-15.791750
1167.334580	-15.730581
1167.789295	-15.768045
1168.244364	-15.718180
1168.699788	-15.756875
1169.155567	-15.708309
1169.611702	-15.733130
1170.068193	-15.691849
1170.525041	-15.706979
1170.982245	-15.681492
1171.439807	-15.690330
1171.897726	-15.664549
1172.356004	-15.658145
1172.814640	-15.641801
1173.273635	-15.628392
1173.732989	-15.624806
1174.192703	-15.602305
1174.652778	-15.594520
1175.113213	-15.561725
1175.574009	-15.563821
1176.035167	-15.528010
1176.496687	-15.536285
1176.958569	-15.490601
1177.420814	-15.491573
1177.883422	-15.445500
1178.346394	-15.452945
1178.809730	-15.407780
1179.273430	-15.412260
1179.737496	-15.359701
1180.201927	-15.357785
1180.666723	-15.312701
1181.131886	-15.314340
1181.597416	-15.268264
1182.063312	-15.261894
1182.529576	-15.211657
1182.996209	-15.205339
1183.463209	-15.164476
1183.930579	-15.157233
1184.398317	-15.111028
1184.866426	-15.096973
1185.334904	-15.051273
1185.803754	-15.043022
1186.272974	-15.003157
1186.742566	-14.988005
1187.212529	-14.942736
1187.682865	-14.925371
1188.153574	-14.887481
1188.624656	-14.873733
1189.096112	-14.836185
1189.567942	-14.811876
1190.040147	-14.774673
1190.512726	-14.754669
1190.985681	-14.725213
1191.459012	-14.703010
1191.932720	-14.669238
1192.406804	-14.640474
1192.881265	-14.615875
1193.356104	-14.592734
1193.831322	-14.569208
1194.306918	-14.541071
1194.782893	-14.512207
1195.259248	-14.491537
1195.735982	-14.469117
1196.213097	-14.453673
1196.690593	-14.419169
1197.168471	-14.409062
1197.646730	-14.369535
1198.125371	-14.378949
1198.604395	-14.331988
1199.083803	-14.344028
1199.563594	-14.285555
1200.043769	-14.310271
1200.524329	-14.254233
1201.005273	-14.285172
1201.486604	-14.222482
1201.968320	-14.244168
1202.450422	-14.197830
1202.932912	-14.211624
1203.415789	-14.187215
1203.899054	-14.169287
1204.382707	-14.168596
1204.866748	-14.124826
1205.351179	-14.166234
1205.836000	-14.086897
1206.321211	-14.153732
1206.806812	-14.041801
1207.292805	-14.134937
1207.779189	-14.019842
1208.265965	-14.109631
1208.753134	-13.998606
1209.240696	-14.060857
1209.728651	-13.991165
1210.217000	-14.015451
1210.705744	-13.993393
1211.194883	-13.953102
1211.684417	-13.985366
1212.174347	-13.900434
1212.664673	-13.981573
1213.155396	-13.857684
1213.646516	-13.950642
1214.138034	-13.819830
1214.629951	-13.916124
1215.122266	-13.802835
1215.614980	-13.868196
1216.108095	-13.776984
1216.601609	-13.812706
1217.095524	-13.763623
1217.589841	-13.766219
1218.084559	-13.738344
1218.579679	-13.709836
1219.075202	-13.709744
1219.571128	-13.670524
1220.067458	-13.681253
1220.564191	-13.620713
1221.061330	-13.640810
1221.558874	-13.578239
1222.056823	-13.611616
1222.555178	-13.535175
1223.053940	-13.565170
1223.553109	-13.491086
1224.052686	-13.525523
1224.552671	-13.461325
1225.053065	-13.472641
1225.553867	-13.423153
1226.055079	-13.419319
1226.556702	-13.401166
1227.058735	-13.369388
1227.561179	-13.365182
1228.064035	-13.316434
1228.567303	-13.334323
1229.070983	-13.283418
1229.575077	-13.292251
1230.079585	-13.245411
1230.584506	-13.246470
1231.089842	-13.227053
1231.595594	-13.206437
1232.101761	-13.197839
1232.608345	-13.163545
1233.115345	-13.174986
1233.622762	-13.142310
1234.130597	-13.143355
1234.638851	-13.116501
1235.147523	-13.109963
1235.656615	-13.110919
1236.166126	-13.082848
1236.676058	-13.094510
1237.186411	-13.054088
1237.697185	-13.085792
1238.208381	-13.046085
1238.719999	-13.065862
1239.232040	-13.034127
1239.744505	-13.045686
1240.257394	-13.042309
1240.770708	-13.027369
1241.284446	-13.037496
1241.798610	-13.008941
1242.313201	-13.041992
1242.828218	-13.006136
1243.343662	-13.030581
1243.859534	-12.999338
1244.375834	-13.022426
1244.892563	-13.009704
1245.409721	-13.007668
1245.927309	-13.006243
1246.445327	-12.995598
1246.963777	-13.014179
1247.482657	-12.988962
1248.001970	-13.002820
1248.521716	-12.981303
1249.041894	-12.999646
1249.562506	-12.983868
1250.083553	-12.981460
1250.605034	-12.976156
1251.126950	-12.972198
1251.649302	-12.977694
1252.172091	-12.956531
1252.695316	-12.961651
1253.218979	-12.947730
1253.743079	-12.955761
1254.267619	-12.937006
1254.792597	-12.931805
1255.318015	-12.925894
1255.843874	-12.921193
1256.370173	-12.914665
1256.896913	-12.895300
1257.424095	-12.896207
1257.951720	-12.883351
1258.479787	-12.880321
1259.008298	-12.857674
1259.537254	-12.853528
1260.066654	-12.843615
1260.596499	-12.833275
1261.126790	-12.816659
1261.657527	-12.800379
1262.188711	-12.797536
1262.720342	-12.777436
1263.252422	-12.766061
1263.784950	-12.741593
1264.317928	-12.738736
1264.851355	-12.718476
1265.385232	-12.700655
1265.919560	-12.681697
1266.454340	-12.665827
1266.989572	-12.656800
1267.525256	-12.624735
1268.061394	-12.614646
1268.597985	-12.589544
1269.135031	-12.581981
1269.672531	-12.552540
1270.210487	-12.531595
1270.748899	-12.520086
1271.287768	-12.494535
1271.827094	-12.482100
1272.366877	-12.446713
1272.907119	-12.443019
1273.447820	-12.417739
1273.988981	-12.396890
1274.530601	-12.378203
1275.072683	-12.354682
1275.615226	-12.351082
1276.158230	-12.314050
1276.701697	-12.306111
1277.245627	-12.285029
1277.790021	-12.271192
1278.334879	-12.255123
1278.880202	-12.225784
1279.425991	-12.228914
1279.972245	-12.200732
1280.518966	-12.191402
1281.066155	-12.171766
1281.613811	-12.159365
1282.161936	-12.156893
1282.710529	-12.124523
1283.259593	-12.127412
1283.809126	-12.108618
1284.359131	-12.102786
1284.909607	-12.089535
1285.460555	-12.070593
1286.011976	-12.080582
1286.563870	-12.054395
1287.116237	-12.053607
1287.669080	-12.042255
1288.222397	-12.036465
1288.776191	-12.037308
1289.330460	-12.012056
1289.885207	-12.025087
1290.440431	-12.012096
1290.996133	-12.007129
1291.552314	-12.005309
1292.108975	-11.993667
1292.666115	-12.008352
1293.223737	-11.986382
1293.781839	-11.991914
1294.340424	-11.995041
1294.899491	-11.985268
1295.459041	-11.994246
1296.019075	-11.978814
1296.579593	-11.995572
1297.140597	-11.989828
1297.702086	-11.981001
1298.264061	-11.997918
1298.826524	-11.986199
1299.389474	-11.998103
1299.952912	-11.990375
1300.516839	-11.993555
1301.081255	-12.008979
1301.646162	-11.989555
1302.211559	-12.007129
1302.777448	-12.005321
1303.343829	-12.004685
1303.910702	-12.014019
1304.478069	-12.001364
1305.045930	-12.023280
1305.614285	-12.012659
1306.183136	-12.010283
1306.752483	-12.028376
1307.322326	-12.013490
1307.892666	-12.026640
1308.463504	-12.020306
1309.034841	-12.022617
1309.606677	-12.035480
1310.179012	-12.014506
1310.751849	-12.033867
1311.325186	-12.031459
1311.899025	-12.021772
1312.473366	-12.036869
1313.048211	-12.023521
1313.623559	-12.036188
1314.199412	-12.029829
1314.775770	-12.022311
1315.352634	-12.042702
1315.930004	-12.021451
1316.507881	-12.028156
1317.086266	-12.034754
1317.665159	-12.019951
1318.244562	-12.032428
1318.824474	-12.018493
1319.404897	-12.024068
1319.985831	-12.027120
1320.567276	-12.005723
1321.149234	-12.024760
1321.731706	-12.012790
1322.314691	-12.001593
1322.898190	-12.014561
1323.482205	-11.995991
1324.066736	-12.001083
1324.651783	-11.993814
1325.237347	-11.982245
1325.823430	-11.994903
1326.410031	-11.969918
1326.997151	-11.971814
1327.584791	-11.977469
1328.172952	-11.950137
1328.761634	-11.959877
1329.350839	-11.950568
1329.940566	-11.936082
1330.530817	-11.941724
1331.121592	-11.920831
1331.712891	-11.923720
1332.304716	-11.916299
1332.897068	-11.893944
1333.489946	-11.906867
1334.083352	-11.885997
1334.677287	-11.871466
1335.271750	-11.881428
1335.866744	-11.854952
1336.462268	-11.850893
1337.058323	-11.847925
1337.654910	-11.825936
1338.252029	-11.828302
1338.849682	-11.810016
1339.447869	-11.799006
1340.046591	-11.800477
1340.645848	-11.772134
1341.245641	-11.772304
1341.845972	-11.767096
1342.446840	-11.737677
1343.048246	-11.743870
1343.650191	-11.730130
1344.252677	-11.707270
1344.855702	-11.712129
1345.459269	-11.691960
1346.063379	-11.679470
1346.668030	-11.677135
1347.273226	-11.655147
1347.878965	-11.652445
1348.485250	-11.640456
1349.092080	-11.621072
1349.699456	-11.624323
1350.307380	-11.603690
1350.915851	-11.589668
1351.524871	-11.594213
1352.134441	-11.568568
1352.744560	-11.560527
1353.355231	-11.562479
1353.966453	-11.536302
1354.578227	-11.532933
1355.190555	-11.529937
1355.803436	-11.507047
1356.416872	-11.506204
1357.030863	-11.497665
1357.645411	-11.480571
1358.260515	-11.480000
1358.876177	-11.466768
1359.492397	-11.456327
1360.109176	-11.454355
1360.726516	-11.437961
1361.344416	-11.433660
1361.962877	-11.429265
1362.581901	-11.411468
1363.201487	-11.411987
1363.821637	-11.404899
1364.442352	-11.387237
1365.063632	-11.390913
1365.685478	-11.381393
1366.307891	-11.364957
1366.930871	-11.370301
1367.554420	-11.358885
1368.178538	-11.344299
1368.803226	-11.350042
1369.428485	-11.337397
1370.054315	-11.324833
1370.680717	-11.330156
1371.307693	-11.316915
1371.935242	-11.306229
1372.563366	-11.310637
1373.192065	-11.297271
1373.821341	-11.288108
1374.451193	-11.291264
1375.081623	-11.278063
1375.712632	-11.269880
1376.344221	-11.271634
1376.976389	-11.258738
1377.609139	-11.251084
1378.242470	-11.251529
1378.876384	-11.238981
1379.510881	-11.231646
1380.145963	-11.230924
1380.781629	-11.218788
1381.417881	-11.211581
1382.054720	-11.210057
1382.692147	-11.198295
1383.330161	-11.191242
1383.968765	-11.189165
1384.607959	-11.177700
1385.247743	-11.170622
1385.888119	-11.168321
1386.529087	-11.156865
1387.170648	-11.149755
1387.812804	-11.147334
1388.455554	-11.135621
1389.098899	-11.128246
1389.742842	-11.125760
1390.387381	-11.113432
1391.032519	-11.105621
1391.678256	-11.103161
1392.324592	-11.090050
1392.971529	-11.081873
1393.619068	-11.079536
1394.267208	-11.065618
1394.915952	-11.057242
1395.565300	-11.055100
1396.215253	-11.040483
1396.865812	-11.032234
1397.516977	-11.030379
1398.168749	-11.015274
1398.821130	-11.007482
1399.474120	-11.005918
1400.127719	-10.990637
1400.781930	-10.983688
1401.436752	-10.982300
1402.092186	-10.967450
1402.748234	-10.961564
1403.404897	-10.960073
1404.062174	-10.946187
1404.720067	-10.941316
1405.378577	-10.939047
1406.037705	-10.926775
1406.697451	-10.922687
1407.357817	-10.919058
1408.018803	-10.909241
1408.680410	-10.905717
1409.342639	-10.900399
1410.005492	-10.893907
1410.668968	-10.890529
1411.333068	-10.883497
1411.997795	-10.880733
1412.663147	-10.876898
1413.329127	-10.868514
1413.995736	-10.869437
1414.662973	-10.864631
1415.330840	-10.856083
1415.999339	-10.860084
1416.668469	-10.854489
1417.338232	-10.847329
1418.008628	-10.853189
1418.679659	-10.847393
1419.351325	-10.843074
1420.023628	-10.848631
1420.696568	-10.843576
1421.370145	-10.842837
1422.044362	-10.845909
1422.719219	-10.842967
1423.394717	-10.845900
1424.070856	-10.845497
1424.747638	-10.846386
1425.425064	-10.852304
1426.103134	-10.849434
1426.781850	-10.855133
1427.461212	-10.862435
1428.141221	-10.859250
1428.821878	-10.868834
1429.503185	-10.875267
1430.185141	-10.874317
1430.867749	-10.885081
1431.551008	-10.889462
1432.234920	-10.893472
1432.919486	-10.902827
1433.604707	-10.906652
1434.290583	-10.917359
1434.977116	-10.924433
1435.664307	-10.930645
1436.352156	-10.946857
1437.040664	-10.952315
1437.729833	-10.962729
1438.419663	-10.979750
1439.110156	-10.985332
1439.801312	-10.998927
1440.493132	-11.011558
1441.185617	-11.019797
1441.878768	-11.033959
1442.572586	-11.041126
1443.267072	-11.054695
1443.962228	-11.067770
1444.658053	-11.074131
1445.354549	-11.093508
1446.051717	-11.105898
1446.749558	-11.117990
1447.448073	-11.139100
1448.147263	-11.152256
1448.847128	-11.171463
1449.547671	-11.187602
1450.248891	-11.201799
1450.950789	-11.222157
1451.653368	-11.229840
1452.356627	-11.243985
1453.060568	-11.257542
1453.765192	-11.261346
1454.470500	-11.273886
1455.176492	-11.279457
1455.883170	-11.288220
1456.590534	-11.298568
1457.298586	-11.303444
1458.007327	-11.320509
1458.716758	-11.329485
1459.426880	-11.341142
1460.137693	-11.359200
1460.849199	-11.368020
1461.561398	-11.383661
1462.274293	-11.391063
1462.987883	-11.397974
1463.702170	-11.404741
1464.417155	-11.397340
1465.132838	-11.396288
1465.849222	-11.385182
1466.566306	-11.370019
1467.284093	-11.356988
1468.002582	-11.335499
1468.721775	-11.323147
1469.441674	-11.304593
1470.162278	-11.291275
1470.883590	-11.286782
1471.605609	-11.278542
1472.328338	-11.283569
1473.051777	-11.287393
1473.775928	-11.299039
1474.500790	-11.314960
1475.226367	-11.326217
1475.952657	-11.347393
1476.679663	-11.359425
1477.407386	-11.372407
1478.135826	-11.381372
1478.864985	-11.382341
1479.594863	-11.385447
1480.325463	-11.375255
1481.056784	-11.369070
1481.788828	-11.359540
1482.521597	-11.349416
1483.255090	-11.347972
1483.989309	-11.346969
1484.724256	-11.364268
1485.459931	-11.387951
1486.196336	-11.429096
1486.933471	-11.489911
1487.671337	-11.564575
1488.409937	-11.665068
1489.149270	-11.776723
1489.889337	-11.913764
1490.630141	-12.064124
1491.371682	-12.226514
1492.113961	-12.403411
1492.856979	-12.579011
1493.600738	-12.762943
1494.345238	-12.932012
1495.090481	-13.092855
1495.836467	-13.234937
1496.583198	-13.349158
1497.330675	-13.441938
1498.078899	-13.496589
1498.827872	-13.533147
1499.577593	-13.539636
1500.328065	-13.530497
1501.079289	-13.513012
1501.831265	-13.489926
1502.583995	-13.482957
1503.337480	-13.482405
1504.091721	-13.513049
1504.846719	-13.567042
1505.602475	-13.655575
1506.358991	-13.777138
1507.116268	-13.923717
1507.874306	-14.102925
1508.633108	-14.288389
1509.392673	-14.483762
1510.153004	-14.655967
1510.914101	-14.796974
1511.675965	-14.882032
1512.438599	-14.888253
1513.202002	-14.814886
1513.966176	-14.644637
1514.731122	-14.403037
1515.496842	-14.089440
1516.263336	-13.736860
1517.030607	-13.361720
1517.798654	-12.985659
1518.567479	-12.629261
1519.337083	-12.296955
1520.107468	-12.008808
1520.878634	-11.758556
1521.650584	-11.559275
1522.423317	-11.398698
1523.196836	-11.282765
1523.971141	-11.198752
1524.746233	-11.142315
1525.522115	-11.100118
1526.298786	-11.060043
1527.076249	-11.011110
1527.854504	-10.934491
1528.633553	-10.822236
1529.413397	-10.656930
1530.194037	-10.440156
1530.975474	-10.161396
1531.757709	-9.832579
1532.540745	-9.454288
1533.324581	-9.047220
1534.109220	-8.617832
1534.894662	-8.187114
1535.680909	-7.763544
1536.467961	-7.364876
1537.255821	-6.997887
1538.044489	-6.674351
1538.833967	-6.399895
1539.624256	-6.181856
1540.415357	-6.024787
1541.207271	-5.931567
1542.000000	-5.906791
1542.793545	-5.950967
1543.587907	-6.069089
1544.383087	-6.259364
1545.179088	-6.527833
1545.975909	-6.872324
1546.773552	-7.300893
1547.572019	-7.811533
1548.371311	-8.415379
1549.171428	-9.113414
1549.972373	-9.922971
1550.774147	-10.851171
1551.576751	-11.926752
1552.380185	-13.173085
1553.184453	-14.646946
1553.989554	-16.417362
1554.795490	-18.629522
1555.602263	-21.545380
1556.409873	-25.844932
1557.218322	-34.102234
1558.027612	-37.221848
1558.837743	-27.456740
1559.648717	-23.031389
1560.460536	-20.236867
1561.273200	-18.239999
1562.086710	-16.719484
1562.901069	-15.524523
1563.716278	-14.562251
1564.532337	-13.785121
1565.349249	-13.151653
1566.167014	-12.643982
1566.985634	-12.237076
1567.805111	-11.924617
1568.625444	-11.689079
1569.446637	-11.529976
1570.268690	-11.432655
1571.091605	-11.399156
1571.915382	-11.416298
1572.740024	-11.488101
1573.565532	-11.601936
1574.391907	-11.762440
1575.219150	-11.956507
1576.047262	-12.189460
1576.876246	-12.447833
1577.706103	-12.737437
1578.536833	-13.043424
1579.368439	-13.371906
1580.200922	-13.707457
1581.034282	-14.057259
1581.868522	-14.405041
1582.703643	-14.759008
1583.539646	-15.102026
1584.376532	-15.443889
1585.214304	-15.767320
1586.052962	-16.083116
1586.892508	-16.372556
1587.732943	-16.647419
1588.574269	-16.887890
1589.416487	-17.106808
1590.259599	-17.283806
1591.103605	-17.432477
1591.948508	-17.532717
1592.794309	-17.600619
1593.641009	-17.617947
1594.488609	-17.603201
1595.337112	-17.540620
1596.186518	-17.450866
1597.036829	-17.320568
1597.888047	-17.171914
1598.740172	-16.993096
1599.593207	-16.805772
1600.447153	-16.599284
1601.302010	-16.394177
1602.157782	-16.180075
1603.014469	-15.975355
1603.872072	-15.769501
1604.730593	-15.578099
1605.590034	-15.391073
1606.450397	-15.221259
1607.311681	-15.058930
1608.173890	-14.913766
1609.037024	-14.777358
1609.901085	-14.656675
1610.766075	-14.545150
1611.631995	-14.446610
1612.498846	-14.356476
1613.366630	-14.275438
1614.235349	-14.201659
1615.105004	-14.132796
1615.975596	-14.069751
1616.847128	-14.007277
1617.719600	-13.948871
1618.593014	-13.887482
1619.467372	-13.829309
1620.342675	-13.765946
1621.218924	-13.705124
1622.096122	-13.638162
1622.974270	-13.573644
1623.853369	-13.503896
1624.733420	-13.436993
1625.614427	-13.367094
1626.496389	-13.300323
1627.379308	-13.233321
1628.263187	-13.169530
1629.148026	-13.108656
1630.033828	-13.050447
1630.920593	-12.997400
1631.808324	-12.945854
1632.697022	-12.900882
1633.586688	-12.856169
1634.477324	-12.818116
1635.368932	-12.779223
1636.261514	-12.745683
1637.155070	-12.710643
1638.049602	-12.678574
1638.945113	-12.645303
1639.841603	-12.612005
1640.739075	-12.578518
1641.637529	-12.542469
1642.536968	-12.507711
1643.437393	-12.469011
1644.338806	-12.432788
1645.241209	-12.392715
1646.144602	-12.355480
1647.048988	-12.316365
1647.954368	-12.279607
1648.860744	-12.243767
1649.768118	-12.209129
1650.676491	-12.178132
1651.585865	-12.146872
1652.496241	-12.120578
1653.407621	-12.093078
1654.320008	-12.069795
1655.233401	-12.045375
1656.147804	-12.022996
1657.063218	-12.000862
1657.979645	-11.978369
1658.897085	-11.958006
1659.815542	-11.935595
1660.735016	-11.916505
1661.655509	-11.895480
1662.577023	-11.877498
1663.499560	-11.859227
1664.423121	-11.842386
1665.347709	-11.827580
1666.273324	-11.812357
1667.199969	-11.800847
1668.127645	-11.788163
1669.056353	-11.779156
1669.986097	-11.769721
1670.916877	-11.762068
1671.848695	-11.755880
1672.781553	-11.749345
1673.715452	-11.745820
1674.650395	-11.740813
1675.586383	-11.738952
1676.523418	-11.736609
1677.461501	-11.735708
1678.400635	-11.736162
1679.340821	-11.736020
1680.282061	-11.738611
1681.224357	-11.739642
1682.167710	-11.743244
1683.112122	-11.746844
1684.057595	-11.751480
1685.004132	-11.758150
1685.951732	-11.764078
1686.900400	-11.772772
1687.850135	-11.780207
1688.800940	-11.789033
1689.752818	-11.798003
1690.705768	-11.806417
1691.659795	-11.816617
1692.614898	-11.825387
1693.571081	-11.836176
1694.528345	-11.846557
1695.486691	-11.857380
1696.446122	-11.869490
1697.406640	-11.880665
1698.368245	-11.893815
1699.330941	-11.906116
1700.294729	-11.919470
1701.259611	-11.933559
1702.225588	-11.947041
1703.192664	-11.962158
1704.160838	-11.976280
1705.130114	-11.991638
1706.100493	-12.007154
1707.071977	-12.022496
1708.044568	-12.039475
1709.018268	-12.055784
1709.993079	-12.073684
1710.969003	-12.091713
1711.946041	-12.109970
1712.924196	-12.129609
1713.903469	-12.148330
1714.883862	-12.168218
1715.865378	-12.187566
1716.848017	-12.206695
1717.831783	-12.226703
1718.816677	-12.245597
1719.802701	-12.265726
1720.789857	-12.285655
1721.778147	-12.305769
1722.767573	-12.327209
1723.758136	-12.347735
1724.749840	-12.369523
1725.742685	-12.390966
1726.736673	-12.411832
1727.731808	-12.433592
1728.728090	-12.453953
1729.725521	-12.475326
1730.724105	-12.496975
1731.723842	-12.518210
1732.724735	-12.541229
1733.726785	-12.563524
1734.729995	-12.586573
1735.734366	-12.610348
1736.739902	-12.633025
1737.746603	-12.657115
1738.754472	-12.680528
1739.763510	-12.703776
1740.773721	-12.728198
1741.785105	-12.751357
1742.797665	-12.775480
1743.811403	-12.799513
1744.826321	-12.822345
1745.842422	-12.846334
1746.859706	-12.869096
1747.878177	-12.891813
1748.897835	-12.915393
1749.918685	-12.937395
1750.940726	-12.960219
1751.963963	-12.982720
1752.988395	-13.003982
1754.014027	-13.026483
1755.040860	-13.047929
1756.068895	-13.069246
1757.098135	-13.091704
1758.128583	-13.112823
1759.160240	-13.134667
1760.193109	-13.156875
1761.227191	-13.177914
1762.262488	-13.200201
1763.299004	-13.222194
1764.336740	-13.243710
1765.375697	-13.266744
1766.415880	-13.289187
1767.457288	-13.311815
1768.499926	-13.335362
1769.543794	-13.357670
1770.588895	-13.380359
1771.635231	-13.403418
1772.682805	-13.425666
1773.731619	-13.449046
1774.781674	-13.472711
1775.832973	-13.496041
1776.885519	-13.520408
1777.939312	-13.544308
1778.994357	-13.567778
1780.050654	-13.591846
1781.108207	-13.615026
1782.167017	-13.637994
1783.227087	-13.661144
1784.288418	-13.683312
1785.351013	-13.705622
1786.414875	-13.728174
1787.480006	-13.750146
1788.546407	-13.772653
1789.614082	-13.795134
1790.683032	-13.816855
1791.753259	-13.838617
1792.824767	-13.859412
1793.897557	-13.878972
1794.971632	-13.898241
1796.046994	-13.916587
1797.123645	-13.934397
1798.201588	-13.952679
1799.280824	-13.970672
1800.361357	-13.988771
1801.443188	-14.007366
1802.526320	-14.025211
1803.610756	-14.042685
1804.696497	-14.060066
1805.783546	-14.076434
1806.871906	-14.092517
1807.961578	-14.108751
1809.052565	-14.124425
1810.144870	-14.140613
1811.238494	-14.157574
1812.333441	-14.174441
1813.429713	-14.191856
1814.527311	-14.209648
1815.626239	-14.226662
1816.726499	-14.243639
1817.828094	-14.260606
1818.931025	-14.276537
1820.035295	-14.292371
1821.140906	-14.308433
1822.247862	-14.323766
1823.356165	-14.339107
1824.465816	-14.354698
1825.576819	-14.369196
1826.689175	-14.382976
1827.802888	-14.396367
1828.917960	-14.408233
1830.034394	-14.419260
1831.152191	-14.430539
1832.271354	-14.441214
1833.391887	-14.451389
1834.513790	-14.461986
1835.637068	-14.471960
1836.761722	-14.480971
1837.887755	-14.490240
1839.015169	-14.499501
1840.143968	-14.508392
1841.274153	-14.517912
1842.405727	-14.527759
1843.538693	-14.536924
1844.673053	-14.545922
1845.808810	-14.554871
1846.945966	-14.562990
1848.084525	-14.570783
1849.224488	-14.578575
1850.365858	-14.585538
1851.508638	-14.591870
1852.652831	-14.598336
1853.798438	-14.604414
1854.945463	-14.609811
1856.093909	-14.615129
1857.243777	-14.619914
1858.395071	-14.623576
1859.547794	-14.626578
1860.701947	-14.629127
1861.857533	-14.630918
1863.014556	-14.632509
1864.173018	-14.634288
1865.332922	-14.635631
1866.494270	-14.636170
1867.657065	-14.635982
1868.821309	-14.634705
1869.987006	-14.632349
1871.154158	-14.629670
1872.322768	-14.626901
1873.492839	-14.623709
1874.664373	-14.620093
1875.837373	-14.616111
1877.011841	-14.611625
1878.187782	-14.606982
1879.365197	-14.602471
1880.544089	-14.597807
1881.724460	-14.592622
1882.906315	-14.587049
1884.089655	-14.581429
1885.274483	-14.576029
1886.460803	-14.571042
1887.648616	-14.566280
1888.837927	-14.561227
1890.028736	-14.555535
1891.221049	-14.549107
1892.414866	-14.542017
1893.610192	-14.534828
1894.807028	-14.528330
1896.005379	-14.522648
1897.205246	-14.517224
1898.406633	-14.511531
1899.609542	-14.505219
1900.813977	-14.498012
1902.019940	-14.490227
1903.227434	-14.482539
1904.436462	-14.475064
1905.647028	-14.467364
1906.859133	-14.459223
1908.072781	-14.450594
1909.287976	-14.441186
1910.504719	-14.430810
1911.723013	-14.419785
1912.942863	-14.408486
1914.164270	-14.396734
1915.387238	-14.384433
1916.611770	-14.371886
1917.837868	-14.359198
1919.065536	-14.346227
1920.294777	-14.333159
1921.525594	-14.320157
1922.757989	-14.306822
1923.991967	-14.292816
1925.227529	-14.278438
1926.464679	-14.264081
1927.703420	-14.249804
1928.943755	-14.235766
1930.185688	-14.222010
1931.429221	-14.208015
1932.674356	-14.193215
1933.921099	-14.177608
1935.169451	-14.161728
1936.419415	-14.146214
1937.670996	-14.131580
1938.924195	-14.117801
1940.179017	-14.104122
1941.435463	-14.089823
1942.693538	-14.075031
1943.953245	-14.060403
1945.214586	-14.046487
1946.477566	-14.033454
1947.742186	-14.021028
1949.008451	-14.008730
1950.276363	-13.996333
1951.545926	-13.983901
1952.817143	-13.971561
1954.090017	-13.959396
1955.364551	-13.947347
1956.640749	-13.935351
1957.918615	-13.923404
1959.198150	-13.911627
1960.479359	-13.899909
1961.762244	-13.887804
1963.046810	-13.874986
1964.333059	-13.861550
1965.620995	-13.847753
1966.910621	-13.833920
1968.201940	-13.820486
1969.494956	-13.807612
1970.789672	-13.794899
1972.086091	-13.781785
1973.384217	-13.767962
1974.684053	-13.753511
1975.985602	-13.738900
1977.288869	-13.724670
1978.593855	-13.710867
1979.900566	-13.696878
1981.209003	-13.682010
1982.519171	-13.666233
1983.831073	-13.650090
1985.144712	-13.634360
1986.460093	-13.619618
1987.777217	-13.605776
1989.096089	-13.592150
1990.416713	-13.578158
1991.739092	-13.563979
1993.063228	-13.550240
1994.389127	-13.537268
1995.716791	-13.524947
1997.046223	-13.513186
1998.377428	-13.501987
1999.710409	-13.491238
2001.045169	-13.480832
2002.381713	-13.470771
2003.720043	-13.460976
2005.060163	-13.451197
2006.402077	-13.441350
2007.745788	-13.431647
2009.091301	-13.422409
2010.438618	-13.413655
2011.787743	-13.404998
2013.138680	-13.396235
2014.491433	-13.387763
2015.846005	-13.380170
2017.202399	-13.373364
2018.560621	-13.366717
2019.920673	-13.359857
2021.282558	-13.352892
2022.646281	-13.345960
2024.011846	-13.338945
2025.379256	-13.331651
2026.748515	-13.324074
2028.119626	-13.316415
2029.492594	-13.308786
2030.867422	-13.301296
2032.244114	-13.294182
2033.622673	-13.287400
2035.003104	-13.280510
2036.385411	-13.273282
2037.769597	-13.265898
2039.155665	-13.258659
2040.543621	-13.251580
2041.933467	-13.244436
2043.325208	-13.237141
2044.718847	-13.229934
2046.114389	-13.223344
2047.511837	-13.217723
2048.911195	-13.212787
2050.312467	-13.207768
2051.715657	-13.202191
2053.120769	-13.196439
2054.527807	-13.191211
2055.936775	-13.186803
2057.347677	-13.183149
2058.760516	-13.180286
2060.175297	-13.178430
2061.592025	-13.177847
2063.010701	-13.178730
2064.431332	-13.180838
2065.853921	-13.183761
2067.278472	-13.187383
2068.704988	-13.191600
2070.133475	-13.196072
2071.563936	-13.200390
2072.996375	-13.204162
2074.430796	-13.206864
2075.867204	-13.207957
2077.305603	-13.206948
2078.745996	-13.203284
2080.188389	-13.196210
2081.632784	-13.185416
2083.079187	-13.171649
2084.527601	-13.156333
2085.978030	-13.140623
2087.430480	-13.124907
2088.884954	-13.109686
2090.341455	-13.096678
2091.799990	-13.088171
2093.260561	-13.085518
2094.723173	-13.088647
2096.187831	-13.096561
2097.654538	-13.108718
2099.123300	-13.125670
2100.594119	-13.147739
2102.067001	-13.173939
2103.541950	-13.202406
2105.018971	-13.231258
2106.498067	-13.259566
2107.979243	-13.287616
2109.462503	-13.315752
2110.947853	-13.343045
2112.435295	-13.367801
2113.924836	-13.389281
2115.416478	-13.408063
2116.910227	-13.424775
2118.406087	-13.439119
2119.904063	-13.449977
2121.404158	-13.457100
2122.906378	-13.461918
2124.410727	-13.465447
2125.917210	-13.467024
2127.425831	-13.465985
2128.936594	-13.463404
2130.449505	-13.461012
2131.964567	-13.459039
2133.481786	-13.456393
2135.001166	-13.453439
2136.522711	-13.452863
2138.046427	-13.456822
2139.572317	-13.464539
2141.100388	-13.474057
2142.630642	-13.485634
2144.163085	-13.501387
2145.697722	-13.522367
2147.234558	-13.547124
2148.773596	-13.573296
2150.314842	-13.600209
2151.858301	-13.628602
2153.403977	-13.658018
2154.951875	-13.686366
2156.502000	-13.711774
2158.054357	-13.734401
2159.608950	-13.755607
2161.165785	-13.774804
2162.724866	-13.790612
2164.286198	-13.803989
2165.849786	-13.816760
2167.415635	-13.828721
2168.983749	-13.839084
2170.554134	-13.849724
2172.126795	-13.864122
2173.701737	-13.883333
2175.278964	-13.905951
2176.858481	-13.931323
2178.440294	-13.960354
2180.024408	-13.993851
2181.610827	-14.030945
2183.199557	-14.069220
2184.790602	-14.106877
2186.383968	-14.144077
2187.979660	-14.181721
2189.577683	-14.219020
2191.178041	-14.254355
2192.780741	-14.287807
2194.385787	-14.320756
2195.993185	-14.354458
2197.602939	-14.389064
2199.215054	-14.423359
2200.829537	-14.456226
2202.446392	-14.488102
2204.065624	-14.520137
2205.687239	-14.552089
2207.311242	-14.582787
2208.937638	-14.612320
2210.566433	-14.641872
2212.197631	-14.671778
2213.831239	-14.701665
2215.467261	-14.731767
2217.105703	-14.762366
2218.746570	-14.793513
2220.389867	-14.825638
2222.035601	-14.859569
2223.683776	-14.896086
2225.334398	-14.935229
2226.987472	-14.975810
2228.643004	-15.017165
2230.300999	-15.060805
2231.961463	-15.107885
2233.624402	-15.156710
2235.289820	-15.205706
2236.957723	-15.256725
2238.628118	-15.310903
2240.301009	-15.365950
2241.976402	-15.420600
2243.654303	-15.476172
2245.334717	-15.533345
2247.017650	-15.590718
2248.703108	-15.647126
2250.391096	-15.703721
2252.081620	-15.761492
2253.774686	-15.819184
2255.470300	-15.875542
2257.168467	-15.931793
2258.869193	-15.988253
2260.572484	-16.042625
2262.278345	-16.095182
2263.986783	-16.149315
2265.697804	-16.205378
2267.411412	-16.260180
2269.127615	-16.312770
2270.846417	-16.365176
2272.567826	-16.418158
2274.291846	-16.470374
2276.018484	-16.521337
2277.747745	-16.573260
2279.479637	-16.627690
2281.214164	-16.683280
2282.951333	-16.739696
2284.691149	-16.798927
2286.433619	-16.860714
2288.178750	-16.923764
2289.926546	-16.989706
2291.677014	-17.058940
2293.430161	-17.129723
2295.185992	-17.202836
2296.944513	-17.280078
2298.705732	-17.359734
2300.469653	-17.437989
2302.236283	-17.515938
2304.005629	-17.598634
2305.777696	-17.684565
2307.552492	-17.768344
2309.330022	-17.850918
2311.110292	-17.936531
2312.893310	-18.023458
2314.679080	-18.107612
2316.467611	-18.190964
2318.258907	-18.275678
2320.052976	-18.359577
2321.849824	-18.441993
2323.649457	-18.524251
2325.451883	-18.606450
2327.257106	-18.687616
2329.065135	-18.767558
2330.875975	-18.846959
2332.689633	-18.924064
2334.506116	-18.998703
2336.325430	-19.075457
2338.147581	-19.153469
2339.972578	-19.226867
2341.800425	-19.299400
2343.631130	-19.378208
2345.464700	-19.459095
2347.301141	-19.539258
2349.140461	-19.623202
2350.982665	-19.713777
2352.827760	-19.808439
2354.675754	-19.905415
2356.526653	-20.005402
2358.380464	-20.107911
2360.237195	-20.213261
2362.096851	-20.323072
2363.959440	-20.435050
2365.824968	-20.545704
2367.693444	-20.658450
2369.564873	-20.774419
2371.439263	-20.889026
2373.316620	-21.002410
2375.196953	-21.121151
2377.080267	-21.242349
2378.966570	-21.356349
2380.855869	-21.469514
2382.748171	-21.586499
2384.643484	-21.699449
2386.541815	-21.810943
2388.443170	-21.924329
2390.347557	-22.033213
2392.254984	-22.141587
2394.165457	-22.248910
2396.078984	-22.348496
2397.995572	-22.448501
2399.915229	-22.551898
2401.837961	-22.648769
2403.763777	-22.741055
2405.692684	-22.836620
2407.624689	-22.934359
2409.559800	-23.027766
2411.498023	-23.123727
2413.439368	-23.234240
2415.383840	-23.347699
2417.331449	-23.458678
2419.282201	-23.580379
2421.236104	-23.712091
2423.193165	-23.848494
2425.153393	-23.988137
2427.116795	-24.131336
2429.083378	-24.275695
2431.053151	-24.417590
2433.026121	-24.563451
2435.002297	-24.714706
2436.981685	-24.867389
2438.964293	-25.017531
2440.950131	-25.163014
2442.939204	-25.316060
2444.931522	-25.469525
2446.927092	-25.615019
2448.925923	-25.767519
2450.928022	-25.914503
2452.933397	-26.049051
2454.942056	-26.189252
2456.954008	-26.332072
2458.969260	-26.461601
2460.987821	-26.582305
2463.009699	-26.704440
2465.034902	-26.819483
2467.063437	-26.926863
2469.095315	-27.032111
2471.130542	-27.135532
2473.169127	-27.238088
2475.211078	-27.335674
2477.256404	-27.439677
2479.305112	-27.555400
2481.357212	-27.677759
2483.412713	-27.811118
2485.471621	-27.951208
2487.533946	-28.094705
2489.599696	-28.262850
2491.668880	-28.442472
2493.741507	-28.613907
2495.817585	-28.791611
2497.897122	-28.980107
2499.980127	-29.165428
2502.066609	-29.350250
2504.156578	-29.545739
2506.250040	-29.734493
2508.347006	-29.916947
2510.447483	-30.110784
2512.551482	-30.308266
2514.659010	-30.506664
2516.770076	-30.691298
2518.884690	-30.861218
2521.002861	-31.043717
2523.124597	-31.227931
2525.249907	-31.384712
2527.378801	-31.527964
2529.511287	-31.672177
2531.647375	-31.810149
2533.787074	-31.933040
2535.930393	-32.026269
2538.077340	-32.109619
2540.227927	-32.195887
2542.382160	-32.280388
2544.540051	-32.366378
2546.701608	-32.448388
2548.866840	-32.533006
2551.035757	-32.652916
2553.208369	-32.810183
2555.384684	-32.963080
2557.564713	-33.094826
2559.748465	-33.276636
2561.935948	-33.512697
2564.127174	-33.735107
2566.322152	-33.930622
2568.520890	-34.144607
2570.723399	-34.365435
2572.929689	-34.605734
2575.139769	-34.861653
2577.353649	-35.084285
2579.571340	-35.318175
2581.792849	-35.613253
2584.018189	-35.902517
2586.247368	-36.148406
2588.480396	-36.383137
2590.717284	-36.656282
2592.958041	-36.943501
2595.202678	-37.171911
2597.451204	-37.346767
2599.703630	-37.545280
2601.959966	-37.739221
2604.220222	-37.878614
2606.484408	-37.950758
2608.752535	-37.973366
2611.024612	-38.015355
2613.300651	-38.044132
2615.580661	-38.037631
2617.864653	-38.031740
2620.152638	-38.052826
2622.444625	-38.139468
2624.740626	-38.176099
2627.040651	-38.259739
2629.344710	-38.427966
2631.652814	-38.569450
2633.964974	-38.748472
2636.281200	-38.919694
2638.601504	-39.124700
2640.925896	-39.363079
2643.254386	-39.541819
2645.586987	-39.767292
2647.923707	-40.056507
2650.264559	-40.326787
2652.609554	-40.611020
2654.958702	-40.989414
2657.312015	-41.426405
2659.669503	-41.765589
2662.031178	-42.186190
2664.397051	-42.579881
2666.767132	-43.113741
2669.141434	-43.553581
2671.519968	-43.848167
2673.902745	-44.419475
2676.289776	-44.813903
2678.681072	-44.951256
2681.076646	-45.205235
2683.476508	-45.304837
2685.880671	-45.251933
2688.289145	-45.107172
2690.701942	-44.967501
2693.119075	-44.853441
2695.540554	-44.764941
2697.966391	-44.521878
2700.396599	-44.631660
2702.831189	-44.529280
2705.270172	-44.464697
2707.713561	-44.671756
2710.161368	-44.625036
2712.613605	-44.600624
2715.070283	-44.755224
2717.531416	-44.755722
2719.997014	-44.845062
2722.467090	-44.934121
2724.941657	-45.029585
2727.420726	-45.338159
2729.904310	-45.526456
2732.392421	-45.780230
2734.885072	-46.272673
2737.382275	-46.518123
2739.884042	-46.956277
2742.390387	-47.594293
2744.901321	-48.047479
2747.416857	-48.805025
2749.937008	-49.717581
2752.461787	-50.419325
2754.991206	-51.278877
2757.525279	-52.389552
2760.064017	-53.080212
2762.607434	-53.506747
2765.155544	-53.978878
2767.708358	-53.976986
2770.265890	-53.782783
2772.828153	-53.636426
2775.395160	-53.498992
2777.966924	-53.261915
2780.543459	-53.237340
2783.124778	-53.101986
2785.710894	-53.000906
2788.301821	-52.772830
2790.897572	-52.683778
2793.498160	-52.205668
2796.103599	-51.891668
2798.713903	-51.592611
2801.329085	-51.310442
2803.949159	-51.000232
2806.574139	-51.215713
2809.204038	-50.896709
2811.838871	-50.947813
2814.478650	-50.989991
2817.123391	-51.026420
2819.773107	-51.199434
2822.427812	-51.502331
2825.087521	-51.806652
2827.752247	-52.480451
2830.422005	-53.010441
2833.096808	-53.945055
2835.776672	-54.775519
2838.461611	-55.740627
2841.151638	-56.787007
2843.846769	-57.780705
2846.547019	-58.718642
2849.252401	-59.282228
2851.962930	-59.608393
2854.678621	-60.556205
2857.399489	-60.805352
2860.125549	-61.708623
2862.856815	-62.348514
2865.593302	-63.652279
2868.335026	-65.319282
2871.082002	-66.412114
2873.834244	-67.011024
2876.591767	-66.176507
2879.354588	-64.521965
2882.122721	-63.657493
2884.896181	-62.235369
2887.674984	-61.382297
2890.459146	-60.579628
2893.248681	-59.430612
2896.043606	-58.754951
2898.843937	-58.107821
2901.649687	-57.563570
2904.460875	-57.395640
2907.277515	-57.484661
2910.099623	-57.544863
2912.927215	-58.121934
2915.760308	-58.388806
2918.598916	-59.260149
2921.443057	-60.077783
2924.292747	-60.757307
2927.148002	-61.739211
2930.008837	-62.772588
2932.875270	-62.999581
2935.747318	-63.268234
2938.624995	-63.235115
2941.508320	-63.731648
2944.397308	-63.226946
2947.291977	-63.469153
2950.192343	-64.025640
2953.098423	-64.585955
2956.010234	-65.706008
2958.927792	-66.898914
2961.851116	-68.140037
2964.780221	-69.935780
2967.715126	-70.356837
2970.655847	-74.683965
2973.602402	-76.765049
2976.554808	-77.135257
2979.513083	-75.695977
2982.477243	-73.703019
2985.447308	-69.143075
2988.423293	-68.456461
2991.405218	-66.700628
2994.393099	-66.122271
2997.386955	-66.520043
