# 2022-03-07_16.26.55
# shape = sech2
# FWHM_ps = 0.1
# carrier_nm = 1542
# frep_MHz = 12126
# pow_mW = 3000
# GDD = 0.0
# propa_len = 0.005
# untap_len = 0.0
# taper_len = 0.0
# waist_len = 0.0
# uptap_len = 0.0
# untap_scale = 1.1
# waist_scale = 0.0
# workingDir = SiN_Waveguide
# axis = slow
# window_ps = 10.0
# steps = 200
# points = 13000
# 
# wavelength [nm]	 power spectral density [dB]
750.010021	-31.865712
750.197703	-31.811895
750.385479	-31.756284
750.573348	-31.696917
750.761312	-31.634008
750.949370	-31.567780
751.137523	-31.498459
751.325769	-31.426272
751.514110	-31.351446
751.702545	-31.274208
751.891075	-31.194781
752.079700	-31.113385
752.268419	-31.030236
752.457233	-30.945542
752.646142	-30.859506
752.835145	-30.772324
753.024244	-30.684183
753.213437	-30.595264
753.402726	-30.505738
753.592110	-30.415769
753.781589	-30.325510
753.971163	-30.235109
754.160833	-30.144703
754.350598	-30.054422
754.540459	-29.964387
754.730415	-29.874712
754.920467	-29.785502
755.110615	-29.696856
755.300858	-29.608865
755.491198	-29.521613
755.681633	-29.435178
755.872164	-29.349631
756.062792	-29.265038
756.253515	-29.181459
756.444335	-29.098947
756.635252	-29.017554
756.826264	-28.937322
757.017373	-28.858293
757.208579	-28.780502
757.399881	-28.703981
757.591280	-28.628757
757.782776	-28.554856
757.974368	-28.482299
758.166058	-28.411103
758.357844	-28.341285
758.549728	-28.272856
758.741708	-28.205827
758.933786	-28.140206
759.125961	-28.075998
759.318233	-28.013206
759.510603	-27.951833
759.703071	-27.891879
759.895635	-27.833341
760.088298	-27.776216
760.281058	-27.720501
760.473916	-27.666190
760.666872	-27.613275
760.859926	-27.561749
761.053078	-27.511603
761.246328	-27.462828
761.439676	-27.415412
761.633122	-27.369346
761.826667	-27.324616
762.020310	-27.281212
762.214052	-27.239120
762.407892	-27.198327
762.601831	-27.158820
762.795868	-27.120584
762.990004	-27.083607
763.184239	-27.047873
763.378573	-27.013369
763.573006	-26.980080
763.767538	-26.947991
763.962169	-26.917089
764.156900	-26.887358
764.351729	-26.858785
764.546658	-26.831355
764.741687	-26.805054
764.936815	-26.779869
765.132042	-26.755785
765.327370	-26.732789
765.522797	-26.710867
765.718324	-26.690007
765.913950	-26.670195
766.109677	-26.651420
766.305504	-26.633668
766.501431	-26.616929
766.697458	-26.601190
766.893586	-26.586439
767.089814	-26.572667
767.286142	-26.559862
767.482571	-26.548015
767.679100	-26.537114
767.875730	-26.527150
768.072461	-26.518114
768.269293	-26.509998
768.466225	-26.502791
768.663259	-26.496486
768.860393	-26.491075
769.057629	-26.486550
769.254966	-26.482903
769.452404	-26.480127
769.649944	-26.478215
769.847585	-26.477160
770.045328	-26.476956
770.243172	-26.477596
770.441118	-26.479075
770.639166	-26.481386
770.837315	-26.484524
771.035567	-26.488483
771.233920	-26.493259
771.432376	-26.498845
771.630934	-26.505237
771.829594	-26.512430
772.028356	-26.520419
772.227220	-26.529199
772.426188	-26.538767
772.625257	-26.549117
772.824430	-26.560245
773.023705	-26.572147
773.223083	-26.584819
773.422563	-26.598257
773.622147	-26.612456
773.821834	-26.627413
774.021624	-26.643124
774.221517	-26.659584
774.421513	-26.676791
774.621613	-26.694741
774.821816	-26.713429
775.022122	-26.732854
775.222532	-26.753010
775.423046	-26.773895
775.623664	-26.795507
775.824385	-26.817840
776.025211	-26.840894
776.226140	-26.864665
776.427173	-26.889150
776.628311	-26.914347
776.829553	-26.940254
777.030899	-26.966869
777.232350	-26.994190
777.433905	-27.022214
777.635564	-27.050942
777.837328	-27.080372
778.039197	-27.110502
778.241171	-27.141333
778.443250	-27.172864
778.645433	-27.205095
778.847722	-27.238028
779.050116	-27.271661
779.252615	-27.305998
779.455219	-27.341038
779.657929	-27.376785
779.860744	-27.413240
780.063665	-27.450407
780.266691	-27.488288
780.469823	-27.526888
780.673061	-27.566209
780.876405	-27.606258
781.079855	-27.647038
781.283410	-27.688556
781.487072	-27.730816
781.690840	-27.773826
781.894715	-27.817593
782.098695	-27.862123
782.302783	-27.907425
782.506976	-27.953505
782.711277	-28.000374
782.915684	-28.048041
783.120198	-28.096513
783.324818	-28.145802
783.529546	-28.195917
783.734381	-28.246869
783.939322	-28.298669
784.144372	-28.351327
784.349528	-28.404856
784.554792	-28.459266
784.760163	-28.514570
784.965642	-28.570779
785.171228	-28.627906
785.376922	-28.685963
785.582724	-28.744962
785.788634	-28.804915
785.994651	-28.865835
786.200777	-28.927735
786.407011	-28.990624
786.613353	-29.054517
786.819804	-29.119424
787.026363	-29.185357
787.233030	-29.252327
787.439806	-29.320344
787.646691	-29.389419
787.853684	-29.459560
788.060786	-29.530778
788.267997	-29.603079
788.475317	-29.676473
788.682746	-29.750964
788.890285	-29.826559
789.097932	-29.903262
789.305689	-29.981077
789.513555	-30.060007
789.721531	-30.140051
789.929617	-30.221210
790.137812	-30.303482
790.346117	-30.386862
790.554531	-30.471346
790.763056	-30.556925
790.971691	-30.643591
791.180436	-30.731331
791.389291	-30.820132
791.598256	-30.909977
791.807332	-31.000846
792.016518	-31.092719
792.225815	-31.185570
792.435222	-31.279370
792.644740	-31.374088
792.854369	-31.469689
793.064109	-31.566134
793.273960	-31.663380
793.483922	-31.761380
793.693995	-31.860082
793.904180	-31.959431
794.114475	-32.059365
794.324882	-32.159818
794.535401	-32.260719
794.746031	-32.361991
794.956774	-32.463551
795.167627	-32.565311
795.378593	-32.667177
795.589671	-32.769048
795.800861	-32.870815
796.012162	-32.972367
796.223577	-33.073582
796.435103	-33.174333
796.646742	-33.274486
796.858493	-33.373902
797.070357	-33.472432
797.282334	-33.569925
797.494423	-33.666221
797.706626	-33.761153
797.918941	-33.854553
798.131369	-33.946243
798.343911	-34.036044
798.556566	-34.123772
798.769334	-34.209241
798.982215	-34.292262
799.195210	-34.372645
799.408319	-34.450199
799.621541	-34.524737
799.834877	-34.596072
800.048327	-34.664022
800.261890	-34.728409
800.475568	-34.789061
800.689360	-34.845816
800.903266	-34.898520
801.117287	-34.947030
801.331422	-34.991215
801.545671	-35.030956
801.760036	-35.066151
801.974514	-35.096711
802.189108	-35.122565
802.403816	-35.143657
802.618640	-35.159951
802.833578	-35.171427
803.048632	-35.178082
803.263800	-35.179934
803.479085	-35.177015
803.694484	-35.169375
803.909999	-35.157081
804.125630	-35.140214
804.341376	-35.118871
804.557239	-35.093160
804.773217	-35.063203
804.989311	-35.029130
805.205521	-34.991083
805.421847	-34.949211
805.638290	-34.903668
805.854849	-34.854615
806.071524	-34.802216
806.288316	-34.746638
806.505225	-34.688049
806.722250	-34.626618
806.939393	-34.562513
807.156652	-34.495899
807.374028	-34.426942
807.591521	-34.355801
807.809132	-34.282634
808.026859	-34.207595
808.244705	-34.130830
808.462667	-34.052485
808.680748	-33.972697
808.898946	-33.891598
809.117261	-33.809317
809.335695	-33.725974
809.554246	-33.641687
809.772916	-33.556565
809.991704	-33.470714
810.210610	-33.384233
810.429634	-33.297217
810.648777	-33.209755
810.868039	-33.121931
811.087419	-33.033825
811.306918	-32.945512
811.526535	-32.857063
811.746272	-32.768544
811.966127	-32.680018
812.186102	-32.591544
812.406196	-32.503177
812.626409	-32.414968
812.846742	-32.326967
813.067194	-32.239219
813.287766	-32.151767
813.508457	-32.064652
813.729269	-31.977911
813.950200	-31.891580
814.171251	-31.805692
814.392422	-31.720279
814.613714	-31.635370
814.835126	-31.550992
815.056658	-31.467172
815.278311	-31.383933
815.500084	-31.301299
815.721978	-31.219291
815.943993	-31.137930
816.166128	-31.057235
816.388385	-30.977223
816.610762	-30.897911
816.833261	-30.819316
817.055881	-30.741451
817.278623	-30.664332
817.501486	-30.587972
817.724471	-30.512382
817.947577	-30.437575
818.170805	-30.363561
818.394155	-30.290351
818.617627	-30.217955
818.841221	-30.146382
819.064937	-30.075640
819.288775	-30.005738
819.512736	-29.936682
819.736819	-29.868480
819.961025	-29.801139
820.185354	-29.734664
820.409805	-29.669062
820.634379	-29.604337
820.859076	-29.540494
821.083897	-29.477539
821.308840	-29.415475
821.533907	-29.354306
821.759097	-29.294035
821.984411	-29.234666
822.209848	-29.176202
822.435409	-29.118645
822.661093	-29.061998
822.886902	-29.006263
823.112834	-28.951441
823.338891	-28.897535
823.565072	-28.844545
823.791377	-28.792474
824.017807	-28.741321
824.244361	-28.691088
824.471039	-28.641776
824.697843	-28.593384
824.924771	-28.545914
825.151824	-28.499366
825.379002	-28.453739
825.606306	-28.409034
825.833734	-28.365250
826.061288	-28.322387
826.288967	-28.280445
826.516772	-28.239423
826.744703	-28.199321
826.972759	-28.160138
827.200941	-28.121874
827.429249	-28.084528
827.657683	-28.048099
827.886243	-28.012587
828.114930	-27.977990
828.343743	-27.944308
828.572682	-27.911541
828.801748	-27.879686
829.030941	-27.848744
829.260260	-27.818714
829.489706	-27.789595
829.719280	-27.761386
829.948980	-27.734087
830.178808	-27.707696
830.408763	-27.682213
830.638845	-27.657639
830.869055	-27.633971
831.099393	-27.611210
831.329858	-27.589355
831.560451	-27.568405
831.791173	-27.548362
832.022022	-27.529224
832.252999	-27.510990
832.484105	-27.493662
832.715339	-27.477239
832.946702	-27.461722
833.178193	-27.447109
833.409813	-27.433402
833.641561	-27.420602
833.873439	-27.408707
834.105445	-27.397720
834.337581	-27.387640
834.569846	-27.378469
834.802241	-27.370206
835.034764	-27.362854
835.267418	-27.356412
835.500201	-27.350883
835.733114	-27.346267
835.966157	-27.342565
836.199329	-27.339778
836.432632	-27.337909
836.666065	-27.336958
836.899629	-27.336928
837.133323	-27.337818
837.367147	-27.339632
837.601102	-27.342371
837.835188	-27.346037
838.069405	-27.350631
838.303752	-27.356155
838.538231	-27.362611
838.772841	-27.370000
839.007582	-27.378325
839.242455	-27.387587
839.477459	-27.397788
839.712595	-27.408929
839.947863	-27.421013
840.183263	-27.434040
840.418794	-27.448012
840.654458	-27.462931
840.890254	-27.478796
841.126182	-27.495611
841.362242	-27.513374
841.598435	-27.532087
841.834761	-27.551751
842.071220	-27.572365
842.307811	-27.593929
842.544536	-27.616443
842.781393	-27.639907
843.018384	-27.664318
843.255508	-27.689677
843.492765	-27.715980
843.730156	-27.743227
843.967681	-27.771414
844.205339	-27.800538
844.443132	-27.830596
844.681058	-27.861584
844.919118	-27.893497
845.157313	-27.926330
845.395642	-27.960078
845.634105	-27.994735
845.872703	-28.030293
846.111436	-28.066746
846.350303	-28.104085
846.589306	-28.142302
846.828443	-28.181386
847.067716	-28.221330
847.307124	-28.262121
847.546667	-28.303748
847.786345	-28.346199
848.026160	-28.389461
848.266110	-28.433521
848.506195	-28.478365
848.746417	-28.523977
848.986775	-28.570342
849.227269	-28.617443
849.467899	-28.665263
849.708666	-28.713783
849.949569	-28.762986
850.190609	-28.812851
850.431785	-28.863358
850.673099	-28.914486
850.914549	-28.966214
851.156137	-29.018517
851.397861	-29.071373
851.639723	-29.124758
851.881723	-29.178646
852.123860	-29.233011
852.366135	-29.287826
852.608547	-29.343064
852.851098	-29.398696
853.093786	-29.454692
853.336613	-29.511021
853.579578	-29.567652
853.822681	-29.624551
854.065923	-29.681687
854.309304	-29.739022
854.552823	-29.796522
854.796481	-29.854148
855.040278	-29.911863
855.284215	-29.969625
855.528290	-30.027395
855.772505	-30.085129
856.016859	-30.142782
856.261353	-30.200310
856.505987	-30.257663
856.750760	-30.314794
856.995673	-30.371652
857.240727	-30.428183
857.485920	-30.484334
857.731254	-30.540049
857.976729	-30.595269
858.222343	-30.649935
858.468099	-30.703985
858.713995	-30.757356
858.960032	-30.809983
859.206211	-30.861799
859.452530	-30.912737
859.698991	-30.962726
859.945593	-31.011694
860.192336	-31.059571
860.439222	-31.106282
860.686248	-31.151752
860.933417	-31.195907
861.180728	-31.238672
861.428181	-31.279970
861.675776	-31.319726
861.923514	-31.357864
862.171394	-31.394310
862.419417	-31.428991
862.667582	-31.461833
862.915890	-31.492768
863.164342	-31.521725
863.412936	-31.548640
863.661674	-31.573449
863.910555	-31.596092
864.159579	-31.616513
864.408747	-31.634660
864.658059	-31.650485
864.907515	-31.663945
865.157114	-31.675001
865.406858	-31.683621
865.656746	-31.689776
865.906778	-31.693444
866.156955	-31.694611
866.407277	-31.693266
866.657743	-31.689404
866.908354	-31.683030
867.159110	-31.674150
867.410011	-31.662781
867.661057	-31.648944
867.912249	-31.632665
868.163586	-31.613977
868.415069	-31.592921
868.666697	-31.569539
868.918472	-31.543882
869.170392	-31.516006
869.422458	-31.485969
869.674671	-31.453836
869.927030	-31.419675
870.179536	-31.383558
870.432188	-31.345562
870.684987	-31.305766
870.937933	-31.264250
871.191026	-31.221100
871.444266	-31.176402
871.697653	-31.130245
871.951188	-31.082717
872.204870	-31.033910
872.458700	-30.983915
872.712677	-30.932826
872.966803	-30.880733
873.221076	-30.827731
873.475498	-30.773912
873.730068	-30.719366
873.984787	-30.664187
874.239654	-30.608463
874.494669	-30.552284
874.749834	-30.495738
875.005147	-30.438911
875.260610	-30.381888
875.516222	-30.324752
875.771983	-30.267584
876.027894	-30.210463
876.283954	-30.153466
876.540164	-30.096668
876.796524	-30.040141
877.053033	-29.983955
877.309693	-29.928178
877.566503	-29.872873
877.823464	-29.818104
878.080575	-29.763931
878.337837	-29.710409
878.595249	-29.657593
878.852813	-29.605534
879.110528	-29.554281
879.368393	-29.503878
879.626410	-29.454369
879.884579	-29.405793
880.142899	-29.358186
880.401371	-29.311583
880.659994	-29.266014
880.918770	-29.221506
881.177698	-29.178084
881.436778	-29.135770
881.696010	-29.094583
881.955395	-29.054539
882.214933	-29.015649
882.474623	-28.977924
882.734467	-28.941370
882.994463	-28.905992
883.254613	-28.871790
883.514916	-28.838762
883.775372	-28.806905
884.035982	-28.776209
884.296746	-28.746665
884.557664	-28.718260
884.818735	-28.690979
885.079961	-28.664802
885.341341	-28.639709
885.602876	-28.615677
885.864565	-28.592680
886.126409	-28.570691
886.388407	-28.549679
886.650561	-28.529611
886.912870	-28.510455
887.175334	-28.492173
887.437953	-28.474728
887.700728	-28.458081
887.963658	-28.442189
888.226745	-28.427012
888.489987	-28.412506
888.753385	-28.398626
889.016940	-28.385327
889.280651	-28.372562
889.544518	-28.360286
889.808543	-28.348452
890.072723	-28.337012
890.337061	-28.325920
890.601556	-28.315130
890.866208	-28.304595
891.131017	-28.294270
891.395984	-28.284112
891.661109	-28.274076
891.926391	-28.264121
892.191831	-28.254206
892.457429	-28.244294
892.723186	-28.234346
892.989100	-28.224329
893.255173	-28.214210
893.521405	-28.203959
893.787796	-28.193549
894.054345	-28.182954
894.321053	-28.172154
894.587921	-28.161128
894.854948	-28.149860
895.122134	-28.138338
895.389480	-28.126551
895.656986	-28.114492
895.924651	-28.102157
896.192477	-28.089545
896.460463	-28.076659
896.728609	-28.063502
896.996915	-28.050084
897.265382	-28.036414
897.534010	-28.022506
897.802799	-28.008375
898.071749	-27.994041
898.340860	-27.979523
898.610132	-27.964844
898.879566	-27.950028
899.149162	-27.935102
899.418919	-27.920094
899.688838	-27.905032
899.958919	-27.889946
900.229162	-27.874867
900.499568	-27.859829
900.770136	-27.844861
901.040867	-27.829999
901.311761	-27.815273
901.582817	-27.800717
901.854037	-27.786364
902.125420	-27.772245
902.396966	-27.758391
902.668676	-27.744834
902.940550	-27.731603
903.212587	-27.718726
903.484788	-27.706232
903.757153	-27.694145
904.029683	-27.682491
904.302377	-27.671292
904.575236	-27.660569
904.848259	-27.650341
905.121447	-27.640627
905.394800	-27.631442
905.668319	-27.622798
905.942002	-27.614708
906.215852	-27.607180
906.489866	-27.600221
906.764047	-27.593837
907.038393	-27.588030
907.312906	-27.582800
907.587584	-27.578145
907.862429	-27.574061
908.137441	-27.570541
908.412619	-27.567577
908.687964	-27.565159
908.963476	-27.563273
909.239155	-27.561903
909.515002	-27.561034
909.791015	-27.560645
910.067197	-27.560716
910.343546	-27.561223
910.620063	-27.562143
910.896748	-27.563449
911.173601	-27.565112
911.450623	-27.567104
911.727813	-27.569394
912.005171	-27.571949
912.282699	-27.574737
912.560395	-27.577724
912.838261	-27.580875
913.116296	-27.584153
913.394500	-27.587524
913.672874	-27.590951
913.951418	-27.594397
914.230131	-27.597825
914.509015	-27.601199
914.788068	-27.604482
915.067292	-27.607640
915.346687	-27.610636
915.626252	-27.613438
915.905988	-27.616010
916.185895	-27.618323
916.465973	-27.620345
916.746223	-27.622047
917.026644	-27.623402
917.307236	-27.624384
917.588000	-27.624971
917.868937	-27.625141
918.150045	-27.624875
918.431325	-27.624158
918.712778	-27.622975
918.994404	-27.621315
919.276202	-27.619170
919.558173	-27.616534
919.840317	-27.613405
920.122634	-27.609783
920.405125	-27.605670
920.687789	-27.601074
920.970627	-27.596004
921.253639	-27.590470
921.536824	-27.584490
921.820184	-27.578079
922.103718	-27.571259
922.387427	-27.564054
922.671310	-27.556488
922.955368	-27.548591
923.239601	-27.540394
923.524009	-27.531929
923.808592	-27.523231
924.093351	-27.514339
924.378285	-27.505291
924.663396	-27.496127
924.948682	-27.486890
925.234144	-27.477624
925.519782	-27.468373
925.805597	-27.459182
926.091589	-27.450099
926.377757	-27.441170
926.664102	-27.432443
926.950624	-27.423966
927.237323	-27.415785
927.524200	-27.407950
927.811255	-27.400508
928.098487	-27.393505
928.385897	-27.386988
928.673485	-27.381003
928.961251	-27.375594
929.249196	-27.370806
929.537319	-27.366680
929.825621	-27.363257
930.114102	-27.360578
930.402762	-27.358679
930.691601	-27.357597
930.980620	-27.357366
931.269818	-27.358018
931.559196	-27.359582
931.848753	-27.362087
932.138491	-27.365557
932.428409	-27.370014
932.718508	-27.375478
933.008787	-27.381966
933.299246	-27.389491
933.589887	-27.398065
933.880709	-27.407695
934.171712	-27.418385
934.462896	-27.430136
934.754262	-27.442945
935.045810	-27.456806
935.337539	-27.471709
935.629451	-27.487638
935.921545	-27.504577
936.213822	-27.522502
936.506281	-27.541388
936.798922	-27.561202
937.091747	-27.581911
937.384755	-27.603473
937.677946	-27.625844
937.971321	-27.648975
938.264879	-27.672812
938.558621	-27.697296
938.852547	-27.722364
939.146657	-27.747946
939.440952	-27.773971
939.735431	-27.800358
940.030095	-27.827027
940.324943	-27.853888
940.619977	-27.880850
940.915196	-27.907817
941.210600	-27.934688
941.506189	-27.961359
941.801965	-27.987720
942.097926	-28.013662
942.394074	-28.039068
942.690407	-28.063822
942.986927	-28.087806
943.283634	-28.110898
943.580527	-28.132976
943.877608	-28.153920
944.174875	-28.173606
944.472330	-28.191916
944.769972	-28.208729
945.067802	-28.223930
945.365820	-28.237405
945.664026	-28.249045
945.962420	-28.258747
946.261002	-28.266412
946.559773	-28.271949
946.858733	-28.275272
947.157881	-28.276305
947.457219	-28.274979
947.756746	-28.271236
948.056462	-28.265027
948.356368	-28.256311
948.656464	-28.245061
948.956749	-28.231257
949.257225	-28.214894
949.557891	-28.195973
949.858748	-28.174511
950.159796	-28.150531
950.461034	-28.124069
950.762463	-28.095172
951.064084	-28.063893
951.365896	-28.030298
951.667900	-27.994458
951.970095	-27.956456
952.272483	-27.916378
952.575063	-27.874319
952.877835	-27.830378
953.180799	-27.784662
953.483956	-27.737279
953.787307	-27.688342
954.090850	-27.637966
954.394586	-27.586269
954.698516	-27.533368
955.002640	-27.479384
955.306957	-27.424437
955.611469	-27.368643
955.916174	-27.312123
956.221074	-27.254991
956.526169	-27.197362
956.831458	-27.139349
957.136942	-27.081061
957.442622	-27.022605
957.748496	-26.964084
958.054567	-26.905599
958.360833	-26.847247
958.667294	-26.789120
958.973952	-26.731309
959.280806	-26.673900
959.587857	-26.616974
959.895104	-26.560612
960.202548	-26.504887
960.510189	-26.449871
960.818027	-26.395631
961.126062	-26.342233
961.434295	-26.289736
961.742726	-26.238199
962.051355	-26.187674
962.360182	-26.138214
962.669207	-26.089866
962.978431	-26.042674
963.287854	-25.996682
963.597475	-25.951928
963.907296	-25.908449
964.217315	-25.866279
964.527535	-25.825450
964.837954	-25.785989
965.148573	-25.747925
965.459392	-25.711282
965.770411	-25.676082
966.081630	-25.642346
966.393051	-25.610091
966.704672	-25.579334
967.016494	-25.550089
967.328517	-25.522368
967.640742	-25.496182
967.953169	-25.471540
968.265797	-25.448448
968.578627	-25.426911
968.891660	-25.406933
969.204895	-25.388514
969.518332	-25.371655
969.831972	-25.356353
970.145816	-25.342604
970.459862	-25.330402
970.774112	-25.319740
971.088565	-25.310608
971.403223	-25.302994
971.718084	-25.296884
972.033149	-25.292264
972.348419	-25.289116
972.663893	-25.287419
972.979572	-25.287153
973.295456	-25.288292
973.611546	-25.290811
973.927840	-25.294681
974.244340	-25.299872
974.561046	-25.306349
974.877958	-25.314077
975.195076	-25.323017
975.512401	-25.333129
975.829932	-25.344368
976.147670	-25.356690
976.465615	-25.370044
976.783767	-25.384379
977.102126	-25.399641
977.420693	-25.415772
977.739468	-25.432714
978.058451	-25.450403
978.377642	-25.468774
978.697041	-25.487760
979.016649	-25.507289
979.336466	-25.527291
979.656492	-25.547688
979.976727	-25.568404
980.297171	-25.589360
980.617825	-25.610474
980.938689	-25.631663
981.259763	-25.652843
981.581048	-25.673928
981.902542	-25.694831
982.224248	-25.715465
982.546164	-25.735742
982.868291	-25.755576
983.190630	-25.774878
983.513180	-25.793563
983.835942	-25.811545
984.158916	-25.828741
984.482101	-25.845070
984.805500	-25.860453
985.129110	-25.874815
985.452934	-25.888082
985.776970	-25.900186
986.101220	-25.911064
986.425683	-25.920656
986.750359	-25.928907
987.075250	-25.935769
987.400354	-25.941199
987.725673	-25.945160
988.051206	-25.947622
988.376954	-25.948559
988.702916	-25.947956
989.029094	-25.945802
989.355487	-25.942092
989.682095	-25.936831
990.008919	-25.930028
990.335959	-25.921700
990.663216	-25.911871
990.990688	-25.900570
991.318377	-25.887832
991.646283	-25.873699
991.974406	-25.858217
992.302746	-25.841439
992.631304	-25.823421
992.960079	-25.804223
993.289072	-25.783910
993.618283	-25.762548
993.947713	-25.740209
994.277361	-25.716964
994.607227	-25.692889
994.937313	-25.668060
995.267618	-25.642552
995.598142	-25.616443
995.928886	-25.589812
996.259849	-25.562734
996.591033	-25.535285
996.922437	-25.507542
997.254061	-25.479578
997.585906	-25.451465
997.917972	-25.423273
998.250260	-25.395070
998.582768	-25.366921
998.915498	-25.338889
999.248450	-25.311034
999.581624	-25.283413
999.915020	-25.256078
1000.248639	-25.229081
1000.582480	-25.202469
1000.916545	-25.176285
1001.250832	-25.150568
1001.585343	-25.125357
1001.920077	-25.100683
1002.255035	-25.076576
1002.590218	-25.053062
1002.925624	-25.030162
1003.261255	-25.007897
1003.597111	-24.986281
1003.933192	-24.965325
1004.269497	-24.945038
1004.606029	-24.925425
1004.942785	-24.906488
1005.279768	-24.888225
1005.616977	-24.870630
1005.954412	-24.853697
1006.292074	-24.837414
1006.629962	-24.821767
1006.968077	-24.806740
1007.306420	-24.792312
1007.644990	-24.778462
1007.983787	-24.765165
1008.322813	-24.752392
1008.662067	-24.740115
1009.001549	-24.728301
1009.341259	-24.716915
1009.681199	-24.705922
1010.021367	-24.695283
1010.361765	-24.684957
1010.702392	-24.674902
1011.043250	-24.665076
1011.384337	-24.655431
1011.725654	-24.645923
1012.067202	-24.636503
1012.408980	-24.627122
1012.750989	-24.617730
1013.093230	-24.608276
1013.435702	-24.598709
1013.778405	-24.588978
1014.121341	-24.579029
1014.464508	-24.568810
1014.807908	-24.558268
1015.151540	-24.547352
1015.495405	-24.536008
1015.839503	-24.524184
1016.183835	-24.511831
1016.528400	-24.498896
1016.873198	-24.485330
1017.218231	-24.471085
1017.563498	-24.456114
1017.908999	-24.440371
1018.254735	-24.423811
1018.600707	-24.406393
1018.946913	-24.388074
1019.293354	-24.368818
1019.640032	-24.348587
1019.986945	-24.327347
1020.334094	-24.305068
1020.681480	-24.281719
1021.029102	-24.257274
1021.376961	-24.231711
1021.725058	-24.205008
1022.073391	-24.177147
1022.421962	-24.148115
1022.770772	-24.117899
1023.119819	-24.086492
1023.469104	-24.053889
1023.818628	-24.020087
1024.168391	-23.985089
1024.518393	-23.948899
1024.868634	-23.911525
1025.219115	-23.872979
1025.569836	-23.833275
1025.920796	-23.792432
1026.271997	-23.750470
1026.623438	-23.707413
1026.975121	-23.663290
1027.327044	-23.618129
1027.679208	-23.571964
1028.031614	-23.524831
1028.384262	-23.476768
1028.737152	-23.427816
1029.090284	-23.378018
1029.443659	-23.327421
1029.797276	-23.276072
1030.151137	-23.224021
1030.505240	-23.171321
1030.859587	-23.118024
1031.214178	-23.064187
1031.569013	-23.009866
1031.924093	-22.955120
1032.279417	-22.900007
1032.634985	-22.844590
1032.990799	-22.788928
1033.346858	-22.733086
1033.703162	-22.677126
1034.059712	-22.621111
1034.416509	-22.565107
1034.773551	-22.509178
1035.130841	-22.453388
1035.488377	-22.397803
1035.846160	-22.342488
1036.204190	-22.287508
1036.562468	-22.232928
1036.920994	-22.178812
1037.279768	-22.125225
1037.638790	-22.072231
1037.998061	-22.019894
1038.357581	-21.968276
1038.717350	-21.917441
1039.077368	-21.867449
1039.437636	-21.818362
1039.798154	-21.770241
1040.158922	-21.723146
1040.519940	-21.677134
1040.881209	-21.632265
1041.242729	-21.588596
1041.604501	-21.546184
1041.966524	-21.505083
1042.328798	-21.465349
1042.691325	-21.427035
1043.054103	-21.390195
1043.417135	-21.354880
1043.780419	-21.321143
1044.143956	-21.289032
1044.507746	-21.258597
1044.871791	-21.229888
1045.236088	-21.202951
1045.600641	-21.177833
1045.965447	-21.154581
1046.330508	-21.133239
1046.695824	-21.113851
1047.061395	-21.096462
1047.427222	-21.081113
1047.793304	-21.067847
1048.159642	-21.056704
1048.526237	-21.047725
1048.893088	-21.040950
1049.260196	-21.036417
1049.627561	-21.034164
1049.995183	-21.034230
1050.363063	-21.036649
1050.731201	-21.041460
1051.099597	-21.048696
1051.468251	-21.058392
1051.837164	-21.070583
1052.206336	-21.085301
1052.575767	-21.102579
1052.945458	-21.122448
1053.315409	-21.144940
1053.685619	-21.170085
1054.056090	-21.197912
1054.426821	-21.228449
1054.797814	-21.261725
1055.169067	-21.297766
1055.540582	-21.336598
1055.912359	-21.378246
1056.284398	-21.422734
1056.656698	-21.470083
1057.029262	-21.520316
1057.402088	-21.573451
1057.775177	-21.629508
1058.148530	-21.688503
1058.522146	-21.750451
1058.896027	-21.815365
1059.270171	-21.883255
1059.644580	-21.954130
1060.019254	-22.027996
1060.394193	-22.104855
1060.769397	-22.184708
1061.144867	-22.267550
1061.520602	-22.353374
1061.896604	-22.442168
1062.272872	-22.533916
1062.649407	-22.628596
1063.026210	-22.726181
1063.403279	-22.826637
1063.780616	-22.929923
1064.158221	-23.035992
1064.536094	-23.144787
1064.914235	-23.256242
1065.292645	-23.370282
1065.671325	-23.486820
1066.050273	-23.605757
1066.429491	-23.726982
1066.808979	-23.850368
1067.188738	-23.975775
1067.568766	-24.103043
1067.949066	-24.231996
1068.329636	-24.362439
1068.710478	-24.494155
1069.091592	-24.626906
1069.472977	-24.760430
1069.854635	-24.894441
1070.236565	-25.028628
1070.618768	-25.162652
1071.001243	-25.296150
1071.383993	-25.428729
1071.767016	-25.559972
1072.150313	-25.689434
1072.533884	-25.816646
1072.917730	-25.941117
1073.301850	-26.062334
1073.686246	-26.179770
1074.070917	-26.292884
1074.455864	-26.401129
1074.841087	-26.503958
1075.226586	-26.600829
1075.612362	-26.691216
1075.998415	-26.774613
1076.384745	-26.850547
1076.771353	-26.918582
1077.158238	-26.978331
1077.545401	-27.029461
1077.932843	-27.071701
1078.320564	-27.104850
1078.708564	-27.128774
1079.096842	-27.143415
1079.485401	-27.148792
1079.874240	-27.144994
1080.263358	-27.132182
1080.652757	-27.110582
1081.042438	-27.080481
1081.432399	-27.042218
1081.822641	-26.996178
1082.213166	-26.942782
1082.603972	-26.882477
1082.995061	-26.815732
1083.386433	-26.743026
1083.778087	-26.664842
1084.170025	-26.581661
1084.562246	-26.493954
1084.954751	-26.402177
1085.347541	-26.306769
1085.740615	-26.208148
1086.133973	-26.106707
1086.527617	-26.002812
1086.921546	-25.896805
1087.315761	-25.788998
1087.710262	-25.679676
1088.105050	-25.569100
1088.500124	-25.457500
1088.895485	-25.345084
1089.291134	-25.232036
1089.687070	-25.118517
1090.083294	-25.004665
1090.479806	-24.890602
1090.876607	-24.776430
1091.273696	-24.662235
1091.671075	-24.548087
1092.068744	-24.434047
1092.466702	-24.320158
1092.864950	-24.206459
1093.263489	-24.092974
1093.662319	-23.979725
1094.061440	-23.866724
1094.460852	-23.753978
1094.860555	-23.641492
1095.260551	-23.529264
1095.660840	-23.417293
1096.061421	-23.305576
1096.462295	-23.194108
1096.863462	-23.082886
1097.264923	-22.971904
1097.666678	-22.861162
1098.068727	-22.750658
1098.471071	-22.640393
1098.873710	-22.530372
1099.276644	-22.420601
1099.679874	-22.311090
1100.083400	-22.201850
1100.487222	-22.092899
1100.891340	-21.984255
1101.295756	-21.875940
1101.700468	-21.767981
1102.105478	-21.660406
1102.510787	-21.553246
1102.916393	-21.446538
1103.322298	-21.340317
1103.728502	-21.234624
1104.135005	-21.129500
1104.541807	-21.024990
1104.948909	-20.921139
1105.356312	-20.817992
1105.764015	-20.715599
1106.172019	-20.614007
1106.580324	-20.513265
1106.988931	-20.413420
1107.397840	-20.314522
1107.807051	-20.216616
1108.216564	-20.119750
1108.626380	-20.023969
1109.036500	-19.929315
1109.446923	-19.835831
1109.857649	-19.743556
1110.268680	-19.652527
1110.680016	-19.562778
1111.091657	-19.474342
1111.503602	-19.387247
1111.915854	-19.301520
1112.328411	-19.217183
1112.741275	-19.134258
1113.154445	-19.052759
1113.567922	-18.972702
1113.981706	-18.894098
1114.395798	-18.816953
1114.810198	-18.741272
1115.224906	-18.667058
1115.639923	-18.594311
1116.055249	-18.523026
1116.470884	-18.453200
1116.886829	-18.384824
1117.303084	-18.317892
1117.719650	-18.252392
1118.136526	-18.188313
1118.553713	-18.125644
1118.971212	-18.064374
1119.389022	-18.004489
1119.807145	-17.945979
1120.225580	-17.888833
1120.644328	-17.833042
1121.063389	-17.778597
1121.482763	-17.725494
1121.902452	-17.673728
1122.322454	-17.623298
1122.742771	-17.574207
1123.163404	-17.526461
1123.584351	-17.480068
1124.005614	-17.435040
1124.427193	-17.391396
1124.849089	-17.349157
1125.271301	-17.308347
1125.693830	-17.268998
1126.116677	-17.231142
1126.539842	-17.194821
1126.963324	-17.160076
1127.387126	-17.126956
1127.811246	-17.095514
1128.235685	-17.065805
1128.660444	-17.037891
1129.085522	-17.011834
1129.510922	-16.987704
1129.936641	-16.965571
1130.362682	-16.945508
1130.789044	-16.927592
1131.215728	-16.911901
1131.642734	-16.898516
1132.070063	-16.887519
1132.497714	-16.878992
1132.925689	-16.873019
1133.353987	-16.869684
1133.782610	-16.869071
1134.211556	-16.871262
1134.640827	-16.876340
1135.070424	-16.884385
1135.500345	-16.895477
1135.930593	-16.909693
1136.361166	-16.927107
1136.792067	-16.947790
1137.223294	-16.971810
1137.654848	-16.999233
1138.086730	-17.030117
1138.518940	-17.064518
1138.951479	-17.102488
1139.384346	-17.144072
1139.817543	-17.189309
1140.251069	-17.238233
1140.684925	-17.290871
1141.119111	-17.347243
1141.553628	-17.407360
1141.988475	-17.471229
1142.423655	-17.538844
1142.859166	-17.610192
1143.295009	-17.685250
1143.731185	-17.763987
1144.167694	-17.846358
1144.604536	-17.932309
1145.041711	-18.021773
1145.479221	-18.114671
1145.917065	-18.210911
1146.355245	-18.310387
1146.793759	-18.412978
1147.232609	-18.518548
1147.671795	-18.626948
1148.111317	-18.738010
1148.551177	-18.851550
1148.991373	-18.967368
1149.431907	-19.085247
1149.872779	-19.204953
1150.313989	-19.326234
1150.755538	-19.448821
1151.197426	-19.572431
1151.639653	-19.696762
1152.082220	-19.821502
1152.525128	-19.946322
1152.968376	-20.070884
1153.411966	-20.194840
1153.855897	-20.317835
1154.300169	-20.439510
1154.744784	-20.559506
1155.189742	-20.677465
1155.635042	-20.793037
1156.080687	-20.905881
1156.526674	-21.015670
1156.973007	-21.122095
1157.419683	-21.224871
1157.866705	-21.323735
1158.314072	-21.418457
1158.761786	-21.508836
1159.209845	-21.594708
1159.658251	-21.675944
1160.107004	-21.752453
1160.556104	-21.824181
1161.005553	-21.891112
1161.455349	-21.953268
1161.905494	-22.010704
1162.355989	-22.063508
1162.806832	-22.111797
1163.258026	-22.155715
1163.709570	-22.195427
1164.161464	-22.231117
1164.613710	-22.262983
1165.066307	-22.291235
1165.519256	-22.316088
1165.972558	-22.337761
1166.426212	-22.356473
1166.880219	-22.372438
1167.334580	-22.385868
1167.789295	-22.396963
1168.244364	-22.405917
1168.699788	-22.412911
1169.155567	-22.418116
1169.611702	-22.421689
1170.068193	-22.423778
1170.525041	-22.424516
1170.982245	-22.424028
1171.439807	-22.422425
1171.897726	-22.419811
1172.356004	-22.416281
1172.814640	-22.411923
1173.273635	-22.406819
1173.732989	-22.401047
1174.192703	-22.394684
1174.652778	-22.387802
1175.113213	-22.380477
1175.574009	-22.372784
1176.035167	-22.364801
1176.496687	-22.356609
1176.958569	-22.348295
1177.420814	-22.339948
1177.883422	-22.331666
1178.346394	-22.323551
1178.809730	-22.315712
1179.273430	-22.308262
1179.737496	-22.301323
1180.201927	-22.295019
1180.666723	-22.289482
1181.131886	-22.284845
1181.597416	-22.281246
1182.063312	-22.278824
1182.529576	-22.277719
1182.996209	-22.278072
1183.463209	-22.280020
1183.930579	-22.283698
1184.398317	-22.289234
1184.866426	-22.296753
1185.334904	-22.306367
1185.803754	-22.318180
1186.272974	-22.332283
1186.742566	-22.348752
1187.212529	-22.367648
1187.682865	-22.389009
1188.153574	-22.412854
1188.624656	-22.439177
1189.096112	-22.467946
1189.567942	-22.499098
1190.040147	-22.532535
1190.512726	-22.568127
1190.985681	-22.605702
1191.459012	-22.645047
1191.932720	-22.685901
1192.406804	-22.727956
1192.881265	-22.770854
1193.356104	-22.814179
1193.831322	-22.857460
1194.306918	-22.900171
1194.782893	-22.941726
1195.259248	-22.981483
1195.735982	-23.018745
1196.213097	-23.052767
1196.690593	-23.082759
1197.168471	-23.107899
1197.646730	-23.127340
1198.125371	-23.140227
1198.604395	-23.145710
1199.083803	-23.142967
1199.563594	-23.131219
1200.043769	-23.109754
1200.524329	-23.077946
1201.005273	-23.035273
1201.486604	-22.981339
1201.968320	-22.915881
1202.450422	-22.838783
1202.932912	-22.750083
1203.415789	-22.649965
1203.899054	-22.538760
1204.382707	-22.416934
1204.866748	-22.285073
1205.351179	-22.143865
1205.836000	-21.994082
1206.321211	-21.836561
1206.806812	-21.672178
1207.292805	-21.501836
1207.779189	-21.326442
1208.265965	-21.146895
1208.753134	-20.964071
1209.240696	-20.778811
1209.728651	-20.591918
1210.217000	-20.404147
1210.705744	-20.216200
1211.194883	-20.028728
1211.684417	-19.842331
1212.174347	-19.657551
1212.664673	-19.474885
1213.155396	-19.294777
1213.646516	-19.117625
1214.138034	-18.943787
1214.629951	-18.773577
1215.122266	-18.607276
1215.614980	-18.445129
1216.108095	-18.287352
1216.601609	-18.134132
1217.095524	-17.985632
1217.589841	-17.841993
1218.084559	-17.703336
1218.579679	-17.569766
1219.075202	-17.441370
1219.571128	-17.318222
1220.067458	-17.200387
1220.564191	-17.087914
1221.061330	-16.980848
1221.558874	-16.879224
1222.056823	-16.783069
1222.555178	-16.692408
1223.053940	-16.607256
1223.553109	-16.527628
1224.052686	-16.453533
1224.552671	-16.384979
1225.053065	-16.321970
1225.553867	-16.264511
1226.055079	-16.212601
1226.556702	-16.166243
1227.058735	-16.125436
1227.561179	-16.090180
1228.064035	-16.060476
1228.567303	-16.036323
1229.070983	-16.017723
1229.575077	-16.004676
1230.079585	-15.997185
1230.584506	-15.995253
1231.089842	-15.998884
1231.595594	-16.008085
1232.101761	-16.022862
1232.608345	-16.043224
1233.115345	-16.069182
1233.622762	-16.100748
1234.130597	-16.137937
1234.638851	-16.180763
1235.147523	-16.229245
1235.656615	-16.283403
1236.166126	-16.343259
1236.676058	-16.408838
1237.186411	-16.480166
1237.697185	-16.557273
1238.208381	-16.640189
1238.719999	-16.728948
1239.232040	-16.823585
1239.744505	-16.924141
1240.257394	-17.030654
1240.770708	-17.143168
1241.284446	-17.261728
1241.798610	-17.386381
1242.313201	-17.517178
1242.828218	-17.654170
1243.343662	-17.797410
1243.859534	-17.946953
1244.375834	-18.102856
1244.892563	-18.265175
1245.409721	-18.433969
1245.927309	-18.609295
1246.445327	-18.791210
1246.963777	-18.979770
1247.482657	-19.175028
1248.001970	-19.377034
1248.521716	-19.585832
1249.041894	-19.801460
1249.562506	-20.023947
1250.083553	-20.253309
1250.605034	-20.489551
1251.126950	-20.732657
1251.649302	-20.982589
1252.172091	-21.239283
1252.695316	-21.502641
1253.218979	-21.772523
1253.743079	-22.048741
1254.267619	-22.331046
1254.792597	-22.619120
1255.318015	-22.912559
1255.843874	-23.210859
1256.370173	-23.513399
1256.896913	-23.819420
1257.424095	-24.128005
1257.951720	-24.438056
1258.479787	-24.748273
1259.008298	-25.057130
1259.537254	-25.362858
1260.066654	-25.663432
1260.596499	-25.956571
1261.126790	-26.239747
1261.657527	-26.510213
1262.188711	-26.765061
1262.720342	-27.001293
1263.252422	-27.215931
1263.784950	-27.406140
1264.317928	-27.569370
1264.851355	-27.703500
1265.385232	-27.806973
1265.919560	-27.878892
1266.454340	-27.919082
1266.989572	-27.928093
1267.525256	-27.907154
1268.061394	-27.858075
1268.597985	-27.783124
1269.135031	-27.684884
1269.672531	-27.566106
1270.210487	-27.429583
1270.748899	-27.278040
1271.287768	-27.114049
1271.827094	-26.939977
1272.366877	-26.757950
1272.907119	-26.569837
1273.447820	-26.377255
1273.988981	-26.181577
1274.530601	-25.983950
1275.072683	-25.785319
1275.615226	-25.586445
1276.158230	-25.387936
1276.701697	-25.190261
1277.245627	-24.993777
1277.790021	-24.798742
1278.334879	-24.605337
1278.880202	-24.413678
1279.425991	-24.223827
1279.972245	-24.035806
1280.518966	-23.849606
1281.066155	-23.665191
1281.613811	-23.482512
1282.161936	-23.301507
1282.710529	-23.122106
1283.259593	-22.944238
1283.809126	-22.767834
1284.359131	-22.592825
1284.909607	-22.419150
1285.460555	-22.246753
1286.011976	-22.075588
1286.563870	-21.905615
1287.116237	-21.736806
1287.669080	-21.569141
1288.222397	-21.402611
1288.776191	-21.237214
1289.330460	-21.072960
1289.885207	-20.909866
1290.440431	-20.747956
1290.996133	-20.587263
1291.552314	-20.427825
1292.108975	-20.269689
1292.666115	-20.112904
1293.223737	-19.957525
1293.781839	-19.803609
1294.340424	-19.651219
1294.899491	-19.500417
1295.459041	-19.351269
1296.019075	-19.203841
1296.579593	-19.058200
1297.140597	-18.914412
1297.702086	-18.772543
1298.264061	-18.632659
1298.826524	-18.494822
1299.389474	-18.359097
1299.952912	-18.225542
1300.516839	-18.094217
1301.081255	-17.965178
1301.646162	-17.838477
1302.211559	-17.714168
1302.777448	-17.592298
1303.343829	-17.472913
1303.910702	-17.356057
1304.478069	-17.241772
1305.045930	-17.130095
1305.614285	-17.021062
1306.183136	-16.914708
1306.752483	-16.811062
1307.322326	-16.710153
1307.892666	-16.612009
1308.463504	-16.516654
1309.034841	-16.424109
1309.606677	-16.334397
1310.179012	-16.247535
1310.751849	-16.163540
1311.325186	-16.082429
1311.899025	-16.004216
1312.473366	-15.928914
1313.048211	-15.856534
1313.623559	-15.787087
1314.199412	-15.720584
1314.775770	-15.657032
1315.352634	-15.596440
1315.930004	-15.538816
1316.507881	-15.484166
1317.086266	-15.432497
1317.665159	-15.383815
1318.244562	-15.338125
1318.824474	-15.295434
1319.404897	-15.255747
1319.985831	-15.219068
1320.567276	-15.185403
1321.149234	-15.154758
1321.731706	-15.127137
1322.314691	-15.102547
1322.898190	-15.080992
1323.482205	-15.062478
1324.066736	-15.047013
1324.651783	-15.034601
1325.237347	-15.025249
1325.823430	-15.018964
1326.410031	-15.015754
1326.997151	-15.015626
1327.584791	-15.018588
1328.172952	-15.024647
1328.761634	-15.033812
1329.350839	-15.046092
1329.940566	-15.061495
1330.530817	-15.080031
1331.121592	-15.101709
1331.712891	-15.126539
1332.304716	-15.154529
1332.897068	-15.185689
1333.489946	-15.220028
1334.083352	-15.257556
1334.677287	-15.298282
1335.271750	-15.342214
1335.866744	-15.389360
1336.462268	-15.439728
1337.058323	-15.493325
1337.654910	-15.550156
1338.252029	-15.610227
1338.849682	-15.673540
1339.447869	-15.740097
1340.046591	-15.809898
1340.645848	-15.882942
1341.245641	-15.959223
1341.845972	-16.038735
1342.446840	-16.121466
1343.048246	-16.207403
1343.650191	-16.296527
1344.252677	-16.388816
1344.855702	-16.484241
1345.459269	-16.582769
1346.063379	-16.684360
1346.668030	-16.788964
1347.273226	-16.896527
1347.878965	-17.006983
1348.485250	-17.120257
1349.092080	-17.236263
1349.699456	-17.354900
1350.307380	-17.476055
1350.915851	-17.599602
1351.524871	-17.725394
1352.134441	-17.853267
1352.744560	-17.983040
1353.355231	-18.114505
1353.966453	-18.247435
1354.578227	-18.381576
1355.190555	-18.516644
1355.803436	-18.652331
1356.416872	-18.788296
1357.030863	-18.924164
1357.645411	-19.059530
1358.260515	-19.193954
1358.876177	-19.326961
1359.492397	-19.458043
1360.109176	-19.586658
1360.726516	-19.712232
1361.344416	-19.834167
1361.962877	-19.951838
1362.581901	-20.064600
1363.201487	-20.171799
1363.821637	-20.272774
1364.442352	-20.366869
1365.063632	-20.453444
1365.685478	-20.531883
1366.307891	-20.601610
1366.930871	-20.662095
1367.554420	-20.712872
1368.178538	-20.753545
1368.803226	-20.783799
1369.428485	-20.803407
1370.054315	-20.812238
1370.680717	-20.810257
1371.307693	-20.797528
1371.935242	-20.774211
1372.563366	-20.740555
1373.192065	-20.696896
1373.821341	-20.643642
1374.451193	-20.581270
1375.081623	-20.510306
1375.712632	-20.431320
1376.344221	-20.344913
1376.976389	-20.251704
1377.609139	-20.152320
1378.242470	-20.047386
1378.876384	-19.937521
1379.510881	-19.823324
1380.145963	-19.705374
1380.781629	-19.584224
1381.417881	-19.460396
1382.054720	-19.334380
1382.692147	-19.206634
1383.330161	-19.077581
1383.968765	-18.947611
1384.607959	-18.817081
1385.247743	-18.686315
1385.888119	-18.555609
1386.529087	-18.425227
1387.170648	-18.295407
1387.812804	-18.166362
1388.455554	-18.038281
1389.098899	-17.911331
1389.742842	-17.785659
1390.387381	-17.661394
1391.032519	-17.538649
1391.678256	-17.417520
1392.324592	-17.298092
1392.971529	-17.180434
1393.619068	-17.064608
1394.267208	-16.950664
1394.915952	-16.838644
1395.565300	-16.728581
1396.215253	-16.620502
1396.865812	-16.514429
1397.516977	-16.410376
1398.168749	-16.308356
1398.821130	-16.208374
1399.474120	-16.110435
1400.127719	-16.014539
1400.781930	-15.920684
1401.436752	-15.828867
1402.092186	-15.739081
1402.748234	-15.651320
1403.404897	-15.565577
1404.062174	-15.481842
1404.720067	-15.400107
1405.378577	-15.320362
1406.037705	-15.242599
1406.697451	-15.166809
1407.357817	-15.092983
1408.018803	-15.021114
1408.680410	-14.951195
1409.342639	-14.883219
1410.005492	-14.817182
1410.668968	-14.753081
1411.333068	-14.690912
1411.997795	-14.630675
1412.663147	-14.572371
1413.329127	-14.516003
1413.995736	-14.461573
1414.662973	-14.409090
1415.330840	-14.358560
1415.999339	-14.309995
1416.668469	-14.263405
1417.338232	-14.218808
1418.008628	-14.176218
1418.679659	-14.135656
1419.351325	-14.097144
1420.023628	-14.060706
1420.696568	-14.026369
1421.370145	-13.994162
1422.044362	-13.964119
1422.719219	-13.936273
1423.394717	-13.910662
1424.070856	-13.887328
1424.747638	-13.866312
1425.425064	-13.847662
1426.103134	-13.831425
1426.781850	-13.817652
1427.461212	-13.806399
1428.141221	-13.797722
1428.821878	-13.791679
1429.503185	-13.788334
1430.185141	-13.787750
1430.867749	-13.789994
1431.551008	-13.795135
1432.234920	-13.803245
1432.919486	-13.814397
1433.604707	-13.828666
1434.290583	-13.846131
1434.977116	-13.866870
1435.664307	-13.890964
1436.352156	-13.918495
1437.040664	-13.949548
1437.729833	-13.984206
1438.419663	-14.022555
1439.110156	-14.064681
1439.801312	-14.110672
1440.493132	-14.160614
1441.185617	-14.214595
1441.878768	-14.272700
1442.572586	-14.335015
1443.267072	-14.401627
1443.962228	-14.472618
1444.658053	-14.548071
1445.354549	-14.628065
1446.051717	-14.712677
1446.749558	-14.801982
1447.448073	-14.896047
1448.147263	-14.994939
1448.847128	-15.098716
1449.547671	-15.207429
1450.248891	-15.321124
1450.950789	-15.439835
1451.653368	-15.563584
1452.356627	-15.692383
1453.060568	-15.826226
1453.765192	-15.965090
1454.470500	-16.108931
1455.176492	-16.257681
1455.883170	-16.411242
1456.590534	-16.569485
1457.298586	-16.732240
1458.007327	-16.899294
1458.716758	-17.070381
1459.426880	-17.245179
1460.137693	-17.423296
1460.849199	-17.604263
1461.561398	-17.787528
1462.274293	-17.972438
1462.987883	-18.158239
1463.702170	-18.344058
1464.417155	-18.528900
1465.132838	-18.711640
1465.849222	-18.891020
1466.566306	-19.065655
1467.284093	-19.234034
1468.002582	-19.394544
1468.721775	-19.545491
1469.441674	-19.685136
1470.162278	-19.811741
1470.883590	-19.923623
1471.605609	-20.019221
1472.328338	-20.097157
1473.051777	-20.156306
1473.775928	-20.195857
1474.500790	-20.215357
1475.226367	-20.214747
1475.952657	-20.194369
1476.679663	-20.154959
1477.407386	-20.097615
1478.135826	-20.023750
1478.864985	-19.935030
1479.594863	-19.833312
1480.325463	-19.720573
1481.056784	-19.598847
1481.788828	-19.470173
1482.521597	-19.336546
1483.255090	-19.199881
1483.989309	-19.061987
1484.724256	-18.924552
1485.459931	-18.789129
1486.196336	-18.657142
1486.933471	-18.529876
1487.671337	-18.408492
1488.409937	-18.294027
1489.149270	-18.187403
1489.889337	-18.089436
1490.630141	-18.000841
1491.371682	-17.922239
1492.113961	-17.854159
1492.856979	-17.797041
1493.600738	-17.751239
1494.345238	-17.717013
1495.090481	-17.694527
1495.836467	-17.683842
1496.583198	-17.684901
1497.330675	-17.697514
1498.078899	-17.721343
1498.827872	-17.755878
1499.577593	-17.800408
1500.328065	-17.854000
1501.079289	-17.915468
1501.831265	-17.983341
1502.583995	-18.055848
1503.337480	-18.130898
1504.091721	-18.206087
1504.846719	-18.278716
1505.602475	-18.345848
1506.358991	-18.404395
1507.116268	-18.451250
1507.874306	-18.483448
1508.633108	-18.498367
1509.392673	-18.493934
1510.153004	-18.468826
1510.914101	-18.422627
1511.675965	-18.355927
1512.438599	-18.270341
1513.202002	-18.168449
1513.966176	-18.053666
1514.731122	-17.930062
1515.496842	-17.802170
1516.263336	-17.674786
1517.030607	-17.552806
1517.798654	-17.441091
1518.567479	-17.344370
1519.337083	-17.267184
1520.107468	-17.213851
1520.878634	-17.188456
1521.650584	-17.194839
1522.423317	-17.236589
1523.196836	-17.317007
1523.971141	-17.439039
1524.746233	-17.605138
1525.522115	-17.817036
1526.298786	-18.075366
1527.076249	-18.379069
1527.854504	-18.724518
1528.633553	-19.104266
1529.413397	-19.505452
1530.194037	-19.908071
1530.975474	-20.283826
1531.757709	-20.596968
1532.540745	-20.808885
1533.324581	-20.887073
1534.109220	-20.815778
1534.894662	-20.602374
1535.680909	-20.275006
1536.467961	-19.873193
1537.255821	-19.437366
1538.044489	-19.001954
1538.833967	-18.592814
1539.624256	-18.227530
1540.415357	-17.916873
1541.207271	-17.666403
1542.000000	-17.477767
1542.793545	-17.349615
1543.587907	-17.278182
1544.383087	-17.257638
1545.179088	-17.280313
1545.975909	-17.336912
1546.773552	-17.416807
1547.572019	-17.508523
1548.371311	-17.600450
1549.171428	-17.681795
1549.972373	-17.743638
1550.774147	-17.779888
1551.576751	-17.787900
1552.380185	-17.768563
1553.184453	-17.725835
1553.989554	-17.665886
1554.795490	-17.596072
1555.602263	-17.523986
1556.409873	-17.456730
1557.218322	-17.400453
1558.027612	-17.360135
1558.837743	-17.339539
1559.648717	-17.341282
1560.460536	-17.366949
1561.273200	-17.417222
1562.086710	-17.492004
1562.901069	-17.590516
1563.716278	-17.711364
1564.532337	-17.852588
1565.349249	-18.011681
1566.167014	-18.185600
1566.985634	-18.370760
1567.805111	-18.563040
1568.625444	-18.757799
1569.446637	-18.949935
1570.268690	-19.133978
1571.091605	-19.304262
1571.915382	-19.455159
1572.740024	-19.581374
1573.565532	-19.678284
1574.391907	-19.742273
1575.219150	-19.771015
1576.047262	-19.763643
1576.876246	-19.720785
1577.706103	-19.644442
1578.536833	-19.537754
1579.368439	-19.404673
1580.200922	-19.249625
1581.034282	-19.077188
1581.868522	-18.891836
1582.703643	-18.697744
1583.539646	-18.498673
1584.376532	-18.297913
1585.214304	-18.098266
1586.052962	-17.902072
1586.892508	-17.711245
1587.732943	-17.527320
1588.574269	-17.351509
1589.416487	-17.184747
1590.259599	-17.027739
1591.103605	-16.880999
1591.948508	-16.744889
1592.794309	-16.619644
1593.641009	-16.505399
1594.488609	-16.402212
1595.337112	-16.310075
1596.186518	-16.228935
1597.036829	-16.158699
1597.888047	-16.099246
1598.740172	-16.050434
1599.593207	-16.012106
1600.447153	-15.984096
1601.302010	-15.966229
1602.157782	-15.958330
1603.014469	-15.960221
1603.872072	-15.971728
1604.730593	-15.992678
1605.590034	-16.022906
1606.450397	-16.062251
1607.311681	-16.110561
1608.173890	-16.167692
1609.037024	-16.233508
1609.901085	-16.307883
1610.766075	-16.390700
1611.631995	-16.481854
1612.498846	-16.581249
1613.366630	-16.688797
1614.235349	-16.804424
1615.105004	-16.928060
1615.975596	-17.059649
1616.847128	-17.199137
1617.719600	-17.346478
1618.593014	-17.501629
1619.467372	-17.664549
1620.342675	-17.835193
1621.218924	-18.013511
1622.096122	-18.199442
1622.974270	-18.392906
1623.853369	-18.593801
1624.733420	-18.801993
1625.614427	-19.017302
1626.496389	-19.239494
1627.379308	-19.468264
1628.263187	-19.703219
1629.148026	-19.943858
1630.033828	-20.189546
1630.920593	-20.439490
1631.808324	-20.692707
1632.697022	-20.947991
1633.586688	-21.203880
1634.477324	-21.458623
1635.368932	-21.710145
1636.261514	-21.956031
1637.155070	-22.193514
1638.049602	-22.419484
1638.945113	-22.630535
1639.841603	-22.823035
1640.739075	-22.993252
1641.637529	-23.137506
1642.536968	-23.252373
1643.437393	-23.334893
1644.338806	-23.382787
1645.241209	-23.394635
1646.144602	-23.369990
1647.048988	-23.309421
1647.954368	-23.214459
1648.860744	-23.087468
1649.768118	-22.931464
1650.676491	-22.749895
1651.585865	-22.546433
1652.496241	-22.324775
1653.407621	-22.088496
1654.320008	-21.840932
1655.233401	-21.585109
1656.147804	-21.323710
1657.063218	-21.059060
1657.979645	-20.793143
1658.897085	-20.527624
1659.815542	-20.263877
1660.735016	-20.003022
1661.655509	-19.745956
1662.577023	-19.493389
1663.499560	-19.245868
1664.423121	-19.003808
1665.347709	-18.767511
1666.273324	-18.537188
1667.199969	-18.312975
1668.127645	-18.094947
1669.056353	-17.883130
1669.986097	-17.677511
1670.916877	-17.478045
1671.848695	-17.284664
1672.781553	-17.097281
1673.715452	-16.915794
1674.650395	-16.740091
1675.586383	-16.570053
1676.523418	-16.405554
1677.461501	-16.246467
1678.400635	-16.092663
1679.340821	-15.944012
1680.282061	-15.800386
1681.224357	-15.661657
1682.167710	-15.527701
1683.112122	-15.398397
1684.057595	-15.273624
1685.004132	-15.153266
1685.951732	-15.037213
1686.900400	-14.925354
1687.850135	-14.817585
1688.800940	-14.713805
1689.752818	-14.613914
1690.705768	-14.517820
1691.659795	-14.425431
1692.614898	-14.336660
1693.571081	-14.251423
1694.528345	-14.169639
1695.486691	-14.091230
1696.446122	-14.016121
1697.406640	-13.944241
1698.368245	-13.875520
1699.330941	-13.809892
1700.294729	-13.747292
1701.259611	-13.687660
1702.225588	-13.630934
1703.192664	-13.577059
1704.160838	-13.525979
1705.130114	-13.477641
1706.100493	-13.431992
1707.071977	-13.388984
1708.044568	-13.348568
1709.018268	-13.310697
1709.993079	-13.275327
1710.969003	-13.242414
1711.946041	-13.211916
1712.924196	-13.183790
1713.903469	-13.157998
1714.883862	-13.134500
1715.865378	-13.113258
1716.848017	-13.094236
1717.831783	-13.077397
1718.816677	-13.062707
1719.802701	-13.050132
1720.789857	-13.039637
1721.778147	-13.031190
1722.767573	-13.024760
1723.758136	-13.020315
1724.749840	-13.017824
1725.742685	-13.017258
1726.736673	-13.018587
1727.731808	-13.021782
1728.728090	-13.026816
1729.725521	-13.033660
1730.724105	-13.042288
1731.723842	-13.052673
1732.724735	-13.064788
1733.726785	-13.078609
1734.729995	-13.094111
1735.734366	-13.111268
1736.739902	-13.130058
1737.746603	-13.150455
1738.754472	-13.172438
1739.763510	-13.195983
1740.773721	-13.221070
1741.785105	-13.247675
1742.797665	-13.275779
1743.811403	-13.305360
1744.826321	-13.336398
1745.842422	-13.368875
1746.859706	-13.402771
1747.878177	-13.438068
1748.897835	-13.474748
1749.918685	-13.512793
1750.940726	-13.552188
1751.963963	-13.592915
1752.988395	-13.634960
1754.014027	-13.678307
1755.040860	-13.722942
1756.068895	-13.768852
1757.098135	-13.816024
1758.128583	-13.864444
1759.160240	-13.914103
1760.193109	-13.964987
1761.227191	-14.017088
1762.262488	-14.070395
1763.299004	-14.124900
1764.336740	-14.180595
1765.375697	-14.237471
1766.415880	-14.295522
1767.457288	-14.354742
1768.499926	-14.415127
1769.543794	-14.476670
1770.588895	-14.539369
1771.635231	-14.603221
1772.682805	-14.668224
1773.731619	-14.734375
1774.781674	-14.801675
1775.832973	-14.870124
1776.885519	-14.939722
1777.939312	-15.010472
1778.994357	-15.082376
1780.050654	-15.155437
1781.108207	-15.229660
1782.167017	-15.305050
1783.227087	-15.381612
1784.288418	-15.459353
1785.351013	-15.538282
1786.414875	-15.618405
1787.480006	-15.699733
1788.546407	-15.782275
1789.614082	-15.866042
1790.683032	-15.951047
1791.753259	-16.037301
1792.824767	-16.124818
1793.897557	-16.213612
1794.971632	-16.303699
1796.046994	-16.395095
1797.123645	-16.487816
1798.201588	-16.581881
1799.280824	-16.677308
1800.361357	-16.774118
1801.443188	-16.872330
1802.526320	-16.971967
1803.610756	-17.073052
1804.696497	-17.175608
1805.783546	-17.279659
1806.871906	-17.385232
1807.961578	-17.492354
1809.052565	-17.601052
1810.144870	-17.711357
1811.238494	-17.823297
1812.333441	-17.936906
1813.429713	-18.052215
1814.527311	-18.169260
1815.626239	-18.288075
1816.726499	-18.408698
1817.828094	-18.531168
1818.931025	-18.655524
1820.035295	-18.781809
1821.140906	-18.910065
1822.247862	-19.040339
1823.356165	-19.172676
1824.465816	-19.307127
1825.576819	-19.443743
1826.689175	-19.582575
1827.802888	-19.723682
1828.917960	-19.867119
1830.034394	-20.012948
1831.152191	-20.161231
1832.271354	-20.312035
1833.391887	-20.465429
1834.513790	-20.621484
1835.637068	-20.780277
1836.761722	-20.941884
1837.887755	-21.106391
1839.015169	-21.273882
1840.143968	-21.444450
1841.274153	-21.618188
1842.405727	-21.795198
1843.538693	-21.975584
1844.673053	-22.159458
1845.808810	-22.346936
1846.945966	-22.538140
1848.084525	-22.733200
1849.224488	-22.932253
1850.365858	-23.135442
1851.508638	-23.342922
1852.652831	-23.554853
1853.798438	-23.771407
1854.945463	-23.992765
1856.093909	-24.219119
1857.243777	-24.450676
1858.395071	-24.687653
1859.547794	-24.930283
1860.701947	-25.178814
1861.857533	-25.433510
1863.014556	-25.694656
1864.173018	-25.962554
1865.332922	-26.237530
1866.494270	-26.519934
1867.657065	-26.810142
1868.821309	-27.108557
1869.987006	-27.415616
1871.154158	-27.731790
1872.322768	-28.057586
1873.492839	-28.393555
1874.664373	-28.740292
1875.837373	-29.098440
1877.011841	-29.468699
1878.187782	-29.851823
1879.365197	-30.248632
1880.544089	-30.660008
1881.724460	-31.086903
1882.906315	-31.530338
1884.089655	-31.991397
1885.274483	-32.471222
1886.460803	-32.970995
1887.648616	-33.491903
1888.837927	-34.035089
1890.028736	-34.601559
1891.221049	-35.192043
1892.414866	-35.806772
1893.610192	-36.445136
1894.807028	-37.105162
1896.005379	-37.782738
1897.205246	-38.470520
1898.406633	-39.156473
1899.609542	-39.822189
1900.813977	-40.441446
1902.019940	-40.980125
1903.227434	-41.399129
1904.436462	-41.661587
1905.647028	-41.743121
1906.859133	-41.640398
1908.072781	-41.372398
1909.287976	-40.973503
1910.504719	-40.483101
1911.723013	-39.937217
1912.942863	-39.364431
1914.164270	-38.785282
1915.387238	-38.213463
1916.611770	-37.657504
1917.837868	-37.122319
1919.065536	-36.610407
1920.294777	-36.122711
1921.525594	-35.659204
1922.757989	-35.219275
1923.991967	-34.801984
1925.227529	-34.406222
1926.464679	-34.030814
1927.703420	-33.674576
1928.943755	-33.336358
1930.185688	-33.015064
1931.429221	-32.709660
1932.674356	-32.419180
1933.921099	-32.142728
1935.169451	-31.879474
1936.419415	-31.628651
1937.670996	-31.389553
1938.924195	-31.161526
1940.179017	-30.943970
1941.435463	-30.736330
1942.693538	-30.538095
1943.953245	-30.348791
1945.214586	-30.167982
1946.477566	-29.995264
1947.742186	-29.830261
1949.008451	-29.672627
1950.276363	-29.522040
1951.545926	-29.378199
1952.817143	-29.240827
1954.090017	-29.109663
1955.364551	-28.984466
1956.640749	-28.865011
1957.918615	-28.751087
1959.198150	-28.642497
1960.479359	-28.539058
1961.762244	-28.440596
1963.046810	-28.346952
1964.333059	-28.257973
1965.620995	-28.173519
1966.910621	-28.093457
1968.201940	-28.017662
1969.494956	-27.946017
1970.789672	-27.878413
1972.086091	-27.814748
1973.384217	-27.754923
1974.684053	-27.698850
1975.985602	-27.646443
1977.288869	-27.597623
1978.593855	-27.552314
1979.900566	-27.510448
1981.209003	-27.471959
1982.519171	-27.436786
1983.831073	-27.404872
1985.144712	-27.376164
1986.460093	-27.350613
1987.777217	-27.328173
1989.096089	-27.308802
1990.416713	-27.292461
1991.739092	-27.279114
1993.063228	-27.268729
1994.389127	-27.261277
1995.716791	-27.256730
1997.046223	-27.255065
1998.377428	-27.256260
1999.710409	-27.260298
2001.045169	-27.267163
2002.381713	-27.276842
2003.720043	-27.289325
2005.060163	-27.304604
2006.402077	-27.322674
2007.745788	-27.343532
2009.091301	-27.367180
2010.438618	-27.393619
2011.787743	-27.422855
2013.138680	-27.454897
2014.491433	-27.489755
2015.846005	-27.527443
2017.202399	-27.567978
2018.560621	-27.611380
2019.920673	-27.657670
2021.282558	-27.706875
2022.646281	-27.759024
2024.011846	-27.814149
2025.379256	-27.872286
2026.748515	-27.933474
2028.119626	-27.997758
2029.492594	-28.065184
2030.867422	-28.135804
2032.244114	-28.209675
2033.622673	-28.286856
2035.003104	-28.367414
2036.385411	-28.451420
2037.769597	-28.538950
2039.155665	-28.630087
2040.543621	-28.724919
2041.933467	-28.823541
2043.325208	-28.926055
2044.718847	-29.032573
2046.114389	-29.143211
2047.511837	-29.258096
2048.911195	-29.377365
2050.312467	-29.501163
2051.715657	-29.629647
2053.120769	-29.762985
2054.527807	-29.901358
2055.936775	-30.044961
2057.347677	-30.194001
2058.760516	-30.348704
2060.175297	-30.509312
2061.592025	-30.676085
2063.010701	-30.849305
2064.431332	-31.029276
2065.853921	-31.216326
2067.278472	-31.410809
2068.704988	-31.613112
2070.133475	-31.823653
2071.563936	-32.042884
2072.996375	-32.271300
2074.430796	-32.509440
2075.867204	-32.757891
2077.305603	-33.017298
2078.745996	-33.288365
2080.188389	-33.571865
2081.632784	-33.868649
2083.079187	-34.179654
2084.527601	-34.505912
2085.978030	-34.848564
2087.430480	-35.208869
2088.884954	-35.588218
2090.341455	-35.988148
2091.799990	-36.410349
2093.260561	-36.856675
2094.723173	-37.329140
2096.187831	-37.829901
2097.654538	-38.361216
2099.123300	-38.925348
2100.594119	-39.524386
2102.067001	-40.159917
2103.541950	-40.832448
2105.018971	-41.540414
2106.498067	-42.278509
2107.979243	-43.035032
2109.462503	-43.787984
2110.947853	-44.500273
2112.435295	-45.116151
2113.924836	-45.564172
2115.416478	-45.773340
2116.910227	-45.701193
2118.406087	-45.355771
2119.904063	-44.791179
2121.404158	-44.081178
2122.906378	-43.293539
2124.410727	-42.478333
2125.917210	-41.667666
2127.425831	-40.880005
2128.936594	-40.124813
2130.449505	-39.406079
2131.964567	-38.724641
2133.481786	-38.079612
2135.001166	-37.469238
2136.522711	-36.891378
2138.046427	-36.343784
2139.572317	-35.824248
2141.100388	-35.330677
2142.630642	-34.861130
2144.163085	-34.413828
2145.697722	-33.987150
2147.234558	-33.579628
2148.773596	-33.189933
2150.314842	-32.816865
2151.858301	-32.459335
2153.403977	-32.116361
2154.951875	-31.787050
2156.502000	-31.470592
2158.054357	-31.166251
2159.608950	-30.873353
2161.165785	-30.591285
2162.724866	-30.319483
2164.286198	-30.057431
2165.849786	-29.804652
2167.415635	-29.560707
2168.983749	-29.325188
2170.554134	-29.097717
2172.126795	-28.877941
2173.701737	-28.665530
2175.278964	-28.460175
2176.858481	-28.261582
2178.440294	-28.069474
2180.024408	-27.883589
2181.610827	-27.703674
2183.199557	-27.529486
2184.790602	-27.360790
2186.383968	-27.197358
2187.979660	-27.038967
2189.577683	-26.885394
2191.178041	-26.736422
2192.780741	-26.591832
2194.385787	-26.451404
2195.993185	-26.314916
2197.602939	-26.182144
2199.215054	-26.046488
