# 2022-03-04_11.05.06
# shape = sech2
# FWHM_ps = 0.5
# carrier_nm = 1542
# frep_MHz = 100
# pow_mW = 100
# GDD = 0.0
# propa_len = 0.005
# untap_len = 0.0
# taper_len = 0.0
# waist_len = 0.0
# uptap_len = 0.0
# untap_scale = 1.2
# waist_scale = 0.0
# workingDir = SiN_Waveguide
# axis = slow
# window_ps = 10.0
# steps = 200
# points = 13000
# 
# wavelength [nm]	 power spectral density [dB]
750.010021	-233.891622
750.197703	-233.878005
750.385479	-233.771166
750.573348	-233.947814
750.761312	-233.731138
750.949370	-233.953202
751.137523	-233.734868
751.325769	-233.905110
751.514110	-233.751458
751.702545	-233.886206
751.891075	-233.707826
752.079700	-233.927572
752.268419	-233.623620
752.457233	-234.007147
752.646142	-233.505949
752.835145	-234.095974
753.024244	-233.411839
753.213437	-234.169396
753.402726	-233.367429
753.592110	-234.199305
753.781589	-233.316910
753.971163	-234.231575
754.160833	-233.273005
754.350598	-234.262398
754.540459	-233.214228
754.730415	-234.292269
754.920467	-233.192733
755.110615	-234.271591
755.300858	-233.195024
755.491198	-234.221429
755.681633	-233.248190
755.872164	-234.184232
756.062792	-233.237623
756.253515	-234.193782
756.444335	-233.178528
756.635252	-234.254717
756.826264	-233.105636
757.017373	-234.349512
757.208579	-232.996170
757.399881	-234.427466
757.591280	-232.926477
757.782776	-234.478404
757.974368	-232.880549
758.166058	-234.459878
758.357844	-232.906213
758.549728	-234.385567
758.741708	-232.966436
758.933786	-234.270838
759.125961	-233.063115
759.318233	-234.125873
759.510603	-233.152520
759.703071	-234.044774
759.895635	-233.182726
760.088298	-233.978670
760.281058	-233.160268
760.473916	-233.989705
760.666872	-233.130569
760.859926	-234.037288
761.053078	-233.039723
761.246328	-234.084289
761.439676	-232.907876
761.633122	-234.201415
761.826667	-232.825107
762.020310	-234.335631
762.214052	-232.747916
762.407892	-234.334750
762.601831	-232.729444
762.795868	-234.370154
762.990004	-232.694790
763.184239	-234.312187
763.378573	-232.797185
763.573006	-234.196952
763.767538	-232.871392
763.962169	-234.066922
764.156900	-232.989693
764.351729	-233.895543
764.546658	-233.074058
764.741687	-233.782099
764.936815	-233.193817
765.132042	-233.623355
765.327370	-233.258531
765.522797	-233.529069
765.718324	-233.290760
765.913950	-233.477009
766.109677	-233.288643
766.305504	-233.469087
766.501431	-233.240096
766.697458	-233.483456
766.893586	-233.146285
767.089814	-233.552277
767.286142	-233.030965
767.482571	-233.657546
767.679100	-232.893403
767.875730	-233.762343
768.072461	-232.758442
768.269293	-233.906793
768.466225	-232.618669
768.663259	-234.034418
768.860393	-232.505102
769.057629	-234.154461
769.254966	-232.398538
769.452404	-234.265029
769.649944	-232.321357
769.847585	-234.347744
770.045328	-232.269429
770.243172	-234.383041
770.441118	-232.238715
770.639166	-234.423071
770.837315	-232.228201
771.035567	-234.399040
771.233920	-232.228963
771.432376	-234.358700
771.630934	-232.266035
771.829594	-234.280087
772.028356	-232.300337
772.227220	-234.201696
772.426188	-232.344777
772.625257	-234.095777
772.824430	-232.416201
773.023705	-233.994435
773.223083	-232.479575
773.422563	-233.887184
773.622147	-232.545695
773.821834	-233.785574
774.021624	-232.613998
774.221517	-233.679109
774.421513	-232.676075
774.621613	-233.581806
774.821816	-232.736337
775.022122	-233.502682
775.222532	-232.784385
775.423046	-233.414782
775.623664	-232.832045
775.824385	-233.349774
776.025211	-232.877260
776.226140	-233.282860
776.427173	-232.912176
776.628311	-233.218241
776.829553	-232.940199
777.030899	-233.175940
777.232350	-232.966835
777.433905	-233.135305
777.635564	-232.975784
777.837328	-233.097223
778.039197	-232.997299
778.241171	-233.059548
778.443250	-232.994522
778.645433	-233.031435
778.847722	-233.005791
779.050116	-233.008288
779.252615	-233.000954
779.455219	-232.983738
779.657929	-232.995352
779.860744	-232.966781
780.063665	-232.979771
780.266691	-232.953622
780.469823	-232.979066
780.673061	-232.934394
780.876405	-232.964233
781.079855	-232.933513
781.283410	-232.949920
781.487072	-232.923745
781.690840	-232.934944
781.894715	-232.901363
782.098695	-232.925949
782.302783	-232.894171
782.506976	-232.918377
782.711277	-232.875180
782.915684	-232.901496
783.120198	-232.869839
783.324818	-232.881193
783.529546	-232.856754
783.734381	-232.873912
783.939322	-232.843146
784.144372	-232.856137
784.349528	-232.830009
784.554792	-232.845459
784.760163	-232.823487
784.965642	-232.825177
785.171228	-232.814782
785.376922	-232.813147
785.582724	-232.804232
785.788634	-232.799357
785.994651	-232.798075
786.200777	-232.790607
786.407011	-232.772487
786.613353	-232.776572
786.819804	-232.762586
787.026363	-232.749515
787.233030	-232.756902
787.439806	-232.743910
787.646691	-232.737897
787.853684	-232.731394
788.060786	-232.726754
788.267997	-232.717617
788.475317	-232.716809
788.682746	-232.704931
788.890285	-232.701744
789.097932	-232.687002
789.305689	-232.681107
789.513555	-232.682187
789.721531	-232.679364
789.929617	-232.667438
790.137812	-232.667876
790.346117	-232.649686
790.554531	-232.654041
790.763056	-232.648887
790.971691	-232.640634
791.180436	-232.633822
791.389291	-232.618898
791.598256	-232.619625
791.807332	-232.609541
792.016518	-232.617263
792.225815	-232.590553
792.435222	-232.597650
792.644740	-232.566866
792.854369	-232.588217
793.064109	-232.561555
793.273960	-232.579185
793.483922	-232.546744
793.693995	-232.558248
793.904180	-232.543665
794.114475	-232.533022
794.324882	-232.523820
794.535401	-232.532242
794.746031	-232.514324
794.956774	-232.510963
795.167627	-232.502892
795.378593	-232.490731
795.589671	-232.500050
795.800861	-232.472175
796.012162	-232.499329
796.223577	-232.445980
796.435103	-232.503070
796.646742	-232.434368
796.858493	-232.468327
797.070357	-232.428905
797.282334	-232.463562
797.494423	-232.409685
797.706626	-232.448520
797.918941	-232.401699
798.131369	-232.428424
798.343911	-232.412288
798.556566	-232.385793
798.769334	-232.414926
798.982215	-232.358790
799.195210	-232.416782
799.408319	-232.334181
799.621541	-232.414605
799.834877	-232.305153
800.048327	-232.412854
800.261890	-232.282696
800.475568	-232.405594
800.689360	-232.276044
800.903266	-232.378666
801.117287	-232.266727
801.331422	-232.351321
801.545671	-232.278707
801.760036	-232.308482
801.974514	-232.307240
802.189108	-232.249200
802.403816	-232.328458
802.618640	-232.211664
802.833578	-232.329498
803.048632	-232.172556
803.263800	-232.329261
803.479085	-232.158520
803.694484	-232.320471
803.909999	-232.143277
804.125630	-232.296973
804.341376	-232.155123
804.557239	-232.263179
804.773217	-232.163980
804.989311	-232.212932
805.205521	-232.192934
805.421847	-232.166766
805.638290	-232.206066
805.854849	-232.117583
806.071524	-232.215651
806.288316	-232.096716
806.505225	-232.217125
806.722250	-232.078430
806.939393	-232.197417
807.156652	-232.078432
807.374028	-232.169107
807.591521	-232.081889
807.809132	-232.129553
808.026859	-232.089435
808.244705	-232.103635
808.462667	-232.085540
808.680748	-232.074050
808.898946	-232.080014
809.117261	-232.055767
809.335695	-232.059801
809.554246	-232.061198
809.772916	-232.024912
809.991704	-232.062036
810.210610	-232.008196
810.429634	-232.059210
810.648777	-231.977062
810.868039	-232.047040
811.087419	-231.967225
811.306918	-232.033161
811.526535	-231.962127
811.746272	-232.001373
811.966127	-231.969357
812.186102	-231.964873
812.406196	-231.978499
812.626409	-231.928725
812.846742	-231.981110
813.067194	-231.891621
813.287766	-231.986889
813.508457	-231.877286
813.729269	-231.972681
813.950200	-231.856123
814.171251	-231.960194
814.392422	-231.841604
814.613714	-231.951582
814.835126	-231.829693
815.056658	-231.937341
815.278311	-231.810296
815.500084	-231.916730
815.721978	-231.804943
815.943993	-231.894141
816.166128	-231.805652
816.388385	-231.859304
816.610762	-231.817825
816.833261	-231.820025
817.055881	-231.831618
817.278623	-231.776392
817.501486	-231.845002
817.724471	-231.735159
817.947577	-231.845269
818.170805	-231.724429
818.394155	-231.828434
818.617627	-231.718086
818.841221	-231.801720
819.064937	-231.711951
819.288775	-231.782791
819.512736	-231.696673
819.736819	-231.759981
819.961025	-231.683565
820.185354	-231.752120
820.409805	-231.664680
820.634379	-231.743282
820.859076	-231.647919
821.083897	-231.730984
821.308840	-231.625149
821.533907	-231.723166
821.759097	-231.606059
821.984411	-231.713788
822.209848	-231.601635
822.435409	-231.684639
822.661093	-231.593251
822.886902	-231.663031
823.112834	-231.595160
823.338891	-231.626282
823.565072	-231.601986
823.791377	-231.594631
824.017807	-231.602128
824.244361	-231.556136
824.471039	-231.603339
824.697843	-231.533761
824.924771	-231.601179
825.151824	-231.520173
825.379002	-231.587707
825.606306	-231.499936
825.833734	-231.572394
826.061288	-231.488959
826.288967	-231.554439
826.516772	-231.475651
826.744703	-231.553368
826.972759	-231.450517
827.200941	-231.544098
827.429249	-231.428717
827.657683	-231.529107
827.886243	-231.401534
828.114930	-231.524011
828.343743	-231.388898
828.572682	-231.510575
828.801748	-231.372036
829.030941	-231.489485
829.260260	-231.363272
829.489706	-231.458082
829.719280	-231.365466
829.948980	-231.432855
830.178808	-231.367352
830.408763	-231.403716
830.638845	-231.360860
830.869055	-231.387287
831.099393	-231.348080
831.329858	-231.368910
831.560451	-231.330149
831.791173	-231.356066
832.022022	-231.322783
832.252999	-231.331684
832.484105	-231.309026
832.715339	-231.308209
832.946702	-231.307349
833.178193	-231.283879
833.409813	-231.311523
833.641561	-231.255516
833.873439	-231.297239
834.105445	-231.236597
834.337581	-231.284162
834.569846	-231.218356
834.802241	-231.266633
835.034764	-231.207165
835.267418	-231.255875
835.500201	-231.195813
835.733114	-231.232048
835.966157	-231.180421
836.199329	-231.218277
836.432632	-231.156820
836.666065	-231.213868
836.899629	-231.134095
837.133323	-231.205118
837.367147	-231.118439
837.601102	-231.187241
837.835188	-231.103814
838.069405	-231.165776
838.303752	-231.095522
838.538231	-231.142942
838.772841	-231.090280
839.007582	-231.129321
839.242455	-231.074118
839.477459	-231.106349
839.712595	-231.060034
839.947863	-231.092193
840.183263	-231.038992
840.418794	-231.080652
840.654458	-231.033804
840.890254	-231.063343
841.126182	-231.012786
841.362242	-231.035863
841.598435	-231.007504
841.834761	-231.019116
842.071220	-230.993074
842.307811	-231.004921
842.544536	-230.976522
842.781393	-230.987848
843.018384	-230.959705
843.255508	-230.978110
843.492765	-230.942426
843.730156	-230.954488
843.967681	-230.935220
844.205339	-230.939095
844.443132	-230.922390
844.681058	-230.921093
844.919118	-230.910464
845.157313	-230.902142
845.395642	-230.888401
845.634105	-230.892139
845.872703	-230.873176
846.111436	-230.872002
846.350303	-230.863967
846.589306	-230.855067
846.828443	-230.849913
847.067716	-230.831314
847.307124	-230.837657
847.546667	-230.817498
847.786345	-230.820646
848.026160	-230.807694
848.266110	-230.803003
848.506195	-230.794336
848.746417	-230.785985
848.986775	-230.773046
849.227269	-230.772937
849.467899	-230.755315
849.708666	-230.756897
849.949569	-230.744535
850.190609	-230.734322
850.431785	-230.728574
850.673099	-230.727448
850.914549	-230.712564
851.156137	-230.702154
851.397861	-230.694747
851.639723	-230.688589
851.881723	-230.680985
852.123860	-230.672956
852.366135	-230.665057
852.608547	-230.659465
852.851098	-230.649365
853.093786	-230.643341
853.336613	-230.635334
853.579578	-230.621147
853.822681	-230.622493
854.065923	-230.612362
854.309304	-230.599785
854.552823	-230.593967
854.796481	-230.583279
855.040278	-230.570728
855.284215	-230.570894
855.528290	-230.565146
855.772505	-230.553160
856.016859	-230.546304
856.261353	-230.533661
856.505987	-230.529723
856.750760	-230.523520
856.995673	-230.507976
857.240727	-230.501226
857.485920	-230.497028
857.731254	-230.480906
857.976729	-230.480483
858.222343	-230.468034
858.468099	-230.467073
858.713995	-230.451413
858.960032	-230.441814
859.206211	-230.431460
859.452530	-230.432597
859.698991	-230.424818
859.945593	-230.409686
860.192336	-230.398547
860.439222	-230.396838
860.686248	-230.383833
860.933417	-230.384808
861.180728	-230.372356
861.428181	-230.364206
861.675776	-230.355368
861.923514	-230.346730
862.171394	-230.336511
862.419417	-230.328122
862.667582	-230.318472
862.915890	-230.313525
863.164342	-230.304613
863.412936	-230.299715
863.661674	-230.285623
863.910555	-230.284402
864.159579	-230.265958
864.408747	-230.265295
864.658059	-230.258113
864.907515	-230.251595
865.157114	-230.234586
865.406858	-230.231511
865.656746	-230.220218
865.906778	-230.215662
866.156955	-230.207721
866.407277	-230.196233
866.657743	-230.185114
866.908354	-230.180905
867.159110	-230.173592
867.410011	-230.164430
867.661057	-230.147910
867.912249	-230.140305
868.163586	-230.135529
868.415069	-230.131067
868.666697	-230.118776
868.918472	-230.111394
869.170392	-230.107173
869.422458	-230.094041
869.674671	-230.093526
869.927030	-230.071918
870.179536	-230.065279
870.432188	-230.059431
870.684987	-230.054126
870.937933	-230.049463
871.191026	-230.038296
871.444266	-230.026860
871.697653	-230.018418
871.951188	-230.010325
872.204870	-230.001559
872.458700	-229.997730
872.712677	-229.975063
872.966803	-229.980430
873.221076	-229.964522
873.475498	-229.955237
873.730068	-229.946096
873.984787	-229.944712
874.239654	-229.928038
874.494669	-229.922582
874.749834	-229.915021
875.005147	-229.907376
875.260610	-229.895087
875.516222	-229.888733
875.771983	-229.878967
876.027894	-229.874555
876.283954	-229.857077
876.540164	-229.854114
876.796524	-229.841755
877.053033	-229.834122
877.309693	-229.822175
877.566503	-229.820226
877.823464	-229.806801
878.080575	-229.801553
878.337837	-229.795544
878.595249	-229.782805
878.852813	-229.776421
879.110528	-229.757485
879.368393	-229.760949
879.626410	-229.743006
879.884579	-229.740762
880.142899	-229.726215
880.401371	-229.721795
880.659994	-229.706249
880.918770	-229.705393
881.177698	-229.697437
881.436778	-229.685836
881.696010	-229.674202
881.955395	-229.669088
882.214933	-229.658745
882.474623	-229.648828
882.734467	-229.641144
882.994463	-229.632443
883.254613	-229.619741
883.514916	-229.617329
883.775372	-229.605917
884.035982	-229.594793
884.296746	-229.588050
884.557664	-229.576198
884.818735	-229.571947
885.079961	-229.562617
885.341341	-229.556457
885.602876	-229.542072
885.864565	-229.534430
886.126409	-229.523584
886.388407	-229.515516
886.650561	-229.507993
886.912870	-229.498994
887.175334	-229.490580
887.437953	-229.477726
887.700728	-229.470379
887.963658	-229.461252
888.226745	-229.447682
888.489987	-229.442829
888.753385	-229.431757
889.016940	-229.426780
889.280651	-229.415599
889.544518	-229.408483
889.808543	-229.397402
890.072723	-229.385473
890.337061	-229.378681
890.601556	-229.366933
890.866208	-229.358095
891.131017	-229.349401
891.395984	-229.339133
891.661109	-229.333465
891.926391	-229.325467
892.191831	-229.313992
892.457429	-229.308234
892.723186	-229.297482
892.989100	-229.288694
893.255173	-229.277579
893.521405	-229.269610
893.787796	-229.259803
894.054345	-229.251847
894.321053	-229.237973
894.587921	-229.233791
894.854948	-229.222441
895.122134	-229.219077
895.389480	-229.204346
895.656986	-229.197735
895.924651	-229.184766
896.192477	-229.175658
896.460463	-229.168995
896.728609	-229.151077
896.996915	-229.145027
897.265382	-229.143673
897.534010	-229.131920
897.802799	-229.121124
898.071749	-229.110296
898.340860	-229.101307
898.610132	-229.091950
898.879566	-229.087679
899.149162	-229.071920
899.418919	-229.063361
899.688838	-229.051315
899.958919	-229.045327
900.229162	-229.030910
900.499568	-229.027866
900.770136	-229.018670
901.040867	-229.012059
901.311761	-228.997099
901.582817	-228.988391
901.854037	-228.976016
902.125420	-228.971469
902.396966	-228.959031
902.668676	-228.950609
902.940550	-228.939915
903.212587	-228.926753
903.484788	-228.922366
903.757153	-228.910948
904.029683	-228.899108
904.302377	-228.890048
904.575236	-228.885450
904.848259	-228.875319
905.121447	-228.862504
905.394800	-228.855415
905.668319	-228.847993
905.942002	-228.832822
906.215852	-228.826436
906.489866	-228.817776
906.764047	-228.805005
907.038393	-228.792689
907.312906	-228.790427
907.587584	-228.774303
907.862429	-228.768634
908.137441	-228.752402
908.412619	-228.748621
908.687964	-228.735487
908.963476	-228.732849
909.239155	-228.716839
909.515002	-228.711612
909.791015	-228.693181
910.067197	-228.690880
910.343546	-228.678231
910.620063	-228.670299
910.896748	-228.661842
911.173601	-228.652665
911.450623	-228.641540
911.727813	-228.632886
912.005171	-228.621203
912.282699	-228.609709
912.560395	-228.602882
912.838261	-228.589367
913.116296	-228.579915
913.394500	-228.569509
913.672874	-228.560256
913.951418	-228.549050
914.230131	-228.538707
914.509015	-228.532226
914.788068	-228.520939
915.067292	-228.508781
915.346687	-228.501491
915.626252	-228.485425
915.905988	-228.480014
916.185895	-228.470260
916.465973	-228.466160
916.746223	-228.450140
917.026644	-228.443887
917.307236	-228.429284
917.588000	-228.424097
917.868937	-228.407825
918.150045	-228.401324
918.431325	-228.392461
918.712778	-228.381513
918.994404	-228.368390
919.276202	-228.357365
919.558173	-228.350413
919.840317	-228.343182
920.122634	-228.327481
920.405125	-228.319236
920.687789	-228.312692
920.970627	-228.303660
921.253639	-228.290570
921.536824	-228.277103
921.820184	-228.267677
922.103718	-228.267348
922.387427	-228.246504
922.671310	-228.240278
922.955368	-228.233773
923.239601	-228.218597
923.524009	-228.208288
923.808592	-228.199227
924.093351	-228.186532
924.378285	-228.177624
924.663396	-228.170017
924.948682	-228.166072
925.234144	-228.151086
925.519782	-228.134341
925.805597	-228.134310
926.091589	-228.125670
926.377757	-228.109580
926.664102	-228.099202
926.950624	-228.078066
927.237323	-228.078841
927.524200	-228.068216
927.811255	-228.059490
928.098487	-228.042726
928.385897	-228.033271
928.673485	-228.024966
928.961251	-228.012084
929.249196	-228.008013
929.537319	-228.000715
929.825621	-227.983759
930.114102	-227.975428
930.402762	-227.959445
930.691601	-227.952717
930.980620	-227.943573
931.269818	-227.930848
931.559196	-227.916398
931.848753	-227.914490
932.138491	-227.899997
932.428409	-227.883117
932.718508	-227.878370
933.008787	-227.865176
933.299246	-227.854834
933.589887	-227.845207
933.880709	-227.832992
934.171712	-227.827243
934.462896	-227.810998
934.754262	-227.804233
935.045810	-227.792892
935.337539	-227.783848
935.629451	-227.770646
935.921545	-227.761557
936.213822	-227.748492
936.506281	-227.741137
936.798922	-227.728370
937.091747	-227.717227
937.384755	-227.708308
937.677946	-227.696196
937.971321	-227.687845
938.264879	-227.673698
938.558621	-227.664064
938.852547	-227.654840
939.146657	-227.642370
939.440952	-227.632021
939.735431	-227.620727
940.030095	-227.608923
940.324943	-227.602361
940.619977	-227.585573
940.915196	-227.582578
941.210600	-227.562423
941.506189	-227.558621
941.801965	-227.542093
942.097926	-227.536086
942.394074	-227.523764
942.690407	-227.514295
942.986927	-227.500877
943.283634	-227.491783
943.580527	-227.477673
943.877608	-227.468954
944.174875	-227.457020
944.472330	-227.447809
944.769972	-227.434538
945.067802	-227.427291
945.365820	-227.409776
945.664026	-227.405267
945.962420	-227.390181
946.261002	-227.383108
946.559773	-227.370437
946.858733	-227.358184
947.157881	-227.345801
947.457219	-227.338785
947.756746	-227.323701
948.056462	-227.315129
948.356368	-227.306381
948.656464	-227.293937
948.956749	-227.281825
949.257225	-227.271465
949.557891	-227.262082
949.858748	-227.247442
950.159796	-227.233544
950.461034	-227.226477
950.762463	-227.215533
951.064084	-227.202627
951.365896	-227.188105
951.667900	-227.181148
951.970095	-227.171945
952.272483	-227.158240
952.575063	-227.147370
952.877835	-227.134010
953.180799	-227.122797
953.483956	-227.114137
953.787307	-227.104899
954.090850	-227.087170
954.394586	-227.081560
954.698516	-227.068157
955.002640	-227.059962
955.306957	-227.045465
955.611469	-227.034821
955.916174	-227.021443
956.221074	-227.011067
956.526169	-226.999644
956.831458	-226.988512
957.136942	-226.974457
957.442622	-226.961229
957.748496	-226.955143
958.054567	-226.941665
958.360833	-226.931920
958.667294	-226.919408
958.973952	-226.908324
959.280806	-226.893298
959.587857	-226.885914
959.895104	-226.874535
960.202548	-226.862687
960.510189	-226.847068
960.818027	-226.840245
961.126062	-226.828077
961.434295	-226.814236
961.742726	-226.804289
962.051355	-226.790341
962.360182	-226.779783
962.669207	-226.767876
962.978431	-226.757928
963.287854	-226.746297
963.597475	-226.734828
963.907296	-226.720728
964.217315	-226.714299
964.527535	-226.696975
964.837954	-226.688400
965.148573	-226.673486
965.459392	-226.664163
965.770411	-226.649163
966.081630	-226.642636
966.393051	-226.625123
966.704672	-226.618169
967.016494	-226.602211
967.328517	-226.594922
967.640742	-226.580287
967.953169	-226.567240
968.265797	-226.556227
968.578627	-226.547383
968.891660	-226.531369
969.204895	-226.522594
969.518332	-226.509565
969.831972	-226.495867
970.145816	-226.485642
970.459862	-226.474541
970.774112	-226.463915
971.088565	-226.450470
971.403223	-226.437442
971.718084	-226.426598
972.033149	-226.414162
972.348419	-226.399016
972.663893	-226.386447
972.979572	-226.376777
973.295456	-226.363683
973.611546	-226.353118
973.927840	-226.338383
974.244340	-226.331335
974.561046	-226.314520
974.877958	-226.307850
975.195076	-226.293523
975.512401	-226.280362
975.829932	-226.269456
976.147670	-226.257038
976.465615	-226.245912
976.783767	-226.231375
977.102126	-226.218741
977.420693	-226.207400
977.739468	-226.195012
978.058451	-226.182360
978.377642	-226.170842
978.697041	-226.155945
979.016649	-226.146392
979.336466	-226.135638
979.656492	-226.118945
979.976727	-226.109414
980.297171	-226.097900
980.617825	-226.085261
980.938689	-226.069522
981.259763	-226.054556
981.581048	-226.048519
981.902542	-226.034834
982.224248	-226.022050
982.546164	-226.009187
982.868291	-225.995614
983.190630	-225.982835
983.513180	-225.971332
983.835942	-225.960677
984.158916	-225.945947
984.482101	-225.933239
984.805500	-225.920351
985.129110	-225.906044
985.452934	-225.895395
985.776970	-225.884624
986.101220	-225.871728
986.425683	-225.858894
986.750359	-225.842283
987.075250	-225.834127
987.400354	-225.817847
987.725673	-225.809632
988.051206	-225.793731
988.376954	-225.784875
988.702916	-225.769482
989.029094	-225.758933
989.355487	-225.743589
989.682095	-225.732772
990.008919	-225.720484
990.335959	-225.707239
990.663216	-225.692970
990.990688	-225.681869
991.318377	-225.666640
991.646283	-225.653231
991.974406	-225.642554
992.302746	-225.627879
992.631304	-225.617956
992.960079	-225.603339
993.289072	-225.590327
993.618283	-225.576190
993.947713	-225.566902
994.277361	-225.550182
994.607227	-225.538716
994.937313	-225.524456
995.267618	-225.510197
995.598142	-225.500220
995.928886	-225.487280
996.259849	-225.471950
996.591033	-225.459861
996.922437	-225.447112
997.254061	-225.435312
997.585906	-225.420822
997.917972	-225.406833
998.250260	-225.394472
998.582768	-225.383179
998.915498	-225.365801
999.248450	-225.355098
999.581624	-225.341235
999.915020	-225.328309
1000.248639	-225.317946
1000.582480	-225.301227
1000.916545	-225.289740
1001.250832	-225.278805
1001.585343	-225.263846
1001.920077	-225.249611
1002.255035	-225.235681
1002.590218	-225.219642
1002.925624	-225.209249
1003.261255	-225.194017
1003.597111	-225.185823
1003.933192	-225.169534
1004.269497	-225.152173
1004.606029	-225.141475
1004.942785	-225.131265
1005.279768	-225.109967
1005.616977	-225.101151
1005.954412	-225.090504
1006.292074	-225.071740
1006.629962	-225.060041
1006.968077	-225.045742
1007.306420	-225.032958
1007.644990	-225.018440
1007.983787	-225.007985
1008.322813	-224.993681
1008.662067	-224.981520
1009.001549	-224.966401
1009.341259	-224.950840
1009.681199	-224.939409
1010.021367	-224.923770
1010.361765	-224.913728
1010.702392	-224.899390
1011.043250	-224.882724
1011.384337	-224.865988
1011.725654	-224.858025
1012.067202	-224.840577
1012.408980	-224.832844
1012.750989	-224.815602
1013.093230	-224.802843
1013.435702	-224.788238
1013.778405	-224.771980
1014.121341	-224.759070
1014.464508	-224.741679
1014.807908	-224.733319
1015.151540	-224.716299
1015.495405	-224.703063
1015.839503	-224.688462
1016.183835	-224.679380
1016.528400	-224.661349
1016.873198	-224.648959
1017.218231	-224.631761
1017.563498	-224.614270
1017.908999	-224.606203
1018.254735	-224.588558
1018.600707	-224.582886
1018.946913	-224.561074
1019.293354	-224.551412
1019.640032	-224.533368
1019.986945	-224.521288
1020.334094	-224.510115
1020.681480	-224.490940
1021.029102	-224.480940
1021.376961	-224.464643
1021.725058	-224.449046
1022.073391	-224.435984
1022.421962	-224.415779
1022.770772	-224.409583
1023.119819	-224.397080
1023.469104	-224.377410
1023.818628	-224.367860
1024.168391	-224.352661
1024.518393	-224.337313
1024.868634	-224.320146
1025.219115	-224.305781
1025.569836	-224.292263
1025.920796	-224.276336
1026.271997	-224.263888
1026.623438	-224.248986
1026.975121	-224.234540
1027.327044	-224.221919
1027.679208	-224.208673
1028.031614	-224.191529
1028.384262	-224.176654
1028.737152	-224.162142
1029.090284	-224.141370
1029.443659	-224.133663
1029.797276	-224.118269
1030.151137	-224.107011
1030.505240	-224.086109
1030.859587	-224.076782
1031.214178	-224.057984
1031.569013	-224.045947
1031.924093	-224.028064
1032.279417	-224.017026
1032.634985	-223.997997
1032.990799	-223.986110
1033.346858	-223.968320
1033.703162	-223.956321
1034.059712	-223.941337
1034.416509	-223.925690
1034.773551	-223.910106
1035.130841	-223.897512
1035.488377	-223.882079
1035.846160	-223.863571
1036.204190	-223.852396
1036.562468	-223.832921
1036.920994	-223.821264
1037.279768	-223.806138
1037.638790	-223.789830
1037.998061	-223.775639
1038.357581	-223.761212
1038.717350	-223.747501
1039.077368	-223.729888
1039.437636	-223.715111
1039.798154	-223.697927
1040.158922	-223.687248
1040.519940	-223.667209
1040.881209	-223.657313
1041.242729	-223.637352
1041.604501	-223.626646
1041.966524	-223.607281
1042.328798	-223.597881
1042.691325	-223.576774
1043.054103	-223.563532
1043.417135	-223.545919
1043.780419	-223.533422
1044.143956	-223.517352
1044.507746	-223.501384
1044.871791	-223.486135
1045.236088	-223.471483
1045.600641	-223.456952
1045.965447	-223.438396
1046.330508	-223.426245
1046.695824	-223.407481
1047.061395	-223.393697
1047.427222	-223.375488
1047.793304	-223.362339
1048.159642	-223.346406
1048.526237	-223.330891
1048.893088	-223.316176
1049.260196	-223.299440
1049.627561	-223.282249
1049.995183	-223.269942
1050.363063	-223.251450
1050.731201	-223.235863
1051.099597	-223.219339
1051.468251	-223.204899
1051.837164	-223.190006
1052.206336	-223.173346
1052.575767	-223.155432
1052.945458	-223.140778
1053.315409	-223.126898
1053.685619	-223.107960
1054.056090	-223.095257
1054.426821	-223.077769
1054.797814	-223.063241
1055.169067	-223.045035
1055.540582	-223.031078
1055.912359	-223.012011
1056.284398	-222.999758
1056.656698	-222.979784
1057.029262	-222.964910
1057.402088	-222.948456
1057.775177	-222.934384
1058.148530	-222.915194
1058.522146	-222.901997
1058.896027	-222.885843
1059.270171	-222.866016
1059.644580	-222.853681
1060.019254	-222.833431
1060.394193	-222.820496
1060.769397	-222.802430
1061.144867	-222.789373
1061.520602	-222.768568
1061.896604	-222.757339
1062.272872	-222.735992
1062.649407	-222.721173
1063.026210	-222.704171
1063.403279	-222.688864
1063.780616	-222.670994
1064.158221	-222.655977
1064.536094	-222.638232
1064.914235	-222.621794
1065.292645	-222.606713
1065.671325	-222.588363
1066.050273	-222.573217
1066.429491	-222.556342
1066.808979	-222.540104
1067.188738	-222.522189
1067.568766	-222.505165
1067.949066	-222.489959
1068.329636	-222.472604
1068.710478	-222.457056
1069.091592	-222.437349
1069.472977	-222.423551
1069.854635	-222.403711
1070.236565	-222.389536
1070.618768	-222.369061
1071.001243	-222.355679
1071.383993	-222.335509
1071.767016	-222.323517
1072.150313	-222.300600
1072.533884	-222.290360
1072.917730	-222.265592
1073.301850	-222.255709
1073.686246	-222.233039
1074.070917	-222.220353
1074.455864	-222.198931
1074.841087	-222.186519
1075.226586	-222.166718
1075.612362	-222.149955
1075.998415	-222.132910
1076.384745	-222.115522
1076.771353	-222.096956
1077.158238	-222.080830
1077.545401	-222.063815
1077.932843	-222.046229
1078.320564	-222.028728
1078.708564	-222.010620
1079.096842	-221.994522
1079.485401	-221.974780
1079.874240	-221.961104
1080.263358	-221.939587
1080.652757	-221.925687
1081.042438	-221.904368
1081.432399	-221.892178
1081.822641	-221.869023
1082.213166	-221.856775
1082.603972	-221.832719
1082.995061	-221.821311
1083.386433	-221.797610
1083.778087	-221.785539
1084.170025	-221.761904
1084.562246	-221.751090
1084.954751	-221.727861
1085.347541	-221.716112
1085.740615	-221.690509
1086.133973	-221.678457
1086.527617	-221.655723
1086.921546	-221.643575
1087.315761	-221.619622
1087.710262	-221.608879
1088.105050	-221.584597
1088.500124	-221.570674
1088.895485	-221.547946
1089.291134	-221.535665
1089.687070	-221.512539
1090.083294	-221.498534
1090.479806	-221.475936
1090.876607	-221.460653
1091.273696	-221.440834
1091.671075	-221.424265
1092.068744	-221.404664
1092.466702	-221.387312
1092.864950	-221.369059
1093.263489	-221.350238
1093.662319	-221.331918
1094.061440	-221.315573
1094.460852	-221.295487
1094.860555	-221.276808
1095.260551	-221.259505
1095.660840	-221.239382
1096.061421	-221.222354
1096.462295	-221.200436
1096.863462	-221.186241
1097.264923	-221.164848
1097.666678	-221.151364
1098.068727	-221.127523
1098.471071	-221.112560
1098.873710	-221.090676
1099.276644	-221.074432
1099.679874	-221.051886
1100.083400	-221.037396
1100.487222	-221.013517
1100.891340	-221.000462
1101.295756	-220.975769
1101.700468	-220.960709
1102.105478	-220.939877
1102.510787	-220.925195
1102.916393	-220.901489
1103.322298	-220.887464
1103.728502	-220.862760
1104.135005	-220.846921
1104.541807	-220.825053
1104.948909	-220.810058
1105.356312	-220.787037
1105.764015	-220.770647
1106.172019	-220.750119
1106.580324	-220.731821
1106.988931	-220.709674
1107.397840	-220.694357
1107.807051	-220.672878
1108.216564	-220.655249
1108.626380	-220.634656
1109.036500	-220.616273
1109.446923	-220.596381
1109.857649	-220.577194
1110.268680	-220.556275
1110.680016	-220.537678
1111.091657	-220.516213
1111.503602	-220.499071
1111.915854	-220.477069
1112.328411	-220.459455
1112.741275	-220.437706
1113.154445	-220.420682
1113.567922	-220.398994
1113.981706	-220.382191
1114.395798	-220.358606
1114.810198	-220.341127
1115.224906	-220.319870
1115.639923	-220.301819
1116.055249	-220.280738
1116.470884	-220.260562
1116.886829	-220.241395
1117.303084	-220.220390
1117.719650	-220.200743
1118.136526	-220.179305
1118.553713	-220.160351
1118.971212	-220.140571
1119.389022	-220.120676
1119.807145	-220.099481
1120.225580	-220.079776
1120.644328	-220.059865
1121.063389	-220.039245
1121.482763	-220.019168
1121.902452	-219.998883
1122.322454	-219.978339
1122.742771	-219.958578
1123.163404	-219.937709
1123.584351	-219.915933
1124.005614	-219.896521
1124.427193	-219.874576
1124.849089	-219.856494
1125.271301	-219.834603
1125.693830	-219.815208
1126.116677	-219.793982
1126.539842	-219.772842
1126.963324	-219.751798
1127.387126	-219.731623
1127.811246	-219.710522
1128.235685	-219.688308
1128.660444	-219.668480
1129.085522	-219.648089
1129.510922	-219.626786
1129.936641	-219.605070
1130.362682	-219.585313
1130.789044	-219.562028
1131.215728	-219.543025
1131.642734	-219.521507
1132.070063	-219.500835
1132.497714	-219.478741
1132.925689	-219.458663
1133.353987	-219.435071
1133.782610	-219.415123
1134.211556	-219.395365
1134.640827	-219.371476
1135.070424	-219.351728
1135.500345	-219.330197
1135.930593	-219.308920
1136.361166	-219.287064
1136.792067	-219.266030
1137.223294	-219.244464
1137.654848	-219.223482
1138.086730	-219.198801
1138.518940	-219.179306
1138.951479	-219.157391
1139.384346	-219.135648
1139.817543	-219.113461
1140.251069	-219.092274
1140.684925	-219.069380
1141.119111	-219.048733
1141.553628	-219.027284
1141.988475	-219.005150
1142.423655	-218.983734
1142.859166	-218.960799
1143.295009	-218.939200
1143.731185	-218.916495
1144.167694	-218.893595
1144.604536	-218.872298
1145.041711	-218.849041
1145.479221	-218.827643
1145.917065	-218.806010
1146.355245	-218.783689
1146.793759	-218.761804
1147.232609	-218.738708
1147.671795	-218.716308
1148.111317	-218.692717
1148.551177	-218.670905
1148.991373	-218.647768
1149.431907	-218.626337
1149.872779	-218.602655
1150.313989	-218.580916
1150.755538	-218.557723
1151.197426	-218.535806
1151.639653	-218.512826
1152.082220	-218.489404
1152.525128	-218.467346
1152.968376	-218.443953
1153.411966	-218.421297
1153.855897	-218.398469
1154.300169	-218.374361
1154.744784	-218.351902
1155.189742	-218.328777
1155.635042	-218.305830
1156.080687	-218.282298
1156.526674	-218.259680
1156.973007	-218.236370
1157.419683	-218.213086
1157.866705	-218.189356
1158.314072	-218.166470
1158.761786	-218.142523
1159.209845	-218.119806
1159.658251	-218.095055
1160.107004	-218.072652
1160.556104	-218.047251
1161.005553	-218.024885
1161.455349	-218.000371
1161.905494	-217.978591
1162.355989	-217.953535
1162.806832	-217.929996
1163.258026	-217.905553
1163.709570	-217.882628
1164.161464	-217.857790
1164.613710	-217.834831
1165.066307	-217.809920
1165.519256	-217.786289
1165.972558	-217.762449
1166.426212	-217.737719
1166.880219	-217.713564
1167.334580	-217.687985
1167.789295	-217.665829
1168.244364	-217.640404
1168.699788	-217.617753
1169.155567	-217.591878
1169.611702	-217.568875
1170.068193	-217.541851
1170.525041	-217.518962
1170.982245	-217.493770
1171.439807	-217.471107
1171.897726	-217.444187
1172.356004	-217.420572
1172.814640	-217.394167
1173.273635	-217.371680
1173.732989	-217.344692
1174.192703	-217.321602
1174.652778	-217.295881
1175.113213	-217.271171
1175.574009	-217.245958
1176.035167	-217.220911
1176.496687	-217.196573
1176.958569	-217.169500
1177.420814	-217.146649
1177.883422	-217.119051
1178.346394	-217.094647
1178.809730	-217.068368
1179.273430	-217.044749
1179.737496	-217.017801
1180.201927	-216.993286
1180.666723	-216.966862
1181.131886	-216.942578
1181.597416	-216.915576
1182.063312	-216.890828
1182.529576	-216.864765
1182.996209	-216.839555
1183.463209	-216.812966
1183.930579	-216.786990
1184.398317	-216.761581
1184.866426	-216.735677
1185.334904	-216.708974
1185.803754	-216.683297
1186.272974	-216.656843
1186.742566	-216.630935
1187.212529	-216.604468
1187.682865	-216.578711
1188.153574	-216.551961
1188.624656	-216.526064
1189.096112	-216.498843
1189.567942	-216.473404
1190.040147	-216.446573
1190.512726	-216.419689
1190.985681	-216.392661
1191.459012	-216.366428
1191.932720	-216.339344
1192.406804	-216.312845
1192.881265	-216.285885
1193.356104	-216.258908
1193.831322	-216.231693
1194.306918	-216.205250
1194.782893	-216.177725
1195.259248	-216.150177
1195.735982	-216.123024
1196.213097	-216.096523
1196.690593	-216.069585
1197.168471	-216.041471
1197.646730	-216.014009
1198.125371	-215.987270
1198.604395	-215.959389
1199.083803	-215.932195
1199.563594	-215.904223
1200.043769	-215.877356
1200.524329	-215.849307
1201.005273	-215.820569
1201.486604	-215.793919
1201.968320	-215.765473
1202.450422	-215.737836
1202.932912	-215.708717
1203.415789	-215.682011
1203.899054	-215.653425
1204.382707	-215.625762
1204.866748	-215.597026
1205.351179	-215.569728
1205.836000	-215.539201
1206.321211	-215.512358
1206.806812	-215.484091
1207.292805	-215.454437
1207.779189	-215.427032
1208.265965	-215.397825
1208.753134	-215.369525
1209.240696	-215.340970
1209.728651	-215.312068
1210.217000	-215.282352
1210.705744	-215.253747
1211.194883	-215.224042
1211.684417	-215.195299
1212.174347	-215.166499
1212.664673	-215.137035
1213.155396	-215.108130
1213.646516	-215.078727
1214.138034	-215.049013
1214.629951	-215.020738
1215.122266	-214.990155
1215.614980	-214.961820
1216.108095	-214.930089
1216.601609	-214.902617
1217.095524	-214.872915
1217.589841	-214.841797
1218.084559	-214.812137
1218.579679	-214.781481
1219.075202	-214.752293
1219.571128	-214.723993
1220.067458	-214.692056
1220.564191	-214.663145
1221.061330	-214.632126
1221.558874	-214.601577
1222.056823	-214.572125
1222.555178	-214.540962
1223.053940	-214.511517
1223.553109	-214.477687
1224.052686	-214.450829
1224.552671	-214.417740
1225.053065	-214.389625
1225.553867	-214.354676
1226.055079	-214.328198
1226.556702	-214.293822
1227.058735	-214.263167
1227.561179	-214.231445
1228.064035	-214.202622
1228.567303	-214.168857
1229.070983	-214.140824
1229.575077	-214.106940
1230.079585	-214.077070
1230.584506	-214.042951
1231.089842	-214.014577
1231.595594	-213.979298
1232.101761	-213.950867
1232.608345	-213.916328
1233.115345	-213.887169
1233.622762	-213.851453
1234.130597	-213.822409
1234.638851	-213.788347
1235.147523	-213.759222
1235.656615	-213.724248
1236.166126	-213.693312
1236.676058	-213.659408
1237.186411	-213.628198
1237.697185	-213.595185
1238.208381	-213.563334
1238.719999	-213.529903
1239.232040	-213.497846
1239.744505	-213.464634
1240.257394	-213.431519
1240.770708	-213.398892
1241.284446	-213.365352
1241.798610	-213.332621
1242.313201	-213.298408
1242.828218	-213.265999
1243.343662	-213.231477
1243.859534	-213.199805
1244.375834	-213.164694
1244.892563	-213.132590
1245.409721	-213.097606
1245.927309	-213.064433
1246.445327	-213.029933
1246.963777	-212.996759
1247.482657	-212.962099
1248.001970	-212.928106
1248.521716	-212.893985
1249.041894	-212.859677
1249.562506	-212.825429
1250.083553	-212.790684
1250.605034	-212.756394
1251.126950	-212.721290
1251.649302	-212.687167
1252.172091	-212.652176
1252.695316	-212.617759
1253.218979	-212.582633
1253.743079	-212.547800
1254.267619	-212.512167
1254.792597	-212.477675
1255.318015	-212.441636
1255.843874	-212.406843
1256.370173	-212.370769
1256.896913	-212.335526
1257.424095	-212.299701
1257.951720	-212.264076
1258.479787	-212.228210
1259.008298	-212.192870
1259.537254	-212.155792
1260.066654	-212.120662
1260.596499	-212.083991
1261.126790	-212.048039
1261.657527	-212.011452
1262.188711	-211.975045
1262.720342	-211.938453
1263.252422	-211.901667
1263.784950	-211.864968
1264.317928	-211.828478
1264.851355	-211.791600
1265.385232	-211.754290
1265.919560	-211.716814
1266.454340	-211.680009
1266.989572	-211.642734
1267.525256	-211.605865
1268.061394	-211.567838
1268.597985	-211.529984
1269.135031	-211.492956
1269.672531	-211.454352
1270.210487	-211.417509
1270.748899	-211.377924
1271.287768	-211.342634
1271.827094	-211.301236
1272.366877	-211.266481
1272.907119	-211.224407
1273.447820	-211.190489
1273.988981	-211.146129
1274.530601	-211.113155
1275.072683	-211.068126
1275.615226	-211.035871
1276.158230	-210.990004
1276.701697	-210.958051
1277.245627	-210.911772
1277.790021	-210.879425
1278.334879	-210.832734
1278.880202	-210.800599
1279.425991	-210.753751
1279.972245	-210.720375
1280.518966	-210.675191
1281.066155	-210.640241
1281.613811	-210.596597
1282.161936	-210.558481
1282.710529	-210.517097
1283.259593	-210.476627
1283.809126	-210.438030
1284.359131	-210.393236
1284.909607	-210.358606
1285.460555	-210.309923
1286.011976	-210.278729
1286.563870	-210.225476
1287.116237	-210.198904
1287.669080	-210.140450
1288.222397	-210.118707
1288.776191	-210.054841
1289.330460	-210.037437
1289.885207	-209.969295
1290.440431	-209.955829
1290.996133	-209.883570
1291.552314	-209.873317
1292.108975	-209.798287
1292.666115	-209.789659
1293.223737	-209.713816
1293.781839	-209.703885
1294.340424	-209.629023
1294.899491	-209.617039
1295.459041	-209.544630
1296.019075	-209.528154
1296.579593	-209.461646
1297.140597	-209.438694
1297.702086	-209.377707
1298.264061	-209.347302
1298.826524	-209.294545
1299.389474	-209.255495
1299.952912	-209.211567
1300.516839	-209.162934
1301.081255	-209.127432
1301.646162	-209.069783
1302.211559	-209.042326
1302.777448	-208.976955
1303.343829	-208.956465
1303.910702	-208.883861
1304.478069	-208.869175
1305.045930	-208.790424
1305.614285	-208.780747
1306.183136	-208.698470
1306.752483	-208.690848
1307.322326	-208.606264
1307.892666	-208.599873
1308.463504	-208.514362
1309.034841	-208.506509
1309.606677	-208.422919
1310.179012	-208.412625
1310.751849	-208.331472
1311.325186	-208.316770
1311.899025	-208.240285
1312.473366	-208.220128
1313.048211	-208.148267
1313.623559	-208.123115
1314.199412	-208.056420
1314.775770	-208.025292
1315.352634	-207.962939
1315.930004	-207.926932
1316.507881	-207.869115
1317.086266	-207.828733
1317.665159	-207.774091
1318.244562	-207.729675
1318.824474	-207.678523
1319.404897	-207.630516
1319.985831	-207.581623
1320.567276	-207.530916
1321.149234	-207.483922
1321.731706	-207.431083
1322.314691	-207.385624
1322.898190	-207.330921
1323.482205	-207.285653
1324.066736	-207.230244
1324.651783	-207.185315
1325.237347	-207.128990
1325.823430	-207.084242
1326.410031	-207.027405
1326.997151	-206.982420
1327.584791	-206.924976
1328.172952	-206.879728
1328.761634	-206.822013
1329.350839	-206.776369
1329.940566	-206.717661
1330.530817	-206.672799
1331.121592	-206.612616
1331.712891	-206.568376
1332.304716	-206.506265
1332.897068	-206.464591
1333.489946	-206.398338
1334.083352	-206.360817
1334.677287	-206.288901
1335.271750	-206.257633
1335.866744	-206.175790
1336.462268	-206.156753
1337.058323	-206.058916
1337.654910	-206.058546
1338.252029	-205.937119
1338.849682	-205.964674
1339.447869	-205.808817
1340.046591	-205.877288
1340.645848	-205.671637
1341.245641	-205.797359
1341.845972	-205.525235
1342.446840	-205.726845
1343.048246	-205.366830
1343.650191	-205.667858
1344.252677	-205.197786
1344.855702	-205.619317
1345.459269	-205.016660
1346.063379	-205.582655
1346.668030	-204.825588
1347.273226	-205.554282
1347.878965	-204.627373
1348.485250	-205.527266
1349.092080	-204.428884
1349.699456	-205.492886
1350.307380	-204.235480
1350.915851	-205.432677
1351.524871	-204.058357
1352.134441	-205.322750
1352.744560	-203.911505
1353.355231	-205.131103
1353.966453	-203.811565
1354.578227	-204.822006
1355.190555	-203.780681
1355.803436	-204.362601
1356.416872	-203.846532
1357.030863	-203.733047
1357.645411	-204.047760
1358.260515	-202.934000
1358.876177	-204.438282
1359.492397	-201.982750
1360.109176	-205.093933
1360.726516	-200.915630
1361.344416	-206.138598
1361.962877	-199.767015
1362.581901	-207.760551
1363.201487	-198.566551
1363.821637	-210.168230
1364.442352	-197.339105
1365.063632	-212.409980
1365.685478	-196.096251
1366.307891	-209.973274
1366.930871	-194.842311
1367.554420	-205.105197
1368.178538	-193.574537
1368.803226	-200.889077
1369.428485	-192.284756
1370.054315	-197.377581
1370.680717	-190.960841
1371.307693	-194.346495
1371.935242	-189.589408
1372.563366	-191.641755
1373.192065	-188.157174
1373.821341	-189.167243
1374.451193	-186.654490
1375.081623	-186.859802
1375.712632	-185.076050
1376.344221	-184.675901
1376.976389	-183.422547
1377.609139	-182.584183
1378.242470	-181.699400
1378.876384	-180.561070
1379.510881	-179.915616
1380.145963	-178.588084
1380.781629	-178.081839
1381.417881	-176.650395
1382.054720	-176.208628
1382.692147	-174.735907
1383.330161	-174.305104
1383.968765	-172.834554
1384.607959	-172.378461
1385.247743	-170.937923
1385.888119	-170.433699
1386.529087	-169.038943
1387.170648	-168.473882
1387.812804	-167.131696
1388.455554	-166.500372
1389.098899	-165.211251
1389.742842	-164.513283
1390.387381	-163.273545
1391.032519	-162.511866
1391.678256	-161.315342
1392.324592	-160.494842
1392.971529	-159.334163
1393.619068	-158.460771
1394.267208	-157.328260
1394.915952	-156.408266
1395.565300	-155.296595
1396.215253	-154.336232
1396.865812	-153.238817
1397.516977	-152.243986
1398.168749	-151.155217
1398.821130	-150.131348
1399.474120	-149.046678
1400.127719	-147.998667
1400.781930	-146.914608
1401.436752	-145.846788
1402.092186	-144.760827
1402.748234	-143.676996
1403.404897	-142.587482
1404.062174	-141.490930
1404.720067	-140.396931
1405.378577	-139.290480
1406.037705	-138.191639
1406.697451	-137.077692
1407.357817	-135.974088
1408.018803	-134.854669
1408.680410	-133.746697
1409.342639	-132.623501
1410.005492	-131.511762
1410.668968	-130.386199
1411.333068	-129.271418
1411.997795	-128.144649
1412.663147	-127.027609
1413.329127	-125.900588
1413.995736	-124.782080
1414.662973	-123.655589
1415.330840	-122.536374
1415.999339	-121.411051
1416.668469	-120.291841
1417.338232	-119.168207
1418.008628	-118.049652
1418.679659	-116.928133
1419.351325	-115.810814
1420.023628	-114.691760
1420.696568	-113.576188
1421.370145	-112.459890
1422.044362	-111.346507
1422.719219	-110.233209
1423.394717	-109.122398
1424.070856	-108.012305
1424.747638	-106.904392
1425.425064	-105.797682
1426.103134	-104.692944
1426.781850	-103.589773
1427.461212	-102.488447
1428.141221	-101.388953
1428.821878	-100.291242
1429.503185	-99.195552
1430.185141	-98.101630
1430.867749	-97.009860
1431.551008	-95.919879
1432.234920	-94.832140
1432.919486	-93.746235
1433.604707	-92.662634
1434.290583	-91.580928
1434.977116	-90.501568
1435.664307	-89.424175
1436.352156	-88.349159
1437.040664	-87.276188
1437.729833	-86.205619
1438.419663	-85.137174
1439.110156	-84.071157
1439.801312	-83.007345
1440.493132	-81.945986
1441.185617	-80.886911
1441.878768	-79.830320
1442.572586	-78.776093
1443.267072	-77.724383
1443.962228	-76.675114
1444.658053	-75.628405
1445.354549	-74.584211
1446.051717	-73.542624
1446.749558	-72.503629
1447.448073	-71.467293
1448.147263	-70.433625
1448.847128	-69.402675
1449.547671	-68.374468
1450.248891	-67.349045
1450.950789	-66.326443
1451.653368	-65.306694
1452.356627	-64.289847
1453.060568	-63.275929
1453.765192	-62.264994
1454.470500	-61.257070
1455.176492	-60.252215
1455.883170	-59.250457
1456.590534	-58.251857
1457.298586	-57.256446
1458.007327	-56.264286
1458.716758	-55.275413
1459.426880	-54.289890
1460.137693	-53.307755
1460.849199	-52.329073
1461.561398	-51.353889
1462.274293	-50.382266
1462.987883	-49.414255
1463.702170	-48.449920
1464.417155	-47.489317
1465.132838	-46.532513
1465.849222	-45.579566
1466.566306	-44.630548
1467.284093	-43.685520
1468.002582	-42.744557
1468.721775	-41.807727
1469.441674	-40.875104
1470.162278	-39.946764
1470.883590	-39.022785
1471.605609	-38.103246
1472.328338	-37.188231
1473.051777	-36.277824
1473.775928	-35.372112
1474.500790	-34.471186
1475.226367	-33.575139
1475.952657	-32.684067
1476.679663	-31.798069
1477.407386	-30.917248
1478.135826	-30.041708
1478.864985	-29.171561
1479.594863	-28.306916
1480.325463	-27.447893
1481.056784	-26.594611
1481.788828	-25.747195
1482.521597	-24.905776
1483.255090	-24.070486
1483.989309	-23.241465
1484.724256	-22.418857
1485.459931	-21.602812
1486.196336	-20.793486
1486.933471	-19.991039
1487.671337	-19.195639
1488.409937	-18.407462
1489.149270	-17.626690
1489.889337	-16.853511
1490.630141	-16.088123
1491.371682	-15.330734
1492.113961	-14.581557
1492.856979	-13.840819
1493.600738	-13.108755
1494.345238	-12.385611
1495.090481	-11.671646
1495.836467	-10.967132
1496.583198	-10.272353
1497.330675	-9.587608
1498.078899	-8.913214
1498.827872	-8.249501
1499.577593	-7.596821
1500.328065	-6.955543
1501.079289	-6.326060
1501.831265	-5.708787
1502.583995	-5.104163
1503.337480	-4.512657
1504.091721	-3.934768
1504.846719	-3.371026
1505.602475	-2.822001
1506.358991	-2.288301
1507.116268	-1.770579
1507.874306	-1.269538
1508.633108	-0.785934
1509.392673	-0.320586
1510.153004	0.125621
1510.914101	0.551725
1511.675965	0.956679
1512.438599	1.339339
1513.202002	1.698449
1513.966176	2.032628
1514.731122	2.340348
1515.496842	2.619907
1516.263336	2.869400
1517.030607	3.086678
1517.798654	3.269302
1518.567479	3.414478
1519.337083	3.518984
1520.107468	3.579077
1520.878634	3.590375
1521.650584	3.547714
1522.423317	3.444964
1523.196836	3.274783
1523.971141	3.028289
1524.746233	2.694577
1525.522115	2.259989
1526.298786	1.706941
1527.076249	1.011969
1527.854504	0.142314
1528.633553	-0.950241
1529.413397	-2.341025
1530.194037	-4.155404
1530.975474	-6.613449
1531.757709	-10.070756
1532.540745	-14.115992
1533.324581	-12.806460
1534.109220	-8.284845
1534.894662	-4.872958
1535.680909	-2.486409
1536.467961	-0.864979
1537.255821	0.119083
1538.044489	0.546560
1538.833967	0.577644
1539.624256	0.610338
1540.415357	1.109200
1541.207271	1.889046
1542.000000	2.258235
1542.793545	1.892737
1543.587907	1.121650
1544.383087	0.608630
1545.179088	0.495950
1545.975909	0.309335
1546.773552	-0.360574
1547.572019	-1.721423
1548.371311	-3.964612
1549.171428	-7.473285
1549.972373	-12.891154
1550.774147	-14.717419
1551.576751	-9.261858
1552.380185	-5.426800
1553.184453	-2.877798
1553.989554	-1.059675
1554.795490	0.300163
1555.602263	1.346079
1556.409873	2.161540
1557.218322	2.798320
1558.027612	3.290509
1558.837743	3.661830
1559.648717	3.929659
1560.460536	4.107320
1561.273200	4.205425
1562.086710	4.232668
1562.901069	4.196318
1563.716278	4.102528
1564.532337	3.956552
1565.349249	3.762898
1566.167014	3.525448
1566.985634	3.247561
1567.805111	2.932153
1568.625444	2.581766
1569.446637	2.198636
1570.268690	1.784734
1571.091605	1.341818
1571.915382	0.871460
1572.740024	0.375079
1573.565532	-0.146038
1574.391907	-0.690718
1575.219150	-1.257885
1576.047262	-1.846552
1576.876246	-2.455805
1577.706103	-3.084803
1578.536833	-3.732764
1579.368439	-4.398960
1580.200922	-5.082718
1581.034282	-5.783406
1581.868522	-6.500436
1582.703643	-7.233258
1583.539646	-7.981356
1584.376532	-8.744244
1585.214304	-9.521467
1586.052962	-10.312596
1586.892508	-11.117224
1587.732943	-11.934971
1588.574269	-12.765471
1589.416487	-13.608383
1590.259599	-14.463380
1591.103605	-15.330152
1591.948508	-16.208404
1592.794309	-17.097857
1593.641009	-17.998243
1594.488609	-18.909306
1595.337112	-19.830804
1596.186518	-20.762502
1597.036829	-21.704179
1597.888047	-22.655622
1598.740172	-23.616625
1599.593207	-24.586995
1600.447153	-25.566541
1601.302010	-26.555084
1602.157782	-27.552451
1603.014469	-28.558475
1603.872072	-29.572995
1604.730593	-30.595858
1605.590034	-31.626914
1606.450397	-32.666020
1607.311681	-33.713038
1608.173890	-34.767834
1609.037024	-35.830279
1609.901085	-36.900250
1610.766075	-37.977626
1611.631995	-39.062290
1612.498846	-40.154129
1613.366630	-41.253036
1614.235349	-42.358904
1615.105004	-43.471631
1615.975596	-44.591119
1616.847128	-45.717269
1617.719600	-46.849991
1618.593014	-47.989191
1619.467372	-49.134785
1620.342675	-50.286682
1621.218924	-51.444806
1622.096122	-52.609067
1622.974270	-53.779397
1623.853369	-54.955707
1624.733420	-56.137935
1625.614427	-57.325994
1626.496389	-58.519828
1627.379308	-59.719351
1628.263187	-60.924515
1629.148026	-62.135229
1630.033828	-63.351457
1630.920593	-64.573103
1631.808324	-65.800140
1632.697022	-67.032468
1633.586688	-68.270071
1634.477324	-69.512840
1635.368932	-70.760775
1636.261514	-72.013754
1637.155070	-73.271792
1638.049602	-74.534757
1638.945113	-75.802678
1639.841603	-77.075410
1640.739075	-78.353001
1641.637529	-79.635287
1642.536968	-80.922336
1643.437393	-82.213969
1644.338806	-83.510270
1645.241209	-84.811046
1646.144602	-86.116393
1647.048988	-87.426110
1647.954368	-88.740300
1648.860744	-90.058761
1649.768118	-91.381589
1650.676491	-92.708599
1651.585865	-94.039858
1652.496241	-95.375225
1653.407621	-96.714703
1654.320008	-98.058238
1655.233401	-99.405718
1656.147804	-100.757236
1657.063218	-102.112491
1657.979645	-103.471814
1658.897085	-104.834605
1659.815542	-106.201566
1660.735016	-107.571636
1661.655509	-108.946079
1662.577023	-110.323150
1663.499560	-111.704939
1664.423121	-113.088706
1665.347709	-114.477731
1666.273324	-115.867851
1667.199969	-117.264040
1668.127645	-118.660127
1669.056353	-120.063456
1669.986097	-121.465062
1670.916877	-122.875577
1671.848695	-124.282184
1672.781553	-125.700014
1673.715452	-127.111010
1674.650395	-128.536400
1675.586383	-129.951063
1676.523418	-131.384399
1677.461501	-132.801868
1678.400635	-134.243713
1679.340821	-135.662962
1680.282061	-137.114096
1681.224357	-138.533907
1682.167710	-139.995368
1683.112122	-141.414303
1684.057595	-142.887423
1685.004132	-144.303804
1685.951732	-145.790241
1686.900400	-147.202145
1687.850135	-148.703895
1688.800940	-150.109175
1689.752818	-151.628556
1690.705768	-153.024900
1691.659795	-154.564466
1692.614898	-155.949549
1693.571081	-157.511920
1694.528345	-158.883649
1695.486691	-160.471187
1696.446122	-161.828126
1697.406640	-163.442394
1698.368245	-164.784453
1699.330941	-166.425324
1700.294729	-167.754806
1701.259611	-169.419101
1702.225588	-170.742268
1703.192664	-172.421596
1704.160838	-173.751054
1705.130114	-175.428632
1706.100493	-176.786597
1707.071977	-178.432618
1708.044568	-179.855551
1709.018268	-181.420590
1709.993079	-182.964873
1710.969003	-184.371116
1711.946041	-186.119161
1712.924196	-187.250762
1713.903469	-189.313266
1714.883862	-190.010455
1715.865378	-192.514024
1716.848017	-192.584807
1717.831783	-195.620495
1718.816677	-194.899162
1719.802701	-198.407526
1720.789857	-196.887648
1721.778147	-200.536906
1722.767573	-198.517431
1723.758136	-201.794622
1724.749840	-199.799331
1725.742685	-202.331893
1726.736673	-200.781252
1727.731808	-202.486888
1728.728090	-201.524831
1729.725521	-202.511884
1730.724105	-202.089915
1731.723842	-202.525707
1732.724735	-202.523759
1733.726785	-202.569120
1734.729995	-202.864092
1735.734366	-202.650938
1736.739902	-203.136627
1737.746603	-202.765068
1738.754472	-203.361993
1739.763510	-202.906155
1740.773721	-203.554065
1741.785105	-203.065332
1742.797665	-203.722793
1743.811403	-203.237675
1744.826321	-203.876270
1745.842422	-203.417537
1746.859706	-204.019888
1747.878177	-203.601702
1748.897835	-204.157686
1749.918685	-203.786936
1750.940726	-204.291964
1751.963963	-203.971999
1752.988395	-204.425189
1754.014027	-204.155248
1755.040860	-204.557917
1756.068895	-204.335963
1757.098135	-204.691018
1758.128583	-204.513550
1759.160240	-204.825728
1760.193109	-204.687661
1761.227191	-204.961155
1762.262488	-204.858532
1763.299004	-205.098277
1764.336740	-205.025500
1765.375697	-205.236316
1766.415880	-205.188924
1767.457288	-205.375784
1768.499926	-205.349001
1769.543794	-205.516406
1770.588895	-205.505953
1771.635231	-205.657783
1772.682805	-205.660023
1773.731619	-205.800130
1774.781674	-205.811932
1775.832973	-205.942539
1776.885519	-205.959872
1777.939312	-206.084442
1778.994357	-206.108000
1780.050654	-206.226996
1781.108207	-206.252509
1782.167017	-206.370521
1783.227087	-206.394963
1784.288418	-206.512280
1785.351013	-206.536993
1786.414875	-206.654160
1787.480006	-206.675847
1788.546407	-206.796101
1789.614082	-206.814204
1790.683032	-206.936756
1791.753259	-206.951363
1792.824767	-207.077053
1793.897557	-207.087169
1794.971632	-207.216538
1796.046994	-207.222057
1797.123645	-207.355170
1798.201588	-207.356308
1799.280824	-207.492244
1800.361357	-207.489734
1801.443188	-207.628385
1802.526320	-207.623202
1803.610756	-207.762882
1804.696497	-207.756573
1805.783546	-207.895157
1806.871906	-207.890023
1807.961578	-208.026270
1809.052565	-208.023327
1810.144870	-208.155244
1811.238494	-208.156481
1812.333441	-208.282826
1813.429713	-208.290484
1814.527311	-208.407893
1815.626239	-208.424731
1816.726499	-208.531288
1817.828094	-208.558626
1818.931025	-208.653645
1820.035295	-208.692945
1821.140906	-208.774470
1822.247862	-208.826211
1823.356165	-208.893969
1824.465816	-208.959531
1825.576819	-209.011877
1826.689175	-209.093027
1827.802888	-209.130063
1828.917960	-209.224177
1830.034394	-209.247145
1831.152191	-209.355426
1832.271354	-209.364357
1833.391887	-209.484563
1834.513790	-209.480767
1835.637068	-209.612371
1836.761722	-209.597847
1837.887755	-209.739360
1839.015169	-209.714603
1840.143968	-209.864932
1841.274153	-209.831849
1842.405727	-209.988371
1843.538693	-209.948914
1844.673053	-210.110310
1845.808810	-210.066961
1846.945966	-210.230087
1848.084525	-210.184332
1849.224488	-210.348943
1850.365858	-210.303190
1851.508638	-210.466098
1852.652831	-210.421144
1853.798438	-210.582062
1854.945463	-210.540338
1856.093909	-210.695630
1857.243777	-210.658800
1858.395071	-210.808492
1859.547794	-210.777707
1860.701947	-210.919620
1861.857533	-210.896738
1863.014556	-211.029918
1864.173018	-211.015780
1865.332922	-211.139388
1866.494270	-211.133939
1867.657065	-211.247642
1868.821309	-211.251957
1869.987006	-211.355440
1871.154158	-211.369407
1872.322768	-211.462794
1873.492839	-211.485816
1874.664373	-211.569597
1875.837373	-211.601720
1877.011841	-211.676381
1878.187782	-211.716505
1879.365197	-211.783199
1880.544089	-211.830179
1881.724460	-211.889787
1882.906315	-211.942855
1884.089655	-211.996252
1885.274483	-212.054393
1886.460803	-212.103249
1887.648616	-212.164271
1888.837927	-212.210108
1890.028736	-212.273575
1891.221049	-212.317311
1892.414866	-212.381310
1893.610192	-212.424236
1894.807028	-212.488651
1896.005379	-212.531343
1897.205246	-212.594304
1898.406633	-212.637879
1899.609542	-212.699576
1900.813977	-212.744340
1902.019940	-212.803563
1903.227434	-212.851076
1904.436462	-212.907128
1905.647028	-212.957207
1906.859133	-213.010506
1908.072781	-213.062640
1909.287976	-213.112638
1910.504719	-213.167805
1911.723013	-213.215143
1912.942863	-213.272562
1914.164270	-213.316498
1915.387238	-213.376657
1916.611770	-213.417463
1917.837868	-213.479680
1919.065536	-213.518739
1920.294777	-213.582536
1921.525594	-213.619082
1922.757989	-213.684324
1923.991967	-213.720016
1925.227529	-213.786166
1926.464679	-213.820264
1927.703420	-213.886640
1928.943755	-213.920381
1930.185688	-213.986516
1931.429221	-214.020208
1932.674356	-214.085896
1933.921099	-214.119506
1935.169451	-214.184797
1936.419415	-214.218471
1937.670996	-214.283396
1938.924195	-214.317646
1940.179017	-214.381191
1941.435463	-214.416224
1942.693538	-214.478717
1943.953245	-214.514445
1945.214586	-214.575046
1946.477566	-214.612206
1947.742186	-214.671197
1949.008451	-214.710190
1950.276363	-214.767593
1951.545926	-214.806672
1952.817143	-214.862800
1954.090017	-214.903188
1955.364551	-214.957407
1956.640749	-214.999641
1957.918615	-215.052285
1959.198150	-215.095777
1960.479359	-215.147101
1961.762244	-215.191310
1963.046810	-215.240951
1964.333059	-215.285761
1965.620995	-215.333683
1966.910621	-215.380535
1968.201940	-215.427752
1969.494956	-215.474913
1970.789672	-215.520566
1972.086091	-215.569186
1973.384217	-215.612812
1974.684053	-215.662204
1975.985602	-215.704764
1977.288869	-215.754821
1978.593855	-215.797322
1979.900566	-215.846888
1981.209003	-215.889096
1982.519171	-215.939423
1983.831073	-215.980719
1985.144712	-216.030592
1986.460093	-216.071004
1987.777217	-216.121602
1989.096089	-216.163007
1990.416713	-216.213017
1991.739092	-216.253186
1993.063228	-216.303596
1994.389127	-216.343930
1995.716791	-216.392834
1997.046223	-216.433070
1998.377428	-216.482771
1999.710409	-216.522790
2001.045169	-216.571991
2002.381713	-216.612172
2003.720043	-216.660739
2005.060163	-216.701302
2006.402077	-216.748971
2007.745788	-216.790056
2009.091301	-216.837537
2010.438618	-216.878138
2011.787743	-216.925623
2013.138680	-216.966401
2014.491433	-217.013223
2015.846005	-217.053736
2017.202399	-217.100596
2018.560621	-217.141076
2019.920673	-217.187375
2021.282558	-217.228032
2022.646281	-217.273564
2024.011846	-217.314734
2025.379256	-217.359980
2026.748515	-217.401291
2028.119626	-217.445921
2029.492594	-217.487326
2030.867422	-217.531950
2032.244114	-217.573548
2033.622673	-217.617843
2035.003104	-217.659112
2036.385411	-217.702153
2037.769597	-217.744958
2039.155665	-217.786267
2040.543621	-217.828969
2041.933467	-217.871528
2043.325208	-217.914100
2044.718847	-217.955116
2046.114389	-217.998521
2047.511837	-218.038980
2048.911195	-218.082382
2050.312467	-218.122797
2051.715657	-218.167553
2053.120769	-218.206045
2054.527807	-218.250685
2055.936775	-218.288531
2057.347677	-218.332823
2058.760516	-218.372322
2060.175297	-218.415049
2061.592025	-218.454703
2063.010701	-218.498852
2064.431332	-218.537979
2065.853921	-218.578747
2067.278472	-218.617370
2068.704988	-218.662038
2070.133475	-218.701880
2071.563936	-218.742889
2072.996375	-218.784099
2074.430796	-218.825430
2075.867204	-218.865100
2077.305603	-218.904655
2078.745996	-218.946381
2080.188389	-218.985844
2081.632784	-219.027102
2083.079187	-219.067187
2084.527601	-219.108095
2085.978030	-219.147850
2087.430480	-219.187236
2088.884954	-219.227964
2090.341455	-219.267329
2091.799990	-219.308236
2093.260561	-219.347500
2094.723173	-219.386000
2096.187831	-219.427136
2097.654538	-219.464954
2099.123300	-219.508732
2100.594119	-219.544406
2102.067001	-219.585223
2103.541950	-219.623529
2105.018971	-219.665387
2106.498067	-219.703015
2107.979243	-219.744256
2109.462503	-219.779710
2110.947853	-219.821316
2112.435295	-219.859222
2113.924836	-219.899276
2115.416478	-219.936436
2116.910227	-219.977347
2118.406087	-220.015673
2119.904063	-220.054290
2121.404158	-220.091897
2122.906378	-220.132543
2124.410727	-220.169851
2125.917210	-220.209100
2127.425831	-220.245022
2128.936594	-220.286762
2130.449505	-220.322406
2131.964567	-220.363934
2133.481786	-220.399043
2135.001166	-220.439860
2136.522711	-220.476149
2138.046427	-220.516102
2139.572317	-220.550951
2141.100388	-220.592061
2142.630642	-220.626396
2144.163085	-220.669309
2145.697722	-220.703413
2147.234558	-220.744028
2148.773596	-220.778426
2150.314842	-220.818475
2151.858301	-220.854477
2153.403977	-220.894577
2154.951875	-220.930238
2156.502000	-220.969160
2158.054357	-221.005850
2159.608950	-221.042866
2161.165785	-221.079079
2162.724866	-221.116178
2164.286198	-221.153606
2165.849786	-221.190256
2167.415635	-221.228146
2168.983749	-221.265001
2170.554134	-221.304318
2172.126795	-221.339183
2173.701737	-221.377076
2175.278964	-221.412114
2176.858481	-221.451500
2178.440294	-221.485519
2180.024408	-221.524546
2181.610827	-221.559116
2183.199557	-221.596570
2184.790602	-221.632464
2186.383968	-221.669764
2187.979660	-221.705483
2189.577683	-221.741994
2191.178041	-221.780077
2192.780741	-221.813904
2194.385787	-221.852009
2195.993185	-221.886658
2197.602939	-221.925303
2199.215054	-221.952105
